PDS_VERSION_ID         = PDS3
RECORD_TYPE            = STREAM
OBJECT                 = TEXT
  PUBLICATION_DATE     = 2017-12-05
  INTERCHANGE_FORMAT   = ASCII
  NOTE                 = "NAC hot pixel file for epoch 2015.7."
END_OBJECT             = TEXT
END

NAC hot pixel list. Lines 1 and 2 are column headings giving exposure time 
(sec) and gain state (e-/DN), respectively, of source dark images. Starting 
on line 3, first two columns indicate x and y value of hot pixel; columns 3 
through N-1 give median electron counts for each exposure bin, and last (Nth) 
column contains either the index of the exposure bin where saturation first 
occurs, or -1 if no saturation.

\begindata
      0.00000      0.00000      0.00000      10.0000      32.0000      100.000      320.000      560.000      1200.00
      0.00000      0.00000      12.8410      12.8410      30.2700      30.2700      30.2700      30.2700      30.2700
      967.000      336.000      301.790      29151.5      79947.9      125469.      125460.      125479.      125466.      3.00000
      804.000      654.000      340.425      26373.0      74694.4      125470.      125473.      125487.      125487.      3.00000
      964.000      361.000      268.645      25747.0      71030.5      125479.      125494.      125471.      125484.      3.00000
      481.000      99.0000      202.430      19744.6      58405.4      125473.      125465.      125481.      125463.      3.00000
      50.0000      614.000      240.394      20266.8      57098.6      124097.      125474.      125477.      125476.      3.00000
      190.000      864.000      253.623      15237.3      47005.2      118348.      125467.      125472.      125467.      4.00000
      996.000      931.000      174.512      9991.46      33746.3      95936.5      125484.      125487.      125474.      4.00000
      98.0000      87.0000      101.373      10939.4      33451.5      89887.0      125470.      125488.      125502.      4.00000
      845.000      326.000      118.377      10688.6      34627.1      88885.5      125478.      125481.      125482.      4.00000
      975.000      866.000      170.888      8458.85      28394.1      83014.7      125467.      125466.      125463.      4.00000
      397.000      137.000      97.0977      8401.65      26766.7      78240.3      125470.      125477.      125479.      4.00000
      297.000      396.000      133.618      10723.4      32539.7      83692.5      125494.      125465.      125465.      4.00000
      343.000      526.000      160.203      9998.65      31015.2      80563.3      125485.      125484.      125483.      4.00000
      158.000      65.0000      121.719      10507.2      30786.8      75191.5      125471.      125474.      125458.      4.00000
      573.000      212.000      85.2209      8390.35      26529.7      71126.2      125462.      125474.      125478.      4.00000
      37.0000      647.000      148.432      7902.38      24956.8      69800.7      125492.      125486.      125490.      4.00000
      213.000      482.000      94.6343      6608.68      22049.8      65244.0      125484.      125465.      125481.      4.00000
      381.000      361.000      108.845      7544.84      24011.4      66637.2      125494.      125471.      125484.      4.00000
      898.000      949.000      185.241      4696.97      16628.9      57316.9      125476.      125464.      125472.      4.00000
      967.000      351.000      112.366      5580.18      18436.4      58145.2      125485.      125463.      125460.      4.00000
      546.000      747.000      188.260      5598.91      19103.8      58497.7      125465.      125465.      125462.      4.00000
      919.000      767.000      151.193      5299.06      19292.1      58515.7      125490.      125479.      125479.      4.00000
      345.000      147.000      87.7583      6556.50      20846.2      59760.4      125477.      125463.      125461.      4.00000
      599.000      452.000      118.145      6510.15      20740.2      58952.2      125470.      125484.      125488.      4.00000
      859.000      357.000      86.0451      6453.25      20800.9      58695.4      125483.      125465.      125481.      4.00000
      268.000      74.0000      74.1477      5939.32      18298.1      52185.4      125480.      125467.      125467.      4.00000
      345.000      213.000      49.1379      3052.22      9731.53      28264.8      115212.      125467.      125478.      5.00000
      967.000      337.000      83.0533      289.599      541.735      1015.08      88469.4      125475.      125463.      5.00000
      242.000      621.000      134.760      4010.41      13952.3      43892.0      122708.      125465.      125454.      5.00000
      3.00000      884.000      26.1842      3462.69      12916.3      41769.2      116853.      125484.      125488.      5.00000
      960.000      153.000      45.4674      4156.33      13433.1      40995.3      112062.      125467.      125463.      5.00000
      149.000      356.000      76.4529      5147.04      16872.1      49116.4      118608.      125462.      125477.      5.00000
      142.000      23.0000      55.7963      4860.72      15293.6      44484.0      114003.      125465.      125446.      5.00000
      117.000      230.000      76.5686      5402.33      16895.1      48314.4      116716.      125472.      125465.      5.00000
      408.000      377.000      76.6284      5064.19      12097.4      37479.7      108312.      125500.      125472.      5.00000
      151.000      977.000      207.647      5714.92      19121.7      54706.8      121364.      125489.      125460.      5.00000
      804.000      655.000      174.405      443.636      826.022      1504.76      77667.4      125491.      125483.      5.00000
      842.000      1000.00      191.802      4923.15      16579.4      48831.4      114753.      125463.      125483.      5.00000
      56.0000      789.000      165.553      4644.88      15490.2      45155.4      111559.      125470.      125460.      5.00000
      92.0000      413.000      100.316      6689.00      20963.1      55936.2      119304.      125470.      125481.      5.00000
      689.000      807.000      150.053      2690.97      9485.21      31701.0      99444.7      125482.      125492.      5.00000
      544.000      256.000      47.2374      3050.13      9875.63      31314.3      98691.1      125476.      125471.      5.00000
      649.000      346.000      61.8204      3016.58      9968.50      31927.7      99189.6      125478.      125452.      5.00000
      899.000      52.0000      67.5188      6836.45      20640.3      53679.7      114360.      125472.      125483.      5.00000
      910.000      336.000      57.7500      3049.49      10187.5      31920.3      95927.1      125479.      125466.      5.00000
      25.0000      684.000      136.043      3619.33      12403.9      37697.5      100402.      125472.      125475.      5.00000
      1008.00      692.000      112.876      3059.31      10653.9      33117.8      94937.1      125477.      125478.      5.00000
      865.000      462.000      92.4840      4985.43      15938.1      44510.0      103209.      125479.      125464.      5.00000
      462.000      84.0000      56.0539      3731.57      11907.1      35362.3      94367.1      125486.      125490.      5.00000
      711.000      498.000      97.7090      4963.54      16078.5      44851.7      102030.      125485.      125459.      5.00000
      578.000      312.000      67.0142      4493.40      14353.6      40886.9      97837.5      125467.      125464.      5.00000
      103.000      483.000      93.0585      4211.09      13488.5      38778.0      96167.5      125467.      125488.      5.00000
      887.000      625.000      117.953      3178.31      10866.8      34071.4      92325.1      125463.      125450.      5.00000
      984.000      295.000      54.3216      3391.18      11264.6      34799.8      92538.2      125485.      125481.      5.00000
      424.000      219.000      47.7390      3255.20      11179.8      32340.4      89934.8      125486.      125468.      5.00000
      843.000      421.000      54.1822      2690.09      9325.81      30008.4      86668.1      125482.      125454.      5.00000
      523.000      169.000      48.8916      3645.69      11577.5      33895.1      89074.2      125478.      125488.      5.00000
      524.000      697.000      137.006      2623.88      9340.66      30265.6      86427.6      125478.      125469.      5.00000
      123.000      79.0000      48.7818      3544.20      11231.2      32921.0      87936.2      125472.      125473.      5.00000
      297.000      252.000      55.7616      2906.84      9425.37      28622.2      84740.6      125470.      125482.      5.00000
      647.000      265.000      55.0284      3675.76      11892.5      34827.0      88782.8      125462.      125445.      5.00000
      1000.00      337.000      45.0695      2931.99      9743.49      29831.2      83789.8      125475.      125463.      5.00000
      549.000      905.000      163.577      2423.82      9084.71      29317.8      83728.5      125465.      125453.      5.00000
      581.000      381.000      50.2656      2188.64      7677.74      24690.6      79245.2      125487.      125461.      5.00000
      874.000      134.000      37.5014      2386.61      7885.51      24872.6      78890.1      125475.      125478.      5.00000
      634.000      10.0000      35.8670      3461.99      10764.4      31620.5      84010.6      124300.      125488.      5.00000
      487.000      880.000      164.192      2691.40      9365.61      29851.9      82699.4      123205.      125493.      5.00000
      120.000      68.0000      37.6611      3130.15      9815.88      29384.0      81203.7      122876.      125457.      5.00000
      515.000      513.000      86.6911      2667.18      8537.45      26665.1      79000.4      123583.      125473.      5.00000
      895.000      208.000      23.7846      2764.29      8913.71      27288.2      79727.5      125481.      125476.      5.00000
      481.000      100.000      42.6364      116.132      222.093      430.559      53196.4      125483.      125461.      5.00000
      814.000      601.000      96.6522      1899.15      6396.62      20854.0      68310.9      118703.      125483.      6.00000
      898.000      948.000      139.346      94.4247      117.156      216.189      294.278      68952.8      125470.      6.00000
      732.000      583.000      114.390      2073.88      7137.01      23134.9      71587.0      116750.      125461.      6.00000
      776.000      573.000      101.800      2572.84      8592.96      27552.1      79540.2      122215.      125482.      6.00000
      434.000      761.000      143.596      1577.30      5502.05      18622.4      61785.1      108541.      125473.      6.00000
      47.0000      360.000      54.5826      2503.69      8102.59      25376.7      74337.7      117038.      125487.      6.00000
      3.00000      473.000     -79.6567      1362.76      5422.88      18592.8      62010.3      108132.      125454.      6.00000
      491.000      588.000      120.402      2855.01      9638.19      29521.3      80748.6      120540.      125458.      6.00000
      268.000      676.000      145.504      2076.35      7314.02      23742.6      71353.5      113629.      125478.      6.00000
      181.000      823.000      143.879      1455.53      5210.22      18029.2      61747.7      106470.      125458.      6.00000
      18.0000      679.000      82.7839      2431.80      8547.93      27337.7      77406.4      117677.      125472.      6.00000
      305.000      696.000      137.162      2452.25      7318.58      22412.3      68255.2      109825.      125463.      6.00000
      147.000      68.0000      24.9998      2228.57      7203.41      21963.8      65335.5      106239.      125457.      6.00000
      362.000      915.000      175.689      2196.69      8301.75      26523.7      75195.5      113832.      125471.      6.00000
      570.000      606.000      108.567      1967.49      7067.88      22645.3      68272.9      108522.      125490.      6.00000
      444.000      692.000      129.157      1978.44      7099.78      22652.2      67870.9      107614.      125478.      6.00000
      964.000      360.000      30.2293      60.9014      132.253      231.577      24801.9      75747.8      125487.      6.00000
      303.000      118.000      25.1101      2659.49      8583.30      25626.8      70689.4      108673.      125466.      6.00000
      328.000      733.000      128.447      1688.43      5843.58      19425.0      61776.7      102370.      125497.      6.00000
      762.000      386.000      37.1053      2167.83      7507.04      23454.2      68008.1      106688.      125461.      6.00000
      391.000      888.000      184.272      3143.38      10610.2      32054.0      80973.8      115457.      125493.      6.00000
      385.000      420.000      52.0796      1802.36      6150.84      19699.5      61558.6      101043.      125459.      6.00000
      139.000      0.00000      19.2551      2309.26      7169.27      21998.6      65058.2      102971.      125481.      6.00000
      956.000      727.000      129.206      1942.30      6793.58      21886.1      65260.8      103349.      125496.      6.00000
      552.000      694.000      128.216      1979.68      6771.45      21869.9      64996.7      102525.      125471.      6.00000
      911.000      250.000      51.3518      2296.40      7503.86      23483.2      66743.6      103189.      125485.      6.00000
      236.000      340.000      53.4930      2769.26      9147.43      27419.0      73451.7      108111.      125460.      6.00000
      681.000      578.000      104.455      2078.36      7291.98      22894.9      66502.3      103189.      125470.      6.00000
      858.000      355.000      41.5603      1896.83      6589.22      21209.5      63690.5      100756.      125474.      6.00000
      774.000      785.000      126.537      2084.51      7411.29      23632.8      67676.1      103650.      125468.      6.00000
      168.000      153.000      53.5406      3126.48      9751.45      28863.1      74616.0      108150.      125463.      6.00000
      157.000      741.000      122.860      1775.20      6187.80      20467.3      62380.8      99532.7      125463.      6.00000
      154.000      715.000      142.145      1634.80      5847.51      19482.7      60746.8      98139.1      125465.      6.00000
      365.000      875.000      156.903      2086.77      7945.83      25733.9      71010.7      105538.      125478.      6.00000
      936.000      998.000      167.633      4772.32      15833.8      45418.0      80713.0      120567.      125479.      6.00000
      967.000      350.000      70.6802      115.431      186.594      248.225      380.182      53643.5      125459.      6.00000
      466.000      770.000      158.118      1824.87      6475.65      23019.6      66001.2      101508.      125481.      6.00000
      973.000      62.0000      15.7246      1892.06      6183.15      19059.3      57711.2      94859.3      125461.      6.00000
      19.0000      1018.00      156.113      1469.19      5410.08      18675.1      59024.1      96098.0      125467.      6.00000
      449.000      264.000      59.9928      3200.79      10472.9      30527.6      76458.5      108047.      125448.      6.00000
      817.000      592.000      112.323      2027.38      7276.85      23121.0      65525.8      99888.2      125470.      6.00000
      758.000      44.0000      21.3411      2207.87      7130.01      21565.4      62172.6      97073.2      125478.      6.00000
      804.000      653.000      97.1147      76.8407      122.627      216.251      34455.3      77066.5      125491.      6.00000
      76.0000      1017.00      170.127      1665.18      6239.01      21365.2      64215.0      98672.4      125470.      6.00000
      847.000      345.000      46.9707      1957.66      6723.80      20952.7      61212.7      95743.9      125453.      6.00000
      719.000      958.000      179.768      1956.44      6945.27      22868.7      64192.2      98223.0      125481.      6.00000
      433.000      740.000      179.228      2020.07      6599.19      21303.9      62532.2      96884.9      125466.      6.00000
      335.000      245.000      40.5037      2412.68      8126.48      24029.8      65630.4      98462.4      125490.      6.00000
      578.000      933.000      188.178      1248.95      4404.18      15154.6      50881.2      87840.0      125473.      6.00000
      671.000      105.000      30.8873      2392.28      7687.51      23356.2      63867.0      96831.4      125452.      6.00000
      433.000      70.0000      30.1250      1680.20      5480.43      17095.4      53042.6      88597.2      125455.      6.00000
      466.000      982.000      210.209      1694.06      6164.25      20731.6      61211.2      94883.6      125455.      6.00000
      813.000      953.000      157.793      1810.23      6847.96      22027.1      63435.2      96332.8      125480.      6.00000
      738.000      875.000      161.037      1848.37      6898.18      22313.7      63643.9      96220.6      125478.      6.00000
      710.000      1012.00      207.011      2071.87      7318.50      22937.2      64397.1      96795.1      125479.      6.00000
      651.000      420.000      59.7814      1575.31      5375.85      17278.1      54905.8      89034.1      125459.      6.00000
      766.000      872.000      152.623      1629.92      5573.65      17964.2      55436.3      89386.5      125468.      6.00000
      996.000      930.000      126.266      99.4082      156.015      262.520      3572.70      51110.1      125475.      6.00000
      86.0000      665.000      121.049      1524.12      5333.14      17570.8      54381.7      87808.8      125464.      6.00000
      566.000      215.000      51.2077      1900.17      6073.58      18921.3      55739.8      88496.2      125473.      6.00000
      580.000      531.000      90.2247      1865.02      6363.69      19878.3      57950.7      89766.4      125486.      6.00000
      190.000      863.000      148.079      92.9208      120.876      212.257      9067.88      54336.0      125463.      6.00000
      277.000      703.000      141.441      1401.14      4966.56      16817.9      53089.2      86132.1      125452.      6.00000
      307.000      107.000      20.9429      1953.28      6440.50      19296.8      55602.7      87585.5      125451.      6.00000
      588.000      243.000      45.2826      1790.29      6006.65      18422.7      54360.1      86420.1      125488.      6.00000
      16.0000      244.000      29.2440      2179.54      7059.47      21877.2      60199.9      90370.5      125490.      6.00000
      345.000      13.0000      16.6167      1815.82      5698.30      17527.1      52017.6      84073.9      125494.      6.00000
      771.000      412.000      60.0330      1437.93      4898.73      15555.8      49265.7      81919.5      125484.      6.00000
      685.000      522.000      83.4414      1193.60      4090.56      13964.7      45302.8      78910.6      125486.      6.00000
      232.000      45.0000      26.3138      1936.20      6080.60      18359.4      53145.1      84342.3      125478.      6.00000
      844.000      950.000      181.204      1857.53      7000.07      22759.7      62169.9      91292.7      125474.      6.00000
      9.00000      306.000      5.54756      2008.59      6699.15      20503.9      57133.7      87304.2      125465.      6.00000
      358.000      246.000      49.4507      1875.84      6124.77      18754.9      54097.7      84896.4      125490.      6.00000
      3.00000      19.0000     -151.277      1623.17      5591.50      17474.1      51776.1      82711.3      125460.      6.00000
      523.000      626.000      159.508      1634.30      5653.45      17993.9      53850.2      84486.9      125448.      6.00000
      435.000      576.000      127.476      1561.95      5427.88      17327.8      52302.3      83332.5      125477.      6.00000
      606.000      56.0000      30.3009      1424.00      4490.92      14140.1      44950.7      77502.3      125477.      6.00000
      686.000      238.000      62.4306      2929.65      9452.86      28741.0      73423.3      98283.0      125478.      6.00000
      505.000      470.000      84.4430      2868.35      9239.22      27227.5      67824.5      94276.4      125451.      6.00000
      604.000      508.000      88.4648      1481.27      5122.61      16570.0      50123.8      81182.0      125462.      6.00000
      411.000      683.000      128.184      1280.54      4205.00      13899.0      45734.5      78057.6      125473.      6.00000
      814.000      545.000      92.6756      1450.26      5029.54      16538.2      51032.5      81589.7      125454.      6.00000
      223.000      273.000      34.5425      1427.71      4282.25      14123.7      44568.9      76732.7      125455.      6.00000
      31.0000      274.000      41.4550      1691.46      5681.34      17656.8      51103.4      81210.6      125460.      6.00000
      945.000      197.000      36.9936      1959.55      6554.82      19726.2      54786.4      83693.4      125464.      6.00000
      907.000      703.000      122.677      1068.23      3766.43      12800.2      42995.4      75032.0      125452.      6.00000
      898.000      950.000      178.153      292.079      571.177      1130.42      2416.78      45274.1      125474.      6.00000
      586.000      516.000      83.5568      1373.22      4639.54      15046.3      46967.3      77406.7      125481.      6.00000
      417.000      152.000      27.5351      1861.81      6034.62      18292.5      51962.7      80588.4      125459.      6.00000
      349.000      126.000      30.4717      1650.40      5418.38      16884.4      49600.1      78823.6      125482.      6.00000
      160.000      649.000      128.248      1629.58      5483.18      17847.0      53582.5      81608.8      125491.      6.00000
      202.000      885.000      176.710      1047.14      3685.37      12757.1      42545.2      73651.7      125485.      6.00000
      96.0000      767.000      140.737      1423.92      4858.48      15673.1      47569.3      77021.2      125479.      6.00000
      757.000      317.000      47.3351      1708.76      5669.87      17513.8      50548.4      78446.1      125468.      6.00000
      198.000      686.000      129.152      1474.78      5117.45      16517.2      48527.2      76908.0      125478.      6.00000
      693.000      236.000      28.2862      1495.05      5008.29      15857.3      47409.8      75788.1      125474.      6.00000
      874.000      280.000      25.8169      1490.02      4880.19      15310.5      45614.3      74397.9      125479.      6.00000
      798.000      803.000      143.878      1215.19      4375.25      14535.9      45152.5      74259.9      125488.      6.00000
      464.000      138.000      31.0025      1482.98      4950.82      15334.4      45499.1      73700.0      125475.      6.00000
      654.000      305.000      31.9097      1291.56      4344.99      13856.5      42865.6      71596.8      125465.      6.00000
      774.000      911.000      176.478      1351.64      4741.02      15481.4      46110.6      73305.8      125462.      6.00000
      617.000      756.000      130.073      1116.50      3963.95      13343.3      42716.9      70760.2      125466.      6.00000
      667.000      246.000      29.6314      1391.55      4627.53      14734.5      44072.1      71442.0      125490.      6.00000
      0.00000      233.000     -279.356      1106.65      4306.94      13884.9      42127.7      70014.6      125470.      6.00000
      329.000      799.000      144.471      910.530      3156.56      11018.1      38062.8      67242.1      125473.      6.00000
      977.000      227.000      20.8022      1070.88      3585.79      11825.0      38619.4      67357.6      125461.      6.00000
      555.000      944.000      174.397      1045.27      3829.66      13167.8      42269.1      70274.0      125465.      6.00000
      424.000      78.0000      13.8134      1499.87      4805.91      14663.7      43912.7      71046.2      125474.      6.00000
      632.000      885.000      151.387      1100.76      3945.48      13637.1      43389.4      70978.8      125485.      6.00000
      15.0000      49.0000      13.5956      1394.90      4411.93      13578.4      41249.6      68804.4      125484.      6.00000
      173.000      726.000      154.945      1292.29      4590.76      14916.8      45004.0      71802.5      123057.      6.00000
      794.000      306.000      41.4273      1240.78      4347.73      13973.1      42198.3      69572.8      125461.      6.00000
      144.000      141.000      30.8478      1899.53      5995.81      16197.6      46137.2      72215.5      122761.      6.00000
      624.000      893.000      171.705      1234.65      4093.12      13808.6      42552.5      69524.4      123787.      6.00000
      372.000      83.0000      15.8722      1218.57      3890.69      12271.4      38492.3      65946.6      125483.      6.00000
      264.000      101.000      35.0699      1125.08      3557.19      11037.0      34077.3      61190.2      125458.      6.00000
      890.000      966.000      170.211      1008.75      3642.13      12444.2      40458.8      67110.5      122808.      6.00000
      64.0000      477.000      73.4399      1030.35      3452.34      11332.5      36973.0      64221.1      125463.      6.00000
      109.000      497.000      64.0936      1023.78      3362.75      11160.9      36301.8      62961.9      125463.      6.00000
      699.000      675.000      111.172      1021.27      3423.62      11288.9      36340.4      63017.0      125479.      6.00000
      975.000      865.000      151.313      78.1393      124.008      179.739      277.001      35805.0      125467.      6.00000
      481.000      98.0000      9.32186      56.4133      101.842      194.811      18656.2      48483.4      125466.      6.00000
      191.000      582.000      91.1874      1273.85      4378.15      14322.4      43115.3      69697.6      122505.     -1.00000
      708.000      520.000      80.0005      1074.80      3488.44      11616.5      37398.4      63540.8      121849.     -1.00000
      624.000      334.000      31.2078      1347.64      4415.61      14051.6      42472.0      68519.9      121136.     -1.00000
      963.000      850.000      126.488      921.954      3242.91      10877.4      36309.9      62376.8      121432.     -1.00000
      730.000      65.0000      7.76805      1254.05      4196.98      13293.6      40310.6      66042.5      120402.     -1.00000
      795.000      80.0000      21.0404      1218.19      4044.01      12690.6      39418.4      65098.0      120166.     -1.00000
      325.000      995.000      193.392      868.083      3128.66      10956.6      36496.9      62554.4      121259.     -1.00000
      259.000      207.000      29.5823      1519.59      5194.77      15907.8      45806.4      71550.3      119764.     -1.00000
      393.000      351.000      41.6273      1553.71      5362.40      15582.8      46830.6      72136.1      119820.     -1.00000
      500.000      704.000      141.335      961.167      3369.58      11361.9      36341.4      61928.0      118802.     -1.00000
      210.000      160.000      37.1786      1671.68      5414.46      16298.6      45588.4      70346.2      117722.     -1.00000
      703.000      632.000      99.1237      1092.91      3667.04      12338.0      39314.1      65033.0      118234.     -1.00000
      206.000      541.000      86.2476      1243.37      4185.09      13988.5      43349.9      69466.6      118077.     -1.00000
      113.000      815.000      126.475      1104.79      4140.78      13896.8      42506.0      68132.2      118241.     -1.00000
      56.0000      787.000      130.309      1123.25      4032.20      13378.8      40943.8      65914.8      116938.     -1.00000
      391.000      535.000      80.1322      1331.39      4481.00      13825.5      41217.3      66277.6      116609.     -1.00000
      285.000      111.000      33.4566      1627.11      5192.62      15481.2      43886.3      68450.4      116042.     -1.00000
      947.000      122.000      23.9162      1064.05      3467.48      11054.7      34742.9      59140.7      116001.     -1.00000
      968.000      320.000      31.4538      1271.89      4284.85      13223.4      39646.9      64475.8      115930.     -1.00000
      134.000      705.000      136.184      1270.65      4270.01      13919.7      41708.9      66314.1      116046.     -1.00000
      566.000      332.000      30.4413      1181.89      3878.43      12477.2      37676.5      61984.4      115064.     -1.00000
      117.000      577.000      114.148      945.769      3154.73      10289.4      33023.2      57240.6      115269.     -1.00000
      784.000      211.000      43.9975      1152.61      3683.85      11889.3      36429.5      60717.8      114661.     -1.00000
      459.000      492.000      71.3670      823.475      2720.86      9150.71      30241.9      53856.7      114724.     -1.00000
      419.000      259.000      35.0224      1237.77      4142.92      13025.9      38664.0      62700.2      114408.     -1.00000
      875.000      196.000      25.8622      1467.65      4707.06      14489.9      42075.5      66283.7      114250.     -1.00000
      730.000      372.000      45.8961      1000.05      3284.35      10622.2      34146.1      58247.1      114346.     -1.00000
      961.000      431.000      37.1521      1051.33      3532.02      11599.5      37163.0      61162.6      114203.     -1.00000
      347.000      873.000      159.561      845.915      2904.14      10487.5      35492.6      59934.5      114196.     -1.00000
      180.000      383.000      47.9665      1041.83      3468.51      11026.8      34553.1      58347.8      113591.     -1.00000
      93.0000      236.000      38.1396      1030.23      3434.18      10894.9      34464.6      58680.7      113357.     -1.00000
      344.000      970.000      165.230      1114.63      4022.14      13671.8      41881.7      66584.6      114243.     -1.00000
      166.000      840.000      151.659      961.043      3308.75      10823.8      34061.1      57942.1      114015.     -1.00000
      387.000      799.000      151.131      1140.03      3707.59      12325.8      38021.2      62635.1      113900.     -1.00000
      166.000      826.000      151.443      1215.87      4437.69      14537.5      42630.7      67724.9      113714.     -1.00000
      873.000      878.000      151.611      852.819      3129.60      11163.0      36494.1      61770.3      113594.     -1.00000
      484.000      945.000      183.453      963.815      3165.26      11036.8      36054.3      60630.0      113636.     -1.00000
      173.000      263.000      23.9500      863.197      3000.16      9611.02      30535.5      58703.0      112754.     -1.00000
      553.000      635.000      122.714      857.672      2792.57      9312.74      30888.5      54401.0      112851.     -1.00000
      454.000      817.000      137.326      981.313      3424.09      11624.0      36434.2      60751.2      112367.     -1.00000
      319.000      409.000      47.2709      1083.21      3607.05      11480.7      35831.6      60044.8      111706.     -1.00000
      802.000      40.0000      19.5787      1291.82      4240.48      13269.5      39673.6      63635.4      110711.     -1.00000
      643.000      412.000      50.7432      1174.32      4169.48      13321.7      39401.0      63387.9      111112.     -1.00000
      960.000      387.000      35.9721      1200.20      4161.78      13491.0      39627.8      63468.4      110247.     -1.00000
      870.000      115.000      21.2859      1179.18      3793.11      12058.9      39634.8      59571.7      109370.     -1.00000
      5.00000      322.000     -83.6595      907.733      3288.18      10920.7      33964.8      56894.4      109498.     -1.00000
      188.000      596.000      108.508      1089.80      3703.04      12240.3      37591.4      61179.2      109814.     -1.00000
      699.000      605.000      117.622      1705.71      7024.11      21352.3      46353.3      63645.2      109785.     -1.00000
      1019.00      474.000      40.3785      860.821      3082.43      10134.3      32645.9      56193.1      109595.     -1.00000
      445.000      920.000      172.923      1105.72      3916.82      13646.8      42230.6      66047.0      109898.     -1.00000
      859.000      667.000      119.416      737.271      2495.02      8370.14      28226.6      50612.9      109575.     -1.00000
      483.000      824.000      158.721      888.594      3045.71      10815.9      35805.9      59399.1      109687.     -1.00000
      996.000      932.000      160.950      396.772      771.281      1388.37      7349.93      27805.4      109769.     -1.00000
      545.000      571.000      84.8955      986.098      3339.32      11207.9      35143.5      59263.0      108968.     -1.00000
      12.0000      163.000      7.39119      1572.93      5259.53      15498.4      42892.4      65987.9      107902.     -1.00000
      425.000      546.000      78.5803      888.793      3040.53      10234.0      32483.5      55638.7      108003.     -1.00000
      97.0000      327.000      32.5142      1093.52      3497.78      11057.4      33901.3      56635.5      107410.     -1.00000
      290.000      246.000      32.8305      1279.93      4160.79      12981.7      39088.3      62616.4      107116.     -1.00000
      974.000      1018.00      168.774      716.337      2449.69      8971.92      30896.7      54083.2      107756.     -1.00000
      804.000      684.000      164.605      1461.01      4609.65      13923.9      40815.8      64111.6      107052.     -1.00000
      949.000      926.000      154.098      741.642      2657.05      9062.34      30650.9      53618.9      107147.     -1.00000
      845.000      57.0000      11.1164      1422.89      4653.49      14354.2      40959.1      63706.7      106011.     -1.00000
      112.000      139.000      20.2152      1151.36      3752.41      11679.0      34995.6      57715.3      106093.     -1.00000
      476.000      102.000      14.2021      1303.91      4169.63      12762.3      37326.4      60073.2      105895.     -1.00000
      456.000      914.000      160.253      1224.52      4100.09      13578.4      40690.7      63673.6      106386.     -1.00000
      507.000      210.000      28.7797      1170.56      3800.62      12197.1      36564.6      59386.4      105294.     -1.00000
      707.000      553.000      77.7766      919.465      3032.36      9862.60      31832.4      54155.1      105637.     -1.00000
      689.000      828.000      137.311      1502.92      4982.53      15384.6      43844.9      66423.6      105786.     -1.00000
      985.000      997.000      170.408      860.605      3040.85      10214.5      33495.4      55750.5      105773.     -1.00000
      168.000      851.000      145.547      591.169      1899.53      6484.09      21350.3      56697.4      105368.     -1.00000
      584.000      74.0000      10.9822      1150.36      3774.53      11693.3      35417.5      57881.4      104305.     -1.00000
      62.0000      626.000      117.498      1207.07      3965.92      12681.9      37705.6      60481.4      104870.     -1.00000
      268.000      491.000      131.543      813.077      2668.45      8764.55      28703.1      50151.9      104253.     -1.00000
      695.000      515.000      71.1668      1073.78      3455.77      11598.0      36122.1      59142.8      103942.     -1.00000
      247.000      466.000      80.2580      858.988      2664.79      8760.48      28795.6      49825.7      103512.     -1.00000
      341.000      573.000      77.9794      734.609      2411.09      8237.09      26964.3      45796.4      102706.     -1.00000
      807.000      287.000      37.4929      919.631      3071.90      9998.20      31455.5      53317.2      103039.     -1.00000
      179.000      294.000      39.9605      967.589      2958.09      9923.37      31813.6      55042.1      102918.     -1.00000
      397.000      447.000      52.5327      1079.92      3554.88      11746.4      35021.1      57093.8      102434.     -1.00000
      815.000      1012.00      181.688      772.365      2660.63      9096.80      31033.2      52479.4      102549.     -1.00000
      845.000      863.000      282.087      749.327      2490.99      8516.85      28706.6      50485.8      102368.     -1.00000
      967.000      335.000      18.5597      49.2796      109.012      194.456      12432.6      25583.7      101712.     -1.00000
      1018.00      212.000      21.9145      1117.74      3620.21      11421.6      35108.6      57047.6      101538.     -1.00000
      561.000      163.000      20.0525      943.298      3041.31      9724.75      30730.0      52204.4      100915.     -1.00000
      496.000      951.000      183.481      940.524      3161.17      10412.9      32981.1      55377.0      101149.     -1.00000
      448.000      584.000      109.095      1022.84      3459.12      11035.3      35045.9      58208.1      100597.     -1.00000
      108.000      237.000      35.7101      968.279      2966.91      9515.99      30054.6      51022.8      100185.     -1.00000
      901.000      885.000      151.387      721.531      2528.78      8712.29      29767.1      51639.5      100873.     -1.00000
      755.000      324.000      43.0080      872.731      2826.23      9228.05      29329.8      50685.2      100187.     -1.00000
      87.0000      156.000      33.5758      1023.45      3231.76      9853.15      30528.2      51398.5      99902.7     -1.00000
      480.000      948.000      180.445      981.817      3476.57      12235.2      37704.3      59810.1      100485.     -1.00000
      793.000      30.0000      26.5076      833.784      2689.94      8430.34      26996.5      47000.0      99360.7     -1.00000
      831.000      59.0000      24.5616      1111.68      3575.40      11175.8      33648.1      54959.5      99038.9     -1.00000
      481.000      101.000      52.3377      85.1456      162.015      284.656      538.473      683.507      98776.8     -1.00000
      797.000      311.000      30.1125      1046.12      3561.65      11444.5      34821.9      56287.1      98829.6     -1.00000
      729.000      475.000      62.0042      1159.44      3906.80      12757.5      40256.4      51939.6      98799.9     -1.00000
      47.0000      948.000      190.475      897.354      3054.64      10647.4      27807.8      54956.0      98768.7     -1.00000
      561.000      19.0000      13.3197      907.495      2924.49      8926.58      27932.2      48038.8      97626.1     -1.00000
      323.000      548.000      76.6479      849.490      2765.49      9344.20      30555.0      52091.6      97665.5     -1.00000
      460.000      705.000      142.011      854.773      2637.50      8899.38      28828.0      49628.8      97549.1     -1.00000
      1020.00      98.0000      6.30724      942.882      3121.24      9851.51      30533.5      51076.1      96811.5     -1.00000
      856.000      66.0000      21.7090      1054.22      3349.42      10367.7      31523.3      52159.0      96651.5     -1.00000
      225.000      457.000      62.8240      778.477      2577.87      8223.61      26604.1      46079.4      96919.7     -1.00000
      438.000      253.000      41.2857      877.149      2820.87      9065.74      28947.6      49394.5      96672.7     -1.00000
      707.000      40.0000      17.9358      979.094      3091.32      9688.99      29746.6      50333.0      96232.0     -1.00000
      228.000      238.000      33.2757      841.314      2678.46      8490.39      27089.6      51456.9      96413.6     -1.00000
      855.000      422.000      30.9718      732.543      2393.12      8342.34      28243.5      46506.2      96217.1     -1.00000
      878.000      412.000      42.1521      767.223      2486.48      8487.36      28006.1      48276.1      95943.2     -1.00000
      121.000      331.000      37.6750      843.772      2772.09      8791.39      27583.5      47450.8      95223.1     -1.00000
      427.000      586.000      97.5450      770.968      2547.77      8454.50      27158.9      46948.8      94282.1     -1.00000
      420.000      202.000      20.3964      987.690      3181.25      9815.59      30301.5      50545.8      93873.0     -1.00000
      333.000      40.0000      18.0851      822.575      2567.41      8028.81      25283.4      44032.5      93583.5     -1.00000
      342.000      36.0000      26.0441      1014.73      3193.84      9745.17      29808.6      49322.8      93451.1     -1.00000
      184.000      151.000      15.6143      679.250      2199.34      7083.80      22612.2      44174.1      93556.8     -1.00000
      530.000      805.000      152.166      840.347      2742.20      9158.23      30070.8      49822.4      94174.6     -1.00000
      62.0000      49.0000      21.2377      1118.27      3603.70      10957.6      32182.3      52139.8      93403.1     -1.00000
      940.000      335.000      25.6099      859.601      2953.05      9638.11      30264.0      50417.5      93647.1     -1.00000
      607.000      174.000      16.9338      873.618      2756.47      8854.10      28111.9      47533.7      93415.6     -1.00000
      146.000      890.000      160.620      719.044      2589.75      8467.66      27900.5      47501.4      94104.2     -1.00000
      932.000      118.000      11.0775      733.613      2398.47      7664.85      24832.6      43533.4      93161.4     -1.00000
      402.000      382.000      46.8919      843.966      2767.42      8886.27      28044.2      47860.6      93258.3     -1.00000
      672.000      486.000      73.4027      713.341      2358.98      7954.40      26285.0      45455.9      93333.2     -1.00000
      595.000      162.000      21.6423      1024.92      3125.61      10722.0      30627.1      50575.8      92952.8     -1.00000
      387.000      837.000      149.402      849.069      2825.08      8954.05      28464.0      48318.5      93440.2     -1.00000
      739.000      689.000      130.477      817.437      2589.08      8861.77      28732.4      48885.4      93205.4     -1.00000
      527.000      84.0000      14.6990      1024.13      3335.67      10062.8      30277.9      49865.8      92541.3     -1.00000
      235.000      72.0000      17.0079      1079.90      3463.78      10631.0      31863.3      51723.2      92300.6     -1.00000
      312.000      158.000      29.4944      905.389      3007.61      9315.36      29030.1      48823.6      91866.6     -1.00000
      973.000      430.000      27.9397      867.236      2890.12      9567.50      29425.0      49074.5      92133.8     -1.00000
      1.00000      244.000     -236.294      605.499      2465.73      8466.28      27125.7      46226.9      91571.9     -1.00000
      604.000      65.0000      29.4313      882.705      2850.88      8695.70      27187.7      45739.2      90959.4     -1.00000
      216.000      153.000      29.1306      1053.91      3437.11      10767.8      32277.3      52293.3      90969.8     -1.00000
      409.000      469.000      68.7192      1050.82      3318.26      10601.2      31635.0      51506.9      91059.1     -1.00000
      604.000      465.000      58.2386      841.939      2827.50      8698.97      26951.3      49901.3      90745.5     -1.00000
      42.0000      261.000      42.1343      725.501      2274.11      7750.46      24799.3      43069.9      90477.3     -1.00000
      707.000      781.000      151.880      714.877      2278.61      7471.12      24834.0      43614.4      90957.3     -1.00000
      748.000      369.000      37.8799      921.695      3460.61      10539.4      31764.3      51462.8      90535.0     -1.00000
      218.000      785.000      113.522      764.582      2566.07      8762.62      28346.6      47919.0      90710.0     -1.00000
      269.000      522.000      89.9658      813.864      2606.76      8169.84      26492.9      45298.5      90388.8     -1.00000
      864.000      122.000      9.35882      918.299      2965.64      9213.17      28490.1      47416.8      89931.5     -1.00000
      592.000      399.000      36.9143      722.673      2209.44      7327.36      24386.2      42880.7      90141.8     -1.00000
      765.000      370.000      35.8685      823.768      2746.72      9004.93      28277.2      47429.3      90091.6     -1.00000
      461.000      921.000      165.125      632.992      2103.49      7498.15      25989.4      44834.2      90276.6     -1.00000
      744.000      647.000      115.185      754.789      2550.93      8721.87      27846.6      46729.9      89947.1     -1.00000
      205.000      308.000      25.1094      777.699      2567.45      8361.36      26885.1      45585.1      89356.1     -1.00000
      586.000      114.000      30.1074      877.644      2838.98      8812.01      27203.7      45945.2      88848.4     -1.00000
      576.000      320.000      39.1656      1007.41      3129.36      9745.93      29800.5      48995.2      88790.7     -1.00000
      544.000      255.000      28.7806      158.926      421.461      1138.41      3408.61      6084.91      88676.9     -1.00000
      649.000      347.000      43.9230      123.478      246.710      431.215      758.880      1023.33      88695.5     -1.00000
      229.000      624.000      110.553      776.860      2588.26      8563.00      27498.9      46269.5      88530.8     -1.00000
      745.000      319.000      27.1819      787.356      2541.53      8395.55      27120.4      45236.5      88041.9     -1.00000
      702.000      163.000      7.99888      724.522      2278.79      7228.60      23841.3      41414.2      87883.0     -1.00000
      331.000      756.000      146.019      910.475      3174.61      10422.1      31328.7      50733.1      88186.3     -1.00000
      278.000      775.000      129.244      846.411      2783.17      9395.83      29815.2      49015.7      88128.2     -1.00000
      747.000      167.000      33.3534      842.798      2783.36      8736.53      27011.2      45564.0      87527.2     -1.00000
      255.000      8.00000      17.5102      830.482      2653.74      8176.14      24990.9      42804.5      87297.5     -1.00000
      902.000      259.000      35.0224      884.029      2925.73      9252.73      28202.5      46338.6      87378.5     -1.00000
      553.000      979.000      164.532      663.996      2212.42      7674.32      25678.5      43965.8      88010.6     -1.00000
      466.000      294.000      44.8348      865.171      2652.41      8536.03      26710.1      44729.7      86404.5     -1.00000
      476.000      340.000      40.8318      905.904      2815.56      9251.48      28428.3      46915.3      86208.7     -1.00000
      975.000      575.000      82.0552      883.725      2932.40      9290.54      29124.4      47571.5      86389.1     -1.00000
      705.000      164.000      19.3662      778.849      2575.10      8304.40      25912.0      43887.4      85564.3     -1.00000
      380.000      16.0000      21.7072      913.777      2889.97      8857.21      26782.3      44682.0      84768.5     -1.00000
      353.000      615.000      95.8661      794.122      2631.06      8277.10      26023.7      44022.6      84979.6     -1.00000
      82.0000      126.000      17.8678      849.348      2660.16      8009.62      25037.7      42661.5      84045.1     -1.00000
      378.000      749.000      131.391      597.316      1876.59      6618.87      22304.6      39951.9      84017.1     -1.00000
      715.000      202.000      20.8901      890.819      2857.10      9048.48      27282.6      44967.6      83465.6     -1.00000
      144.000      995.000      177.981      786.695      2669.14      8789.28      28099.3      46440.9      84047.2     -1.00000
      533.000      367.000      36.0919      761.875      2513.41      8176.04      26002.4      43569.5      83416.3     -1.00000
      435.000      2.00000      19.3012      867.482      2698.37      8437.84      26228.0      43364.8      83001.7     -1.00000
      547.000      889.000      164.066      534.250      1739.90      6018.78      21474.3      38630.5      83792.7     -1.00000
      22.0000      221.000      28.0889      691.880      2277.28      7153.05      23100.5      40046.9      83161.5     -1.00000
      743.000      756.000      142.419      665.468      2199.26      7562.33      24802.7      42442.2      83601.1     -1.00000
      79.0000      45.0000      13.6525      987.956      3160.61      9824.02      29612.6      48085.5      82532.6     -1.00000
      96.0000      524.000      77.2386      814.054      2670.21      8505.24      26160.3      43787.5      82811.4     -1.00000
      941.000      993.000      144.761      540.038      1785.49      6326.17      21851.4      38791.8      83108.6     -1.00000
      204.000      2.00000      19.3012      960.230      147.694      9311.83      27620.0      44974.3      82163.9     -1.00000
      768.000      677.000      120.152      832.862      2904.25      9684.42      29567.0      47406.0      82371.3     -1.00000
      521.000      183.000      29.4590      893.239      2763.97      8816.10      27442.3      44546.7      81106.9     -1.00000
      760.000      486.000      58.9869      700.714      2249.19      7774.39      25262.2      42745.7      81342.1     -1.00000
      724.000      114.000      19.6293      877.644      2972.94      9255.29      27654.8      44720.1      80922.4     -1.00000
      115.000      276.000      39.5451      1041.83      3361.28      10422.4      30356.1      47567.9      81026.7     -1.00000
      326.000      567.000      88.2011      715.236      2452.48      7889.30      24992.9      42453.7      81126.2     -1.00000
      433.000      71.0000      19.0873      421.346      1258.58      4035.61      14621.2      29115.7      80578.5     -1.00000
      501.000      448.000      50.6658      895.611      2739.47      8957.53      27830.2      45468.9      80904.4     -1.00000
      497.000      161.000      25.0836      762.847      2393.88      7651.97      23790.8      40508.8      80419.3     -1.00000
      964.000      362.000      87.8229      302.954      527.626      907.809      14013.3      30980.9      80514.4     -1.00000
      362.000      902.000      167.911      553.389      1810.83      6627.29      22437.4      39422.8      80945.9     -1.00000
      370.000      180.000      28.4482      854.844      2802.01      8777.92      26773.9      43878.1      80292.4     -1.00000
      230.000      761.000      144.780      719.224      2325.91      7831.22      25735.2      42911.0      80695.6     -1.00000
      919.000      948.000      155.122      607.206      2049.88      6967.00      23152.4      40386.2      80800.8     -1.00000
      816.000      880.000      161.544      666.188      2179.75      7379.01      24501.4      41635.6      80473.9     -1.00000
      52.0000      221.000      34.2970      673.781      2092.82      6701.06      21831.1      38073.3      79875.2     -1.00000
      416.000      172.000      43.6718      723.670      2369.25      7616.41      23899.0      40327.8      79819.9     -1.00000
      1000.00      720.000      110.213      571.578      2039.68      6819.05      22227.7      39053.8      79959.8     -1.00000
      971.000      70.0000      14.9101      817.286      2701.78      8536.60      25877.3      42927.8      79399.8     -1.00000
      618.000      452.000      58.7477      694.374      2337.16      7617.80      24499.2      40949.9      79521.9     -1.00000
      559.000      351.000      40.6487      730.878      2281.70      7527.81      23989.1      40621.6      79179.4     -1.00000
      377.000      986.000      162.130      666.103      2184.75      7554.93      24543.1      40628.7      79479.6     -1.00000
      394.000      500.000      68.4047      688.983      2336.10      7412.99      23492.0      39903.1      79002.8     -1.00000
      828.000      434.000      52.3027      600.718      1858.95      5999.52      20384.7      36460.1      78874.0     -1.00000
      880.000      745.000      122.463      535.847      1762.98      6041.16      20657.0      36491.9      79032.9     -1.00000
      701.000      371.000      43.3741      785.066      2504.87      8149.07      25018.3      41605.5      78575.1     -1.00000
      704.000      185.000      21.3703      687.569      2158.20      6864.24      22057.0      38120.1      78335.7     -1.00000
      267.000      34.0000      24.2851      793.305      2505.43      7732.12      23518.5      39679.9      77655.6     -1.00000
      4.00000      985.000     0.632488      601.641      2240.19      8219.07      25993.9      43265.8      78392.8     -1.00000
      345.000      146.000      22.7656      54.3162      117.495      209.521      325.144      388.729      77588.5     -1.00000
      325.000      530.000      69.1147      592.127      1940.76      6472.52      21095.8      37094.6      77877.4     -1.00000
      117.000      568.000      96.8011      671.841      2108.99      6992.06      22465.1      38958.9      77860.2     -1.00000
      359.000      241.000      22.8742      821.523      3141.15      8090.15      26842.1      41091.3      77370.8     -1.00000
      207.000      732.000      147.060      670.852      2219.41      7282.45      23634.1      40149.1      77392.1     -1.00000
      514.000      532.000      84.5457      628.661      2029.33      7050.49      22459.0      38432.3      77224.3     -1.00000
      78.0000      174.000      22.9237      893.455      2883.23      8943.26      26328.0      42896.2      76826.1     -1.00000
      226.000      7.00000      14.9027      685.635      2154.37      6759.41      21121.8      36714.8      76673.1     -1.00000
      232.000      737.000      151.676      644.892      2056.67      7171.94      23723.5      40234.2      77256.1     -1.00000
      964.000      690.000      141.949      764.649      2436.65      7915.72      24940.1      41467.9      77205.5     -1.00000
      343.000      917.000      186.469      603.257      1978.52      6925.23      23158.7      39612.2      77254.9     -1.00000
      346.000      588.000      100.803      622.536      2187.06      7081.08      22722.9      37501.9      76940.3     -1.00000
      304.000      917.000      167.777      626.211      2100.44      7372.99      24348.9      40771.5      76792.7     -1.00000
      155.000      102.000      13.1537      838.435      2799.90      8544.28      25591.1      41701.6      75874.1     -1.00000
      499.000      723.000      118.279      573.556      1835.38      6382.80      21211.6      37294.6      76226.1     -1.00000
      380.000      2.00000      18.1147      648.798      1905.87      6020.40      19473.2      34266.3      74134.9     -1.00000
      586.000      763.000      130.114      635.093      2043.78      6760.27      22575.5      38796.7      75542.1     -1.00000
      319.000      267.000      33.5723      706.368      2540.56      7727.16      24265.2      40645.8      74772.4     -1.00000
      860.000      647.000      98.6822      683.153      2368.49      8103.25      24048.7      41711.3      75022.1     -1.00000
      208.000      503.000      78.5496      659.414      2070.75      6566.94      21213.0      36662.8      74727.5     -1.00000
      317.000      537.000      76.3531      746.731      2407.05      7676.84      23978.4      40043.4      74550.2     -1.00000
      380.000      1.00000      6.89768      690.854      2055.49      6221.17      19988.6      34903.6      74101.7     -1.00000
      937.000      998.000      154.071      685.125      2150.68      7457.00      23533.9      39436.3      74817.8     -1.00000
      88.0000      291.000      39.7693      938.330      2959.23      9041.56      26401.5      43470.6      74141.6     -1.00000
      517.000      844.000      176.641      682.775      2159.73      7367.23      23810.0      39556.5      74499.1     -1.00000
      953.000      471.000      48.8568      660.888      2155.50      7248.56      22727.7      38432.5      74194.5     -1.00000
      104.000      702.000      115.276      661.296      2213.51      7315.88      23356.2      38934.2      74040.1     -1.00000
      947.000      376.000      36.6051      760.121      2465.00      7979.88      24693.7      40459.9      73522.5     -1.00000
      1000.00      375.000      39.6008      649.138      2184.20      6993.06      21838.4      37132.5      73494.5     -1.00000
      540.000      708.000      145.567      572.673      1909.22      6484.10      21396.9      36934.1      73680.0     -1.00000
      879.000      826.000      144.868      567.851      1797.21      6130.13      20418.3      35916.5      73718.2     -1.00000
      785.000      572.000      76.1723      708.690      2361.64      7955.46      24823.2      40253.9      73126.9     -1.00000
      203.000      486.000      65.0490      699.292      2188.60      7088.40      21873.4      37010.3      73051.0     -1.00000
      301.000      21.0000      15.0158      895.326      2695.74      8393.65      24129.4      41790.4      72435.2     -1.00000
      198.000      518.000      81.8599      599.047      1844.22      6219.94      20202.3      35218.8      72692.5     -1.00000
      985.000      56.0000     -2.49775      615.476      2086.98      6489.84      20609.3      35385.6      72326.3     -1.00000
      247.000      467.000      68.4507      604.545      1820.82      5529.38      18091.5      32051.8      72585.4     -1.00000
      724.000      209.000      28.2130      834.674      2726.93      8430.28      24951.5      40194.1      72035.2     -1.00000
      211.000      97.0000      20.8691      674.826      2579.11      6068.86      23066.4      37757.4      71799.0     -1.00000
      671.000      6.00000      15.3378      843.515      2670.33      8077.25      23976.2      39291.9      71726.2     -1.00000
      373.000      655.000      113.722      703.192      2223.72      7371.60      23090.1      38478.2      72168.9     -1.00000
      948.000      551.000      84.9666      541.351      1919.00      6122.04      20539.4      35643.4      71960.1     -1.00000
      919.000      199.000      6.61380      766.594      2400.25      7463.77      23127.3      35202.6      71633.6     -1.00000
      242.000      194.000      41.4819      826.669      2479.03      7716.56      23566.4      39061.3      71602.6     -1.00000
      490.000      616.000      107.550      639.527      2109.65      6992.85      22761.8      38391.5      71893.3     -1.00000
      1002.00      579.000      77.3454      528.791      1675.93      5583.52      18910.2      33457.0      71782.4     -1.00000
      103.000      813.000      150.458      614.066      2007.58      6721.83      21298.1      36444.1      71762.3     -1.00000
      55.0000      405.000      36.1794      697.454      2244.58      7173.99      22087.3      37262.9      71442.5     -1.00000
      680.000      284.000      32.8207      643.548      1995.93      6463.31      20900.2      35583.5      71237.4     -1.00000
      417.000      843.000      179.580      549.992      1708.74      6104.10      20789.8      36251.8      71518.0     -1.00000
      89.0000      653.000      110.095      508.242      1544.21      5198.23      17736.1      31426.5      69053.1     -1.00000
      373.000      592.000      87.0006      291.623      864.478      2623.03      8644.10      15503.1      71101.9     -1.00000
      300.000      692.000      129.157      614.344      1920.06      6400.51      21150.1      36193.4      71101.5     -1.00000
      190.000      865.000      186.427      485.310      897.160      1637.11      11691.0      25382.4      62921.2     -1.00000
      694.000      17.0000      16.3259      724.593      2250.92      6975.26      21339.4      36065.5      70349.1     -1.00000
      422.000      362.000      45.5532      705.223      2272.99      7245.04      22392.5      37326.4      70361.4     -1.00000
      731.000      536.000      75.0838      681.156      2228.62      7165.06      22618.0      37831.1      70152.3     -1.00000
      345.000      537.000      106.548      705.884      2248.15      7377.52      23149.2      38406.9      69779.0     -1.00000
      488.000      921.000      169.034      586.728      1922.31      6470.84      20924.1      35927.0      69703.6     -1.00000
      150.000      401.000      62.1898      1247.03      4199.65      12246.8      31667.4      45809.1      69134.1     -1.00000
      453.000      511.000      81.4768      622.586      1851.85      6085.60      20033.5      34467.7      68970.7     -1.00000
      203.000      639.000      109.502      578.166      1820.16      5985.20      19196.4      33336.0      68980.4     -1.00000
      707.000      98.0000      18.9685      626.051      2086.18      6547.93      20558.3      34923.1      68540.4     -1.00000
      725.000      349.000      42.9723      565.057      1853.77      5925.46      19358.0      33530.5      68548.0     -1.00000
      280.000      559.000      82.9662      642.308      2062.43      6938.20      21765.1      36289.3      68643.2     -1.00000
      826.000      781.000      139.219      950.009      3317.41      10933.6      17936.5      33707.7      68721.8     -1.00000
      741.000      807.000      143.023      502.098      1578.85      5448.89      18075.5      32603.6      68479.7     -1.00000
      648.000      586.000      101.938      511.506      1582.07      5431.10      18028.9      31876.4      68212.3     -1.00000
      248.000      547.000      66.5210      541.522      1615.91      5318.77      17472.2      31570.1      67618.1     -1.00000
      627.000      336.000      29.9136      595.720      1795.99      5939.13      19298.3      33131.5      67293.9     -1.00000
      906.000      47.0000      6.31433      615.312      1996.68      6420.30      20123.2      34021.4      66913.5     -1.00000
      32.0000      73.0000      20.4336      851.831      2648.49      8012.89      23641.7      37739.1      66524.5     -1.00000
      297.000      395.000      44.8802      72.2633      113.594      220.074      300.129      1744.65      66585.9     -1.00000
      13.0000      316.000      15.4233      543.260      1779.77      5761.43      18176.8      31426.5      66438.5     -1.00000
      1003.00      716.000      105.528      555.747      1770.27      6114.12      19991.8      34232.2      66529.3     -1.00000
      577.000      843.000      132.220      566.112      1836.30      6361.30      20572.7      34894.1      66607.4     -1.00000
      76.0000      699.000      117.232      560.192      1830.79      6023.92      19389.5      33404.5      66371.4     -1.00000
      1007.00      726.000      112.694      613.095      2038.46      6866.84      21511.5      35803.3      66330.3     -1.00000
      874.000      562.000      74.2830      476.259      1570.76      5202.52      17118.1      30464.4      65402.4     -1.00000
      910.000      238.000      24.4468      541.533      1739.53      5508.93      17699.3      31045.2      65864.7     -1.00000
      37.0000      648.000      116.880      280.358      451.026      834.100      1473.73      7731.76      66012.5     -1.00000
      967.000      352.000      85.1347      191.490      306.896      568.417      1156.43      18693.0      125463.      6.00000
      113.000      234.000      19.0494      607.133      1897.15      5896.63      18809.2      32070.9      65361.8     -1.00000
      149.000      961.000      224.057      463.510      1447.29      5077.01      17674.2      31444.6      65831.0     -1.00000
      876.000      104.000      16.0652      731.282      2314.99      7137.26      21331.7      35016.1      65192.3     -1.00000
      8.00000      1008.00      75.8031      468.302      1641.15      5966.58      19612.9      33383.1      65773.7     -1.00000
      408.000      835.000      204.448      522.539      1537.98      5175.32      17572.9      30570.2      65513.6     -1.00000
      16.0000      444.000      39.8281      618.720      1881.41      6084.80      19484.0      33258.9      65001.9     -1.00000
      784.000      648.000      132.897      503.511      1635.47      5590.82      18461.3      32204.0      65000.7     -1.00000
      942.000      96.0000      9.01689      719.584      2304.66      7262.90      22029.7      35831.1      64572.1     -1.00000
      38.0000      138.000      22.4764      580.222      1848.92      6204.20      19427.1      32829.6      64377.7     -1.00000
      55.0000      839.000      147.572      581.051      1712.21      5881.97      19445.6      33358.8      64826.6     -1.00000
      587.000      458.000      55.3492      498.992      1654.13      5616.74      18591.7      31839.5      64397.8     -1.00000
      535.000      108.000      21.8682      585.539      1807.14      5556.25      17446.5      30290.3      64065.0     -1.00000
      929.000      814.000      130.975      599.510      2045.08      6962.11      21296.1      35237.8      64484.5     -1.00000
      946.000      1017.00      176.282      418.477      1274.29      4604.23      16602.5      29758.5      64573.4     -1.00000
      31.0000      122.000      19.3279      595.385      1856.48      5842.81      18208.5      31334.7      63900.1     -1.00000
      471.000      142.000      23.6689      720.546      2357.04      7241.49      22022.9      35626.9      63877.2     -1.00000
      288.000      310.000      30.3010      623.925      2016.50      6414.60      21189.4      34932.0      63915.5     -1.00000
      421.000      545.000      88.8763      633.595      2104.40      6805.68      20928.5      34585.9      63853.3     -1.00000
      204.000      956.000      185.793      640.365      1978.25      6298.26      20390.3      34334.8      63996.2     -1.00000
      895.000      34.0000      16.9890      589.550      1839.51      5898.62      18256.3      31156.8      63111.4     -1.00000
      771.000      894.000      166.876      577.684      1801.91      6117.77      19307.4      32844.7      63670.1     -1.00000
      930.000      79.0000      23.4592      636.066      2009.54      6406.87      19340.4      32640.6      63038.3     -1.00000
      805.000      72.0000      17.0079      605.856      1888.99      5863.83      18410.9      31327.2      63028.7     -1.00000
      463.000      459.000      64.1617      528.546      1644.51      5296.58      17473.7      30599.1      63283.0     -1.00000
      757.000      376.000      38.3128      628.188      1880.78      6016.48      18893.0      31981.6      63224.2     -1.00000
      257.000      353.000      35.4631      541.715      1745.86      5686.60      18366.6      31534.3      63169.0     -1.00000
      61.0000      145.000      23.9393      668.383      1999.55      6685.47      19628.8      32628.4      62732.1     -1.00000
      271.000      430.000      52.6043      493.729      1514.89      4885.51      16453.9      29147.8      62886.6     -1.00000
      285.000      70.0000      17.4638      739.875      1747.52      5568.27      17406.4      30388.9      62357.9     -1.00000
      608.000      453.000      48.5173      573.550      1760.18      5762.88      18293.0      31067.0      62384.9     -1.00000
      777.000      92.0000      12.6717      616.095      1981.15      6202.69      19048.8      32065.8      62113.0     -1.00000
      712.000      768.000      140.439      506.638      1656.03      5436.76      18149.0      31276.7      62520.6     -1.00000
      675.000      332.000      30.4413      597.883      1892.77      6302.02      19387.7      32813.9      62123.0     -1.00000
      514.000      852.000      149.392      491.581      1604.85      5383.43      17657.1      30696.2      62379.0     -1.00000
      819.000      249.000      32.5567      511.021      1688.31      5601.19      17937.5      30906.5      61952.3     -1.00000
      860.000      807.000      149.851      523.697      1729.00      5909.73      19218.3      32457.5      61866.0     -1.00000
      764.000      394.000      30.9936      629.036      1984.26      6321.02      19590.0      32652.1      61554.2     -1.00000
      460.000      592.000      88.0351      499.234      1533.32      5045.23      16890.2      29471.7      61610.5     -1.00000
      960.000      233.000      24.8267      540.622      1754.19      5657.08      18001.9      30549.5      61305.2     -1.00000
      737.000      496.000      70.6291      587.547      1767.27      5820.05      18441.3      31328.7      61313.7     -1.00000
      57.0000      35.0000      21.2889      628.993      1872.15      5754.53      17922.3      30476.7      60878.6     -1.00000
      369.000      243.000      26.3875      498.076      1573.89      5061.78      16391.3      28740.2      60865.2     -1.00000
      185.000      809.000      131.173      462.581      1353.86      4768.98      16463.2      29192.4      61142.3     -1.00000
      674.000      433.000      41.4342      462.764      1437.20      4821.26      16059.1      28222.7      60659.9     -1.00000
      630.000      606.000      108.567      483.770      1625.96      5459.54      17812.1      30469.4      60748.4     -1.00000
      177.000      958.000      165.129      527.016      1655.51      2318.89      13301.9      27716.6      60861.8     -1.00000
      531.000      500.000      81.0163      540.928      1685.97      5275.41      17102.4      29495.4      60535.5     -1.00000
      751.000      538.000      79.5174      560.641      1827.25      6018.48      19019.3      31962.4      60497.4     -1.00000
      822.000      611.000      90.6484      424.385      1200.82      4041.37      14204.7      26203.0      58118.5     -1.00000
      814.000      602.000      105.970      314.580      760.762      2274.50      7559.97      14778.4      60411.0     -1.00000
      956.000      9.00000      9.47336      518.072      1712.68      5334.91      17008.2      29353.2      60017.6     -1.00000
      355.000      891.000      175.965      501.935      1591.66      5270.48      17426.9      30137.9      60543.3     -1.00000
      748.000      536.000      67.6605      577.602      1808.19      5962.00      18707.3      31360.9      60179.4     -1.00000
      375.000      759.000      153.972      469.664      1423.36      4820.72      16273.9      28634.6      60233.4     -1.00000
      726.000      603.000      91.2631      559.877      1788.50      5776.34      18195.7      30902.2      60085.3     -1.00000
      163.000      271.000      29.6950      616.340      1875.08      6018.34      18756.1      31355.8      59871.8     -1.00000
      291.000      243.000      32.6213      593.036      1977.72      6129.65      18626.3      31157.0      59702.2     -1.00000
      580.000      608.000      106.278      536.578      1653.35      5395.02      16979.1      29172.5      59880.4     -1.00000
      803.000      749.000      135.206      552.770      1735.92      5657.43      18068.1      30541.0      59967.9     -1.00000
      701.000      305.000      34.5882      516.224      1641.52      5132.00      16727.5      28858.1      59640.4     -1.00000
      751.000      60.0000      6.57989      544.588      1851.44      5808.95      17818.0      30111.0      59476.1     -1.00000
      873.000      466.000      49.0547      501.339      1496.05      5127.49      16920.1      29424.2      59716.6     -1.00000
      347.000      444.000      42.4970      500.616      1670.80      5392.62      17361.4      29919.8      59425.7     -1.00000
      460.000      642.000      108.786      502.166      1640.83      5272.20      17087.6      29373.8      59496.0     -1.00000
      637.000      1010.00      176.654      475.006      1477.49      5199.31      17425.9      30245.4      59660.9     -1.00000
      381.000      362.000      40.6342      171.635      341.603      607.018      1013.21      3385.70      59100.5     -1.00000
      100.000      807.000      144.703      445.867      1290.35      4422.22      15242.3      27197.9      59349.3     -1.00000
      836.000      68.0000      10.2688      507.997      1627.07      5286.80      16500.1      28543.0      58851.3     -1.00000
      566.000      807.000      162.714      555.350      1680.21      5648.92      18053.8      30947.4      59314.6     -1.00000
      713.000      471.000      68.4515      494.013      1567.26      5230.32      17044.3      29332.6      59037.2     -1.00000
      904.000      7.00000      17.9092      571.683      1863.59      5829.54      17786.4      30139.2      58687.3     -1.00000
      627.000      61.0000      2.92966      539.928      1731.46      5411.31      16870.6      28614.3      58689.7     -1.00000
      618.000      611.000      92.1099      512.536      1617.34      5376.78      17242.5      29781.0      58975.1     -1.00000
      855.000      840.000      137.340      424.363      1271.01      4259.97      14922.2      26951.9      59064.7     -1.00000
      944.000      67.0000      15.2431      508.541      1576.22      5180.18      16480.8      28371.3      58572.0     -1.00000
      147.000      776.000      162.505      605.540      1990.18      6482.24      21449.9      35976.1      59012.7     -1.00000
      363.000      225.000      40.8897      545.188      1607.51      4934.18      15684.9      27406.7      58325.3     -1.00000
      200.000      758.000      125.385      432.451      1469.29      5020.28      16594.6      28915.2      58644.5     -1.00000
      98.0000      86.0000      18.1800      66.5076      104.979      178.243      274.468      7650.60      58221.9     -1.00000
      63.0000      21.0000      22.4699      610.447      1967.36      5963.00      17987.8      30126.8      58161.7     -1.00000
      169.000      475.000      71.8415      497.303      1514.27      4805.18      15548.3      27639.5      58383.3     -1.00000
      705.000      214.000      36.2889      492.937      1516.29      4843.47      15548.7      27165.5      58147.0     -1.00000
      277.000      25.0000      13.0661      497.212      1567.21      4788.66      15502.0      27097.9      57866.7     -1.00000
      36.0000      611.000      100.001      463.757      1497.42      4762.79      15892.1      28032.5      58226.0     -1.00000
      546.000      746.000      141.869      86.5773      124.018      223.475      349.650      422.108      58179.0     -1.00000
      830.000      978.000      190.745      566.664      1664.14      5628.83      18311.4      30937.1      58235.6     -1.00000
      521.000      69.0000      15.2921      627.772      1955.41      5982.26      18502.8      30506.8      57654.6     -1.00000
      689.000      808.000      137.861      233.648      375.979      744.845      1474.45      2002.27      58075.3     -1.00000
      278.000      968.000      164.070      392.102      1261.05      4300.60      15030.8      26945.5      58161.8     -1.00000
      500.000      143.000      17.9022      512.657      1544.41      4913.02      15509.5      27137.0      57579.3     -1.00000
      641.000      90.0000      25.1468      472.716      1536.38      4775.15      15214.9      26507.2      56757.7     -1.00000
      437.000      816.000      158.961      435.902      1233.78      4206.85      14938.3      26411.1      57958.7     -1.00000
      791.000      818.000      129.592      447.770      1430.71      4861.50      16322.1      28611.5      57558.6     -1.00000
      1000.00      228.000      28.9411      524.177      1698.19      5543.88      17686.1      29729.6      57135.0     -1.00000
      815.000      457.000      61.0785      478.397      1477.46      4870.09      16019.9      27887.3      57274.1     -1.00000
      754.000      434.000      57.2923      516.684      1615.81      5344.69      16753.0      28825.2      57158.5     -1.00000
      108.000      548.000      77.6372      572.388      1704.94      5363.23      17327.9      29117.9      57007.3     -1.00000
      664.000      711.000      137.529      472.000      1480.89      4855.10      15659.5      27365.9      57057.7     -1.00000
      200.000      521.000      81.7622      501.949      1517.86      5046.18      16160.3      27988.9      56888.6     -1.00000
      618.000      917.000      174.959      458.262      1346.51      4484.45      15234.3      27008.7      57064.9     -1.00000
      102.000      655.000      104.741      482.058      1440.86      4561.20      15893.6      27531.2      56735.1     -1.00000
      875.000      570.000      94.7090      500.675      1484.85      4728.74      15339.9      26886.9      56572.9     -1.00000
      452.000      407.000      34.4223      473.674      1516.06      5025.37      15976.0      27841.1      56411.1     -1.00000
      334.000      25.0000      6.55628      528.865      1747.37      5440.44      16741.1      28832.1      56130.7     -1.00000
      748.000      999.000      184.562      426.266      1318.24      4440.89      15220.6      27388.1      56668.4     -1.00000
      45.0000      536.000      66.8969      550.156      1730.82      5501.69      17170.4      28965.0      56282.7     -1.00000
      191.000      326.000      28.1856      528.448      1640.11      5230.86      16462.5      28341.5      56120.0     -1.00000
      377.000      871.000      141.823      449.034      1370.05      4573.02      15610.2      27296.5      56312.1     -1.00000
      798.000      984.000      177.946      454.613      1340.66      4677.58      15685.1      27917.4      56373.1     -1.00000
      548.000      884.000      152.797      465.991      1463.35      4868.98      16144.4      27982.3      56272.4     -1.00000
      532.000      195.000      27.0669      538.690      1706.99      5357.43      16709.8      28055.5      55720.6     -1.00000
      24.0000      734.000      94.0763      439.503      1304.31      4278.92      14671.5      26311.6      55949.2     -1.00000
      311.000      421.000      42.5300      513.868      1570.80      5126.32      16600.9      28016.8      55751.9     -1.00000
      796.000      451.000      55.5956      464.253      1465.63      4708.32      15170.9      26527.7      55691.9     -1.00000
      766.000      378.000      27.8401      546.205      1677.99      5478.11      16923.0      28451.3      55640.6     -1.00000
      679.000      373.000      38.2130      477.896      1565.77      4954.87      15988.4      27719.5      55605.6     -1.00000
      816.000      369.000      40.2032      462.891      1459.30      4650.44      15090.4      26659.1      55492.9     -1.00000
      340.000      14.0000      16.0274      593.897      1891.84      5784.69      17460.0      29125.2      55096.1     -1.00000
      213.000      193.000      27.8034      498.010      1525.59      4870.87      15516.3      26879.2      55186.5     -1.00000
      678.000      34.0000      19.8221      577.591      1820.57      5496.39      16926.9      28483.0      55077.6     -1.00000
      265.000      973.000      184.631      408.515      1252.76      4156.93      14560.1      26084.8      55531.5     -1.00000
      64.0000      357.000      52.5118      554.157      1652.29      5500.49      17185.8      28750.2      55027.7     -1.00000
      666.000      487.000      74.1871      554.843      1009.39      5297.10      16912.4      28127.4      55095.6     -1.00000
      468.000      517.000      80.3654      485.049      1502.18      4772.14      15545.9      27591.1      55093.9     -1.00000
      718.000      59.0000      11.9003      584.175      1816.01      5624.63      17031.8      28319.0      54747.7     -1.00000
      915.000      498.000      59.7252      516.456      1601.86      5351.60      16726.3      28214.3      54917.9     -1.00000
      189.000      628.000      118.601      550.358      1705.63      5528.86      18176.8      30014.1      54842.2     -1.00000
      1023.00      24.0000      13.1582      527.069      1615.11      4980.19      15530.9      26664.0      54407.5     -1.00000
      44.0000      957.000      145.930      470.466      1470.81      5064.95      16520.1      28026.2      54942.6     -1.00000
      269.000      311.000      31.7863      553.015      1684.05      5316.91      16540.2      28003.7      54441.9     -1.00000
      486.000      402.000      41.9548      510.104      1551.21      5068.88      16126.0      27570.5      54437.4     -1.00000
      366.000      691.000      112.029      514.018      1530.69      5008.48      16075.1      27559.4      54579.1     -1.00000
      349.000      308.000      36.8086      701.732      3103.62      8518.27      16360.5      27521.3      54287.0     -1.00000
      582.000      634.000      108.942      486.017      1549.07      5139.33      16664.9      28064.5      54414.9     -1.00000
      417.000      297.000      43.9008      516.276      1588.83      4946.92      15690.0      27280.3      54122.0     -1.00000
      959.000      912.000      159.031      489.214      1512.05      5334.01      17464.2      28998.4      54442.3     -1.00000
      58.0000      90.0000      14.1111      558.994      1687.12      5303.46      16424.6      27659.6      53955.5     -1.00000
      197.000      216.000      23.1029      456.244      1424.10      4541.15      14550.8      25441.5      54013.4     -1.00000
      898.000      710.000      125.080      451.230      1332.04      4246.54      14144.7      25165.5      54216.6     -1.00000
      65.0000      808.000      113.431      465.728      1530.29      5014.14      16797.6      28614.1      54237.5     -1.00000
      191.000      207.000      16.9210      544.878      1658.15      5184.68      16098.1      27457.8      53876.2     -1.00000
      689.000      806.000      143.993      86.1440      135.144      222.845      337.125      392.159      54186.4     -1.00000
      476.000      545.000      105.337      462.668      1462.67      4749.25      15448.6      26798.4      54034.6     -1.00000
      651.000      116.000      21.2215      589.722      1911.67      5941.51      17715.8      29022.1      53745.9     -1.00000
      202.000      776.000      128.691      441.793      1396.61      4657.69      15243.6      26540.6      54076.5     -1.00000
      437.000      157.000      26.4593      505.803      1573.59      4863.78      15270.8      26178.7      53618.7     -1.00000
      1022.00      681.000      77.8502      439.384      1401.60      4797.59      15820.3      27375.2      53871.7     -1.00000
      37.0000      544.000      50.7047      499.377      1551.11      4565.67      14103.7      24980.5      53490.1     -1.00000
      633.000      283.000      23.1031      439.532      1367.17      4364.00      14233.4      25307.7      53525.6     -1.00000
      132.000      477.000      66.7030      546.022      1691.68      5401.53      16903.4      28251.2      53596.1     -1.00000
      397.000      341.000      47.0604      528.275      1573.35      4977.62      15943.9      27108.9      53498.0     -1.00000
      836.000      954.000      193.531      444.851      1402.76      4739.31      15728.4      27051.3      53790.7     -1.00000
      544.000      257.000      33.2782      104.305      180.609      369.475      604.704      844.016      53239.9     -1.00000
      656.000      431.000      47.9700      532.353      1590.61      5042.42      15791.6      26837.8      53334.3     -1.00000
      265.000      541.000      81.4755      507.811      1436.77      4661.48      15365.3      26246.2      53299.1     -1.00000
      579.000      981.000      170.362      386.769      1123.11      3780.23      13805.2      24630.4      53517.7     -1.00000
      550.000      287.000      23.9683      503.139      1609.93      5037.37      15786.3      26782.8      53047.0     -1.00000
      445.000      413.000      47.0563      402.130      1371.79      5105.34      16662.2      25495.9      53055.3     -1.00000
      135.000      527.000      72.5876      446.076      1462.67      4673.13      15061.3      26285.6      53114.9     -1.00000
      698.000      968.000      164.070      453.177      1346.53      4789.68      15811.7      27127.2      53336.9     -1.00000
      587.000      104.000      26.6817      461.009      1554.60      4859.42      15403.2      26320.8      52756.8     -1.00000
      594.000      443.000      52.6187      457.537      1430.15      4651.79      15313.7      26405.0      52928.1     -1.00000
      615.000      644.000      120.105      459.108      1413.36      4671.99      14916.0      26005.3      52982.5     -1.00000
      341.000      130.000      23.4856      493.757      1585.73      4969.45      15671.6      26612.5      52468.0     -1.00000
      699.000      893.000      146.714      485.205      1513.70      5060.89      16221.2      27404.3      52835.8     -1.00000
      32.0000      223.000      30.0098      623.414      1584.86      5321.56      19397.3      25261.5      52268.3     -1.00000
      674.000      317.000      52.2913      434.620      1511.63      4934.21      15545.4      26348.9      52295.1     -1.00000
      294.000      932.000      155.622      443.672      1429.13      4637.16      15159.3      26194.0      52576.1     -1.00000
      430.000      51.0000      14.1301      494.586      1701.70      5130.81      15794.0      26549.0      52083.1     -1.00000
      142.000      570.000      145.354      412.814      1215.88      4125.99      14033.8      24590.6      52368.3     -1.00000
      785.000      579.000      109.851      578.455      1727.71      5432.49      16652.5      27648.8      52345.9     -1.00000
      871.000      177.000      26.8404      465.262      1433.48      4507.98      14406.6      24859.7      51989.1     -1.00000
      603.000      60.0000      17.0330      506.117      1503.93      4765.05      14898.5      25610.4      51922.6     -1.00000
      841.000      215.000      32.4385      495.881      1500.96      4752.79      14761.7      25472.6      51933.0     -1.00000
      675.000      951.000      170.820      424.875      1310.77      4345.03      14582.5      25383.5      52309.4     -1.00000
      421.000      945.000      158.131      444.425      1253.25      4250.70      14267.5      25055.1      52226.1     -1.00000
      827.000      817.000      137.986      398.616      1184.98      3993.41      13600.4      24020.5      51992.0     -1.00000
      718.000      886.000      164.403      428.493      1276.19      4281.63      14651.4      25550.8      51998.9     -1.00000
      401.000      599.000      96.0534      436.510      1498.44      4876.67      15396.9      26265.9      51780.4     -1.00000
      674.000      514.000      67.6441      420.919      1315.57      4321.37      14126.9      24577.4      51713.3     -1.00000
      427.000      580.000      95.5452      426.270      1319.23      4157.31      13682.6      24230.3      51607.6     -1.00000
      267.000      220.000      37.3840      503.775      1575.90      4946.37      15418.2      26009.1      51381.3     -1.00000
      683.000      238.000      44.6750      463.861      1472.17      4710.37      15054.5      25994.1      51370.6     -1.00000
      898.000      947.000      162.002      87.8149      128.351      219.450      307.622      388.222      51737.6     -1.00000
      527.000      645.000      123.057      443.749      1311.58      4333.43      14270.3      24829.0      51503.9     -1.00000
      533.000      446.000      44.0681      443.259      1350.71      4357.04      14162.2      24545.7      51186.8     -1.00000
      12.0000      187.000     -1.85586      434.389      1408.92      4313.19      13768.9      24123.8      51040.1     -1.00000
      301.000      102.000      11.6269      458.597      1397.96      4387.03      13766.4      24036.6      50924.3     -1.00000
      362.000      982.000      172.429      535.849      429.823      5154.82      14155.4      23419.1      51282.4     -1.00000
      210.000      220.000      28.7858      526.731      1602.52      5049.12      15369.5      25955.9      50823.5     -1.00000
      367.000      595.000      81.3644      463.974      1229.35      4075.44      13362.8      23238.3      50457.2     -1.00000
      219.000      272.000      33.9207      520.434      1598.29      5064.76      15653.2      26247.9      50628.9     -1.00000
      919.000      765.000      125.229      85.8327      131.144      242.882      354.818      440.379      50804.7     -1.00000
      658.000      835.000      141.141      388.628      1175.82      4225.95      14432.7      25133.4      50820.0     -1.00000
      975.000      867.000      172.618      327.576      647.932      1193.29      2498.82      16338.3      50794.6     -1.00000
      957.000      176.000      30.0779      444.037      1499.47      4783.23      14934.4      25315.4      50392.5     -1.00000
      453.000      128.000      18.4316      502.384      1463.01      4618.13      14660.3      25037.2      50291.7     -1.00000
      548.000      186.000      29.0923      496.985      1568.88      4858.74      15036.6      25539.9      50257.4     -1.00000
      154.000      877.000      153.903      418.673      1222.20      4144.29      13977.3      24310.6      50629.8     -1.00000
      302.000      331.000      37.4779      452.880      1371.85      4300.42      14043.5      24295.5      50232.2     -1.00000
      240.000      881.000      161.162      440.550      1334.49      4396.92      14488.3      24989.2      50491.9     -1.00000
      273.000      252.000      46.9084      506.360      1497.19      4680.71      14830.4      25116.4      50070.2     -1.00000
      782.000      980.000      177.318      415.562      1246.69      4249.70      14340.1      24851.4      50406.7     -1.00000
      779.000      576.000      93.6864      423.892      1459.71      4912.07      15467.9      26292.7      50189.5     -1.00000
      944.000      744.000      114.669      484.002      1430.81      4775.22      14945.6      25587.4      50196.2     -1.00000
      163.000      752.000      138.179      430.803      1324.29      4422.09      14418.7      24954.7      50150.5     -1.00000
      576.000      165.000      30.8403      400.363      1315.00      4234.61      13448.7      23560.9      49754.9     -1.00000
      167.000      41.0000      17.7635      511.729      1529.32      4666.53      14544.4      24872.7      49641.9     -1.00000
      375.000      676.000      113.899      390.638      1122.55      3791.27      12730.2      23060.1      49893.4     -1.00000
      684.000      91.0000      14.5839      506.581      1584.64      4957.86      15058.0      25179.8      49581.6     -1.00000
      392.000      1015.00      170.408      395.237      1155.61      3969.63      13733.5      24051.1      49988.6     -1.00000
      50.0000      615.000      135.463      451.523      745.727      1329.38      3457.53      18250.9      49716.8     -1.00000
      783.000      617.000      112.133      376.962      1113.74      3479.17      12276.1      21947.2      48270.0     -1.00000
      686.000      951.000      187.415      403.812      1102.66      3965.72      13254.0      23567.4      49837.4     -1.00000
      834.000      758.000      105.488      380.847      1118.30      3896.28      13284.9      23507.3      49653.8     -1.00000
      987.000      802.000      121.997      358.705      1100.94      3807.07      13216.1      23409.6      21450.4     -1.00000
      127.000      368.000      46.6756      509.149      1487.27      4727.48      14576.2      24724.9      49416.7     -1.00000
      825.000      317.000      30.7179      501.021      1545.86      4954.40      15009.0      25305.6      49266.8     -1.00000
      771.000      550.000      87.2186      497.809      1587.05      5044.21      15519.0      25911.7      49359.1     -1.00000
      753.000      91.0000      14.5839      462.905      1431.06      4479.96      14184.9      24304.4      49064.4     -1.00000
      983.000      709.000      104.073      413.651      1250.49      4266.19      14339.1      24737.4      49358.6     -1.00000
      920.000      777.000      142.540      410.694      1265.01      4025.24      13469.8      23679.7      49366.3     -1.00000
      828.000      435.000      56.0381      452.357      1319.78      4060.24      13069.6      22747.1      48736.1     -1.00000
      735.000      970.000      177.892      434.409      1370.41      4333.88      15069.3      25796.8      49226.8     -1.00000
      529.000      436.000      42.7407      484.240      1441.51      4548.46      14352.8      24528.9      48892.6     -1.00000
      103.000      827.000      134.610      560.742      1701.06      5401.44      16376.3      26768.1      49076.9     -1.00000
      894.000      182.000      32.3333      468.237      1402.82      4551.82      14361.5      24237.5      48572.1     -1.00000
      532.000      774.000      140.588      386.619      1185.85      4099.96      13912.3      23922.2      48828.3     -1.00000
      253.000      463.000      71.8387      423.960      1314.75      4144.86      13584.1      23775.8      48641.8     -1.00000
      143.000      412.000      40.6734      445.718      1349.01      4316.56      13837.4      23776.5      48490.2     -1.00000
      601.000      932.000      154.210      412.910      1275.02      4305.47      14098.0      24502.3      48734.9     -1.00000
      171.000      712.000      108.295      424.794      1317.57      4333.32      14213.7      24404.3      48575.2     -1.00000
      538.000      183.000      16.7978      479.229      1488.83      4605.09      14233.0      24142.3      48243.2     -1.00000
      899.000      1009.00      171.351      354.429      1120.46      3655.34      12808.1      22816.3      48621.6     -1.00000
      711.000      653.000      122.437      509.788      1604.19      5078.44      15764.2      26289.4      48331.6     -1.00000
      403.000      6.00000      12.3889      447.252      1371.71      4423.38      13830.7      23600.2      47854.1     -1.00000
      650.000      393.000      42.5997      429.438      1270.86      4163.60      13466.5      23217.1      48007.1     -1.00000
      242.000      622.000      107.270      235.780      389.784      704.140      1299.37      1955.61      48108.7     -1.00000
      995.000      163.000      15.7452      449.328      1375.52      4460.86      14012.4      24020.2      47836.2     -1.00000
      1002.00      505.000      54.0332      397.830      1274.53      4263.12      13803.0      23807.6      47961.5     -1.00000
      213.000      483.000      76.1853      225.969      402.254      764.800      1301.99      4263.00      47904.5     -1.00000
      1012.00      20.0000      2.70607      410.965      1296.07      4169.03      13270.4      22915.6      47559.4     -1.00000
      456.000      356.000      31.5371      426.137      1302.34      4184.82      13267.6      23109.3      47647.4     -1.00000
      433.000      804.000      165.495      455.902      1403.90      4383.68      14006.4      23958.9      47828.9     -1.00000
      293.000      693.000      129.674      361.316      1264.43      3236.60      11829.1      22022.4      47718.1     -1.00000
      671.000      412.000      46.1084      468.427      1340.76      4375.53      13789.3      23679.5      47570.8     -1.00000
      630.000      790.000      141.492      412.839      1300.60      4406.36      14273.4      24375.3      47751.7     -1.00000
      832.000      980.000      164.657      355.611      1016.12      3404.40      12321.9      22099.3      47835.5     -1.00000
      127.000      902.000      160.052      434.338      1150.69      3678.14      12597.6      22292.8      47775.4     -1.00000
      583.000      974.000      172.851      415.280      1197.40      4040.14      13478.9      23421.2      47728.3     -1.00000
      132.000      959.000      163.407      408.605      1285.37      4094.71      13458.8      23224.3      47704.4     -1.00000
      459.000      237.000      35.4210      411.200      1302.87      4006.08      13031.0      22909.5      47333.7     -1.00000
      440.000      155.000      13.5565      526.551      1638.07      4929.51      14906.2      24966.4      47277.3     -1.00000
      89.0000      698.000      112.874      421.413      1276.85      3996.55      13044.9      22736.0      47534.5     -1.00000
      22.0000      21.0000      5.40338      548.525      1683.05      5041.89      15267.0      24839.2      47100.1     -1.00000
      177.000      830.000      163.163      443.853      1247.43      3901.32      13164.7      23165.5      47463.8     -1.00000
      643.000      399.000      34.9114      388.199      1277.24      4173.97      13587.2      23328.1      47210.5     -1.00000
      836.000      126.000      15.3133      414.799      1361.64      4175.24      13366.4      22914.9      47002.9     -1.00000
      642.000      131.000      14.2644      428.832      1407.28      4348.75      13535.8      23130.0      46991.8     -1.00000
      715.000      409.000      47.8130      436.325      1361.17      4283.81      13616.0      23521.6      47070.4     -1.00000
      351.000      901.000      152.817      393.907      1184.84      4014.24      13366.1      23138.4      47248.8     -1.00000
      307.000      977.000      196.124      462.774      1301.59      4253.13      14059.7      24027.1      47278.9     -1.00000
      424.000      922.000      220.742      383.042      1174.16      3800.18      12823.6      22656.7      47147.0     -1.00000
      678.000      265.000      35.2158      480.631      1373.19      4528.23      14268.3      23657.8      46772.8     -1.00000
      915.000      216.000      23.1029      450.980      1394.80      4455.67      13892.8      23594.6      46702.9     -1.00000
      685.000      433.000      40.1702      435.553      1344.98      4248.91      13963.6      23562.9      46704.3     -1.00000
      895.000      420.000      52.0796      389.016      1211.63      3919.06      12846.9      22230.9      46697.1     -1.00000
      3.00000      883.000     -33.5048     -84.7204     -33.2993      26.4692      94.7839      123.989      46896.3     -1.00000
      910.000      744.000      162.998      420.553      1221.70      4042.30      13491.0      23150.1      46811.3     -1.00000
      193.000      867.000      153.156      405.695      1170.87      3886.55      12923.9      22751.8      46835.8     -1.00000
      440.000      705.000      136.184      359.239      1124.06      3821.27      13051.7      22591.6      46714.4     -1.00000
      508.000      898.000      149.813      365.249      1048.06      3487.18      12582.0      22582.7      46762.9     -1.00000
      194.000      79.0000      19.2297      491.939      1348.87      4204.70      13046.0      22296.5      46351.4     -1.00000
      399.000      930.000      151.588      363.065      1035.41      3597.45      12531.5      22315.5      46739.6     -1.00000
      504.000      22.0000      13.6032      383.776      1150.30      3689.19      11614.5      20192.3      42976.3     -1.00000
      363.000      573.000      101.800      411.746      1237.03      3829.12      12513.0      21939.1      46426.9     -1.00000
      808.000      878.000      163.648      400.480      1193.80      4006.02      13421.6      23326.2      46576.3     -1.00000
      901.000      73.0000      8.37716      497.315      1557.68      4766.94      14568.2      23832.5      46035.5     -1.00000
      188.000      370.000      48.5298      436.896      1364.48      4292.65      13794.1      23243.1      46161.7     -1.00000
      238.000      860.000      162.032      373.994      1135.12      3612.97      12086.8      21534.3      46319.6     -1.00000
      274.000      343.000      18.3017      525.963      1551.05      4873.83      14825.1      24494.8      46059.2     -1.00000
      648.000      840.000      145.810      386.580      1138.27      3864.47      12865.5      22441.1      46271.3     -1.00000
      433.000      581.000      119.566      448.326      1422.59      4390.32      13573.2      22745.4      46136.0     -1.00000
      777.000      67.0000      20.6190      389.829      1159.07      3724.69      12197.5      21430.9      45725.0     -1.00000
      373.000      928.000      172.926      448.406      1331.21      4375.51      14178.0      24162.9      46123.2     -1.00000
      691.000      97.0000      8.20780      447.480      1341.21      4248.91      13119.3      22540.8      45709.0     -1.00000
      805.000      354.000      32.1099      373.612      1280.42      4065.99      13018.7      22438.4      45796.3     -1.00000
      831.000      533.000      78.5573      483.901      1632.20      5253.42      15462.1      25570.1      45862.3     -1.00000
      531.000      270.000      36.1592      487.344      1504.26      4439.07      14219.0      22013.3      45705.0     -1.00000
      209.000      17.0000      10.8010      502.671      1505.78      4506.17      13769.3      23223.5      45538.4     -1.00000
      124.000      976.000      156.181      367.730      1050.78      3328.31      11535.3      21324.0      45897.0     -1.00000
      178.000      989.000      174.779      349.645      1004.61      3370.22      11415.3      20677.3      45870.7     -1.00000
      470.000      291.000      33.9715      408.717      1303.58      3983.70      12783.1      22077.0      45493.8     -1.00000
      1004.00      434.000      28.6141      426.885      1311.61      4217.61      13426.4      22869.1      45556.7     -1.00000
      665.000      677.000      110.503      382.518      1150.50      3878.72      12836.5      22181.2      45604.6     -1.00000
      340.000      293.000      25.6980      444.002      1325.89      4033.46      12684.2      21932.2      45291.9     -1.00000
      897.000      1003.00      159.597      370.231      1060.01      3401.57      11880.6      21178.1      45589.7     -1.00000
      831.000      490.000      81.8797      425.460      1219.30      3910.14      12581.2      21919.9      45335.7     -1.00000
      866.000      299.000      28.7988      387.308      1222.71      3829.41      12358.2      21507.3      45222.5     -1.00000
      160.000      332.000      36.3172      408.711      1235.76      4010.44      13010.4      22382.6      45105.5     -1.00000
      342.000      993.000      167.819      369.111      980.734      3396.57      11532.6      20781.1      45407.7     -1.00000
      556.000      36.0000      13.1606      375.656      1135.32      3527.04      11078.5      21551.6      44827.2     -1.00000
      437.000      817.000      139.741      417.567      1201.72      3793.92      11823.3      20904.5      45169.2     -1.00000
      921.000      464.000      56.7723      372.402      1218.96      3938.49      12975.7      22618.6      44989.7     -1.00000
      795.000      170.000      23.7573      401.190      1142.16      3544.30      9268.27      20068.4      42767.7     -1.00000
      459.000      984.000      205.297      357.174      1046.18      3401.74      11993.5      21115.4      45030.1     -1.00000
      831.000      303.000      33.0050      408.391      1226.01      3898.10      12337.0      21479.2      44645.4     -1.00000
      940.000      819.000      142.082      362.793      1204.32      3993.98      12811.4      22285.7      44878.5     -1.00000
      823.000      205.000      19.1572      380.003      1301.81      4155.53      13278.1      22471.3      44551.2     -1.00000
      239.000      362.000      40.6342      382.817      1177.45      3749.67      12399.4      22288.0      44597.7     -1.00000
      797.000      115.000      10.8630      379.568      1148.56      3703.67      11908.1      20855.7      44446.0     -1.00000
      235.000      58.0000    -0.620421      453.512      1371.16      4279.03      13151.9      22454.0      44275.9     -1.00000
      881.000      92.0000      18.2586      388.616      1231.71      3858.57      12484.5      21673.3      44238.5     -1.00000
      702.000      109.000      26.4158      420.809      1293.62      3993.21      12472.6      21442.3      44228.2     -1.00000
      817.000      387.000      44.8981      451.059      1323.78      4267.67      13341.2      22563.6      44352.0     -1.00000
      578.000      934.000      214.043      323.390      800.979      2085.82      7221.20      14483.2      44563.6     -1.00000
      451.000      1001.00      189.174      354.480      1013.23      3328.45      11539.8      20578.0      44577.9     -1.00000
      806.000      201.000      24.2994      451.466      1465.60      4600.64      14093.9      23188.5      44152.6     -1.00000
      297.000      838.000      309.509      388.611      1128.29      3690.65      12255.4      21594.9      44397.6     -1.00000
      892.000      513.000      75.5927      466.127      1386.80      4405.22      13842.1      23025.2      44116.6     -1.00000
      582.000      787.000      155.632      375.500      1123.49      3609.98      11999.5      21054.9      44174.6     -1.00000
      940.000      801.000      140.195      386.759      1120.13      3776.50      12594.6      21851.2      44078.5     -1.00000
      290.000      129.000      17.1282      410.397      1314.43      4135.23      12876.9      21889.1      43689.7     -1.00000
      363.000      721.000      149.193      365.668      1141.99      3620.23      11943.1      20960.7      43937.7     -1.00000
      885.000      392.000      28.7326      98.3408      315.154      795.075      2389.76      17503.0      36975.4     -1.00000
      14.0000      482.000      45.1113      449.605      1384.85      4341.19      13586.0      22736.3      43696.9     -1.00000
      662.000      1013.00      167.802      369.869      1060.14      3648.98      12593.9      21665.4      43893.7     -1.00000
      659.000      1008.00      159.054      432.709      1215.07      4036.22      13344.0      22715.5      43857.3     -1.00000
      1002.00      443.000      32.7916      393.713      1164.90      3578.33      11929.9      20812.7      43577.4     -1.00000
      857.000      398.000      33.1749      399.224      1274.94      4039.79      12859.8      21906.3      43502.9     -1.00000
      184.000      152.000      26.2751      341.368      989.787      3082.08      9504.72      18817.8      41320.2     -1.00000
      232.000      805.000      139.505      329.135      930.934      3858.23      12702.4      21787.5      43422.5     -1.00000
      269.000      1020.00      185.191      345.300      1052.37      3156.95      10851.5      19805.6      43500.1     -1.00000
      239.000      141.000      22.4866      395.506      1303.71      4224.83      12916.0      21913.5      43087.5     -1.00000
      758.000      412.000      46.1084      382.412      1131.96      3729.36      12024.7      21047.0      43178.2     -1.00000
      264.000      410.000      47.3493      401.084      1119.53      3476.94      11317.2      19744.9      43174.3     -1.00000
      2.00000      995.000     -59.8339      165.383      867.784      3422.90      12019.7      21348.2      43372.8     -1.00000
      678.000      420.000      47.1201      357.363      1124.01      3581.72      11534.3      20385.7      43079.7     -1.00000
      831.000      291.000      24.5389      378.917      1185.86      3812.66      12009.8      20865.3      42995.8     -1.00000
      197.000      559.000      85.5378      400.022      1143.50      3679.63      12123.4      20967.1      43102.0     -1.00000
      589.000      219.000      41.7811      420.096      1253.33      3952.15      12424.2      21351.2      42930.4     -1.00000
      25.0000      138.000      15.9600      448.383      1425.81      4237.86      13022.1      21644.8      42831.5     -1.00000
      758.000      526.000      71.5744      353.141      1015.11      3395.55      11283.2      19783.3      42598.3     -1.00000
      474.000      109.000      12.6561      414.479      1263.77      3407.91      10856.1      21456.1      42801.2     -1.00000
      97.0000      550.000      81.8760      396.519      1219.92      3740.94      11908.9      20728.0      43002.0     -1.00000
      549.000      47.0000      7.01984      400.070      1244.38      3959.08      12192.6      20921.0      42770.9     -1.00000
      1023.00      794.000      235.248      444.813      1338.86      3950.70      12487.9      19020.3      42977.7     -1.00000
      476.000      420.000      59.7814      387.310      1244.01      3883.18      12258.6      21266.0      42805.0     -1.00000
      12.0000      288.000      9.92088      373.932      1181.87      3752.05      11864.1      20617.2      42691.6     -1.00000
      953.000      511.000      60.6820      418.556      1357.38      4484.44      14489.3      25043.9      42777.3     -1.00000
      151.000      572.000      77.9378      365.848      1032.13      3359.70      11252.3      20042.2      42669.1     -1.00000
      221.000      117.000      15.3572      477.313      1364.44      4215.32      13146.7      21582.5      42420.5     -1.00000
      340.000      394.000      49.7646      393.273      1234.17      3921.95      12244.0      21165.6      42540.2     -1.00000
      169.000      790.000      137.358      405.759      1151.35      3732.10      11935.5      20713.8      42675.5     -1.00000
      50.0000      613.000      95.0741      82.1941      130.279      184.684      292.912      11853.5      42482.9     -1.00000
      51.0000      722.000      109.848      352.782      996.280      3356.51      11369.2      20149.8      42510.2     -1.00000
      546.000      748.000      125.328      267.929      509.929      873.725      1543.65      5686.84      42409.1     -1.00000
      191.000      536.000      67.3384      394.013      1179.29      3757.59      12183.5      20892.1      42238.3     -1.00000
      2.00000      458.000     -179.956      176.845      879.526      3271.35      10946.0      19475.7      42140.6     -1.00000
      47.0000      335.000      25.6099      444.874      1273.45      3976.72      12234.5      20915.3      42074.9     -1.00000
      611.000      737.000      128.488      361.192      1031.30      3363.86      11164.7      19813.2      42251.9     -1.00000
      537.000      643.000      90.5527      344.853      1024.32      3262.03      10835.1      19320.2      41720.9     -1.00000
      673.000      846.000      139.694      330.028      961.417      3107.20      10650.1      19199.1      42228.6     -1.00000
      740.000      488.000      68.2660      410.307      1224.39      3880.72      12138.7      20985.6      42055.4     -1.00000
      343.000      527.000      85.2488      250.366      463.462      815.316      1461.95      7690.33      42022.9     -1.00000
      506.000      432.000      54.3341      385.768      1159.91      3702.48      11806.8      20685.1      41948.5     -1.00000
      647.000      220.000      37.3840      425.440      1243.47      3894.96      12258.4      20893.8      41806.3     -1.00000
      71.0000      798.000      129.472      346.625      1010.18      3267.37      11208.3      19736.2      41915.2     -1.00000
      4.00000      766.000     -21.3920      200.864      780.064      2655.07      9246.41      17328.8      39252.9     -1.00000
      169.000      493.000      69.6512      445.905      1302.46      4052.18      12496.8      21098.3      41643.5     -1.00000
      47.0000      551.000      64.8995      386.038      1110.09      3540.08      11486.9      20078.1      41609.5     -1.00000
