PDS_VERSION_ID         = PDS3
RECORD_TYPE            = STREAM
OBJECT                 = TEXT
  PUBLICATION_DATE     = 2014-02-19
  INTERCHANGE_FORMAT   = ASCII
  NOTE                 = "NAC hot pixel file for epoch 2004.8."
END_OBJECT             = TEXT
END

NAC hot pixel list. Lines 1 and 2 are column headings giving exposure time 
(sec) and gain state (e-/DN), respectively, of source dark images. Starting 
on line 3, first two columns indicate x and y value of hot pixel; columns 3 
through N-1 give median electron counts for each exposure bin, and last (Nth) 
column contains either the index of the exposure bin where saturation first 
occurs, or -1 if no saturation.

\begindata
      0.00000      0.00000   0.00500000     0.380000     0.460000      1.50000      1.80000      2.60000      10.0000      12.0000      32.0000      100.000      220.000      320.000      460.000      1200.00
      0.00000      0.00000      30.2700      30.2700      30.2700      30.2700      30.2700      30.2700      30.2700      12.8410      30.2700      30.2700      30.2700      30.2700      30.2700      30.2700
      98.0000      87.0000      87.7795      378.642      490.477      1365.93      1513.25      2223.88      8310.78      9854.62      25861.6      72999.2      123467.      123487.      123472.      123476.      10.0000
      37.0000      647.000      152.179      389.803      460.097      1254.93      1488.07      2179.32      8420.77      10042.2      26057.4      71630.2      123478.      123467.      123476.      123471.      10.0000
      149.000      356.000      22.4956      2.00297      9.65344      24.0909      6.65873      20.5378      79.0569      80.2509      135.726      61846.2      304.874      123471.      383.778      467.772      11.0000
      634.000      10.0000      28.1909      8.56405      20.4666      5.96402      9.50182      7.13603      4258.59      995.370      7506.12      14564.8      70877.4      22501.9      115661.      123455.      13.0000
      919.000      199.000      94.5312      410.220      452.927      1358.89      1638.35      2199.00      8410.91      10194.7      25867.3      69363.9      118911.      123476.      123481.      123475.      11.0000
      123.000      79.0000      104.638      498.347      583.514      1753.37      1956.77      2789.03      9492.03      11259.2      28404.7      73847.5      122275.      123471.      123463.      123475.      11.0000
      599.000      452.000      101.140      360.979      450.819      1251.51      1392.80      2026.05      7185.37      8579.50      22222.3      61344.6      110554.      123481.      123472.      123472.      11.0000
      444.000      692.000      119.807      185.363      185.549      362.147      455.074      606.863      2222.67      2665.94      7263.18      33590.5      45875.0      116202.      86717.2      123468.      13.0000
      711.000      498.000      53.9206      26.5517      35.4095      48.6245      6.39445      16.4629      74.7294      82.5765      160.452      24911.5      305.374      107970.      377.029      452.400     -1.00000
      726.000      603.000      91.6646      274.324      272.886      821.394      1005.17      1371.94      3227.70      2533.68      9766.55      21678.9      58485.1      44103.2      100299.      123464.      13.0000
      18.0000      679.000      59.0513      7.31874      5.25436      19.6851      48.4731      90.8137      82.4681      524.429      1292.16      34014.6      279.004      123475.      343.414      45100.5      11.0000
      875.000      570.000      100.048      187.323      273.826      670.099      807.410      999.325      3833.72      3621.69      10430.5      16247.0      75339.8      5016.45      123468.      123469.      12.0000
      552.000      694.000      105.205      94.9939      113.523      215.821      207.389      291.261      1887.81      2271.84      6022.25      29099.1      38257.2      102473.      71888.1      123473.      13.0000
      731.000      536.000      71.7080      142.112      100.620      366.717      376.406      578.588      2058.39      1055.12      6148.93      12249.5      39354.1      19428.7      70168.4      123464.      13.0000
      462.000      84.0000      32.0464      120.699      130.084      278.123      287.936      466.196      1816.79      2096.89      5628.15      22444.9      35649.7      78939.8      67977.2      123468.      13.0000
      64.0000      357.000      39.8621      143.961      148.989      363.928      468.018      600.488      2101.02      2503.25      6617.83      16532.1      41339.0      37019.9      75450.6      123454.      13.0000
      147.000      68.0000      31.4997      96.0683      88.6615      185.184      285.038      368.389      1498.49      3030.03      7925.65      24028.8      29466.0      69097.8      57750.0      123477.      13.0000
      617.000      756.000      126.295      239.338      268.124      600.537      665.220      910.453      3487.27      4005.12      11058.8      33557.5      68114.3      90150.1      117207.      123473.      13.0000
      1023.00      496.000      108.202      110.053      102.902      134.343      118.024      102.178      228.746      244.587      401.957      12654.7      817.596      67645.8      969.732      1342.16     -1.00000
      857.000      398.000      24.8040      11.1620      5.04000      37.9652      2.68615      45.7730      77.9167      88.9370      139.948      12325.1      281.333      63714.7      369.755      479.702     -1.00000
      762.000      386.000      52.5495      202.842      191.279      478.379      573.917      791.607      2823.38      3321.66      8961.25      26980.2      55145.5      75319.8      99886.0      123469.      13.0000
      64.0000      477.000      46.2097      103.542      97.8793      273.819      365.415      498.386      1537.22      1481.51      3964.67      12264.6      33389.3      38704.2      68318.7      123477.      13.0000
      487.000      880.000      137.694      184.848      199.753      574.635      593.551      812.647      2710.99      3241.54      8563.79      26138.8      53681.8      71751.0      96212.5      123473.      13.0000
      305.000      696.000      97.3764      126.254      187.523      467.835      501.572      686.842      2465.23      2905.67      7798.52      21423.4      49109.8      69434.1      91639.0      123471.      13.0000
      578.000      312.000      81.5255      270.958      269.712      909.384      1010.30      1483.81      4647.35      5456.09      15244.3      41549.3      72434.3      98640.1      115413.      123471.      13.0000
      689.000      807.000      122.244      211.249      218.037      415.789      470.434      679.468      2586.76      3080.35      8158.77      27648.4      53980.7      90190.7      108514.      123478.      13.0000
      847.000      345.000      53.5529      102.478      184.698      404.775      464.968      663.687      2357.91      2819.39      7496.33      22796.3      46892.4      64162.5      85772.1      123473.      13.0000
      817.000      592.000      91.7144      180.939      228.389      374.544      479.590      625.799      2481.18      2694.92      7874.62      23590.5      49352.0      67254.9      88425.0      123467.      13.0000
      87.0000      156.000      37.3936      110.674      92.0712      296.388      307.469      458.204      1518.00      1860.66      4795.48      14590.2      31058.8      35595.4      60482.8      123466.      13.0000
      277.000      703.000      93.5849      116.029      117.673      294.030      381.455      586.771      1698.84      2037.41      5560.66      17799.5      38429.7      54360.5      74894.3      123474.      13.0000
      307.000      107.000      43.5516      93.0304      146.905      364.861      452.947      581.614      2090.76      2526.99      6521.80      19686.1      40523.8      56255.4      75553.0      123466.      13.0000
      719.000      958.000      125.610      184.940      227.520      387.078      461.325      687.276      2365.16      2850.84      7577.46      23302.4      46622.1      62746.8      81580.5      123478.      13.0000
      232.000      45.0000      26.4982      93.1956      108.136      272.373      361.615      576.844      1950.33      2283.27      6112.55      18388.7      37939.6      52879.7      71311.0      123468.      13.0000
      691.000      97.0000      29.8199      93.8912      93.9848      285.997      304.945      484.863      1658.81      1952.90      5212.50      16101.5      33851.0      47738.6      66982.4      123473.      13.0000
      798.000      803.000      83.6186      29.2814      91.2075      54.7636      121.919      92.1225      121.787      113.175      234.722      8262.97      528.763      47694.3      849.283      1699.29     -1.00000
      766.000      863.000      112.677      230.664      269.824      578.743      718.704      949.045      1912.09      1947.86      6243.65      18997.9      39690.3      56513.1      74500.8      123476.      13.0000
      173.000      726.000      98.1535      97.5829      182.517      365.013      375.333      572.987      1783.95      2127.40      5922.07      18100.5      37811.4      51652.3      70108.2      123473.      13.0000
      309.000      728.000      81.7065      91.3957      1.80984      52.3625      95.6601      93.6008      111.701      90.1303      160.040      7264.17      328.741      45884.6      365.617      471.329     -1.00000
      757.000      317.000      50.5105      88.4845      123.414      321.331      392.570      493.735      1965.19      2313.39      6219.39      18639.2      38164.2      52170.2      69574.4      123468.      13.0000
      144.000      995.000      105.195      50.8354      86.7223      94.4438      57.1774      94.1034      107.240      114.318      194.576      8008.98      283.448      46781.3      304.867      388.248     -1.00000
      417.000      152.000      32.3073      91.6358      106.723      361.280      377.660      577.541      1963.35      2331.58      6174.54      18507.9      37797.0      52102.5      69239.8      123474.      13.0000
      213.000      482.000      67.2858      86.0838      126.713      265.399      299.588      378.510      1428.93      1753.37      4649.92      14674.8      31301.5      45464.8      63325.2      123476.      13.0000
      624.000      893.000      115.398      148.003      151.749      295.602      370.554      499.038      1619.77      1934.37      5138.94      16132.8      34065.6      47941.6      65081.7      123479.      13.0000
      774.000      911.000      119.408      137.536      134.074      278.503      369.371      452.565      1619.99      1915.55      5256.63      16294.4      33663.7      47178.4      62947.1      123109.      13.0000
      973.000      430.000      34.9123      19.8461      13.2918      40.6725      46.6589      23.3608      82.2413      63.8488      128.183      1630.96      268.752      38809.1      332.432      427.496     -1.00000
      606.000      79.0000      17.0135      18.8412      8.38414      14.7220      49.7564    0.0348163      119.641      116.171      294.544      6905.49      1591.48      37931.0      3135.58      7695.33     -1.00000
      844.000      950.000      129.419      198.298      184.797      501.660      589.393      791.364      3176.61      3870.65      10740.3      37082.2      61912.4      99570.7      105164.      123475.      13.0000
      580.000      531.000      63.3270      5.53970      27.5085      3.56725      57.5392      1.94729      112.420      96.7530      158.419      5947.73      304.007      34548.6      376.784      542.908     -1.00000
      121.000      331.000      30.9309      11.1986      4.41388      90.7230      35.8675      46.6937      260.206      297.120      685.437      6455.23      4141.29      33860.8      8234.71      20684.9     -1.00000
      483.000      824.000      108.511      1.71403      34.5885      52.2686      14.2593      56.4159      109.010      88.9663      180.218      6006.73      309.592      35447.8      364.270      473.692     -1.00000
      744.000      647.000      91.0011      134.019      115.658      286.295      366.433      453.932      1486.47      1655.11      4528.10      15198.8      30934.0      48676.8      60480.7      123471.      13.0000
      191.000      582.000      76.3410      143.917      129.170      276.355      317.802      402.965      1486.51      1733.52      4814.82      14853.5      31241.5      43706.5      59781.2      120827.     -1.00000
      665.000      677.000      89.5014      98.1457      100.670      287.263      311.191      453.621      1473.28      1738.30      4693.31      14244.4      29876.7      42174.7      57794.2      120781.     -1.00000
      881.000      92.0000      28.7560      107.395      114.310      276.727      273.015      395.619      1459.83      762.924      4627.30      7404.11      30498.4      1451.74      58650.1      118878.     -1.00000
      500.000      704.000      94.8284      118.596      112.712      186.174      272.370      315.869      1206.07      1461.97      3949.11      12505.0      27031.0      38683.0      53550.2      119835.     -1.00000
      985.000      997.000      106.960      112.964      125.956      231.182      241.589      366.025      1374.72      1625.11      4458.30      13792.4      28799.9      41255.6      56272.9      120039.     -1.00000
      247.000      466.000      45.6860      43.0504      126.042      184.928      275.155      293.270      1079.54      988.542      3238.35      8549.46      22524.8      23418.7      46440.0      113240.     -1.00000
      380.000      1.00000      8.54631      97.7085      10.1801      224.546      280.712      359.993      1084.90      1270.46      3288.06      10123.8      22171.2      31392.4      45850.2      115385.     -1.00000
      380.000      2.00000      24.0198      100.473      99.6470      217.291      283.125      362.514      979.647      1193.39      3141.33      9755.55      21347.3      30640.1      44698.5      115236.     -1.00000
      762.000      852.000      119.167      38.3726      102.445      111.383      119.386      97.4706      104.449      99.7198      224.103      6311.93      344.931      32465.5      400.881      516.095     -1.00000
      795.000      80.0000      25.4150      92.8005      90.2701      185.571      181.355      363.208      1161.87      1284.92      3692.84      15243.7      24200.7      58715.1      48302.8      109064.     -1.00000
      802.000      40.0000      20.1004      91.9433      93.6734      213.705      272.811      362.371      1390.35      1671.42      4437.23      13474.0      28518.2      39439.0      53967.6      108921.     -1.00000
      592.000      399.000      48.3816      99.3717      96.9305      181.185      239.577      311.042      965.371      1146.91      3070.71      9541.34      21007.2      30630.4      43539.6      108100.     -1.00000
      566.000      332.000      41.2134      94.9416      99.0936      183.994      270.120      314.424      1177.18      1376.43      3768.22      11926.9      24680.7      36652.0      48585.2      106321.     -1.00000
      43.0000      578.000      67.3624      120.322      105.564      221.071      283.613      277.360      1140.56      1064.41      3208.01      10137.7      24828.2      31825.1      50131.9      106070.     -1.00000
      47.0000      948.000      78.5996      25.5768      3.01937      95.0944      50.6238      94.8023      98.0493      277.148      554.868      1684.26      247.499      30248.0      325.925      16455.1     -1.00000
      845.000      863.000      105.864      101.411      93.2307      185.233      298.521      313.375      963.464      1155.95      3000.30      9626.82      21555.5      31146.8      44561.1      106151.     -1.00000
      527.000      84.0000      25.7065      120.699      130.084      187.313      269.474      375.386      1294.54      1470.74      4132.90      12012.1      26192.2      34112.4      49979.2      103146.     -1.00000
      584.000      74.0000      10.1896      92.6277      97.1823      269.451      240.602      364.190      1255.20      1484.07      3895.67      11894.6      30888.7      35461.0      49254.2      102276.     -1.00000
      210.000      160.000      30.5151      89.3295      140.470      411.935      460.003      614.224      1832.04      2529.81      6557.80      19495.8      33350.5      53050.1      60868.6      123443.      13.0000
      96.0000      767.000      98.7445      145.751      123.556      234.243      296.609      364.186      1174.20      1401.17      3667.62      11263.3      23924.2      34281.3      47025.4      102195.     -1.00000
      755.000      324.000      37.6568      13.4627      83.9930      189.216      202.646      287.966      995.908      1171.74      3135.42      9677.98      21302.6      30181.0      43210.1      100901.     -1.00000
      760.000      486.000      48.4076      56.7612      57.6493      30.8340      17.0669      95.2222      85.9018      96.4345      159.953      4235.86      285.422      27093.0      358.260      449.685     -1.00000
      181.000      823.000      105.338      90.5717      103.995      145.419      97.8905      119.181      840.356      1117.11      2806.58      8537.74      16863.3      27241.3      35235.7      99674.3     -1.00000
      207.000      732.000      89.9026      37.7899      121.086      97.6400      110.085      101.618      268.639      1076.78      2800.77      5311.21      4353.52      26670.8      8897.11      22307.7     -1.00000
      777.000      92.0000      23.5816      94.0775      23.5000      219.507      271.427      304.809      1210.40      1436.60      3823.96      11663.7      24527.0      34038.8      46362.2      94317.6     -1.00000
      324.000      402.000      37.5765      96.7344      118.466      271.902      232.109      312.632      1087.70      1296.24      3373.63      9969.83      22067.8      29448.0      43340.4      93567.5     -1.00000
      325.000      995.000      92.1836      115.317      98.3375      223.427      180.094      275.723      890.629      1045.56      2841.35      9049.80      19987.3      28998.4      40840.8      95304.1     -1.00000
      458.000      57.0000      15.6151      14.6827      54.3162      198.670      240.975      320.736      1116.60      1200.66      3637.63      10188.9      22936.6      27506.2      43847.2      92713.8     -1.00000
      771.000      492.000      62.3213      107.093      89.2953      191.867      196.006      280.800      1077.93      1270.70      3383.26      8943.14      22173.4      27453.0      43344.1      93018.6     -1.00000
      831.000      303.000      24.6401      14.5209      24.7084      14.7637      111.521      1.26400      91.9443      86.9520      136.253      3681.67      293.864      24987.8      360.314      459.199     -1.00000
      476.000      340.000      39.2134      119.517      55.2392      184.011      277.272      364.629      1097.75      1301.12      3399.82      10417.9      22155.4      31079.4      42918.5      91628.5     -1.00000
      62.0000      49.0000      31.7259      99.2220      88.8559      227.832      191.791      300.682      1137.35      1333.77      3516.75      10590.5      22214.3      31183.5      42793.1      90734.7     -1.00000
      563.000      903.000      124.662      91.9962      93.2186      183.571      191.685      284.489      816.782      483.218      2523.21      4445.82      18236.5      5431.61      37835.9      92520.8     -1.00000
      831.000      59.0000      21.6359      35.2140      97.1411      146.959      179.490      287.253      930.044      1094.13      2898.76      9023.83      19409.6      27254.1      39280.6      89210.7     -1.00000
      424.000      78.0000      26.7372      16.4180      90.1602      179.189      193.604      272.624      965.484      1138.12      3003.13      9121.32      19489.0      27860.6      38838.2      87940.4     -1.00000
      466.000      294.000      35.4644      96.7405      94.8167      193.664      197.504      288.160      970.828      1139.04      2988.04      9169.74      19546.6      27793.2      38797.3      87985.4     -1.00000
      1019.00      474.000      46.6707      89.0307      91.9831      196.249      191.224      311.593      944.000      1100.12      3013.20      9180.97      20411.4      25463.3      40160.4      88019.3     -1.00000
      576.000      320.000      48.9710      92.8175      87.6661      271.680      294.236      382.650      1097.22      1250.41      3281.91      10054.5      21345.2      29879.3      41376.5      87001.2     -1.00000
      705.000      164.000      28.1996      86.9382      50.7088      190.230      197.175      304.388      866.732      1023.22      2792.82      8575.93      18415.6      26433.5      37045.6      85555.2     -1.00000
      460.000      592.000      82.0165      90.1292      96.4411      192.924      207.160      323.099      898.906      996.866      2669.96      8099.07      18384.6      25573.7      37656.4      85799.5     -1.00000
      523.000      626.000      60.5774      88.8944      14.7987      88.5992      92.4418      51.4440      111.802      95.6949      163.405      3994.48      334.807      23485.7      397.747      457.108     -1.00000
      312.000      158.000      24.1953      89.7561      90.4711      178.837      184.594      281.061      874.552      1064.39      2828.88      8599.59      18557.4      26718.7      37485.6      84481.1     -1.00000
      941.000      993.000      106.378      120.100      93.6510      208.211      192.884      276.205      692.023      835.288      2249.20      7053.56      15503.7      23418.2      33149.6      85271.3     -1.00000
      704.000      185.000      29.7058      140.273      89.8523      189.713      276.883      364.569      756.494      812.251      2368.56      7615.62      16637.0      22873.8      34072.2      82891.7     -1.00000
      149.000      357.000      39.8621      53.1512      5.00040      19.2724      86.6234      25.3575      98.3158      77.5519      134.751      383.694      318.388      22270.4      383.939      457.022     -1.00000
      930.000      426.000      40.5991      54.2148      1.93123      51.8997      24.4771      16.2101      73.3857      71.8961      137.040      3577.54      286.027      22092.0      359.043      422.295     -1.00000
      247.000      467.000      65.5895      44.6626      88.9494      93.5602      184.372      207.937      640.150      604.846      1968.86      5149.15      13557.1      13981.5      28940.6      79888.1     -1.00000
      166.000      841.000      100.378      19.4380      6.84077      56.9088      49.9289      88.3944      95.3466      93.7021      180.080      3845.25      340.617      22658.6      396.150      459.151     -1.00000
      863.000      213.000      22.3306      11.5904      36.8413      1.73758      2.86335      32.6643      92.1227      72.9694      134.885      3461.42      299.704      20946.7      384.907      503.460     -1.00000
      919.000      948.000      163.216      105.121      93.8294      185.904      183.998      276.422      703.449      883.262      2410.60      7323.37      16348.2      22742.8      33565.7      78924.1     -1.00000
      499.000      870.000      113.014      90.8697      87.7080      106.256      188.927      197.483      643.233      345.723      979.622      2729.79      15703.4      9197.83      32671.8      29242.9     -1.00000
      819.000      249.000      21.1423      55.2960      92.6151      130.485      183.435      217.778      725.660      853.419      2332.73      7454.51      15389.8      23949.6      31478.0      76101.9     -1.00000
      780.000      905.000      124.376      87.1830      88.2626      92.6125      98.7372      94.5750      906.870      994.633      2630.36      8536.53      18588.5      26509.3      36779.4      77194.6     -1.00000
      785.000      572.000      71.3420      103.527      93.2459      205.117      190.069      272.905      896.516      1020.39      2817.42      8756.79      18566.4      25818.7      35730.3      74970.3     -1.00000
      694.000      17.0000      22.2559      44.7924      96.2973      97.6898      130.725      222.938      798.329      932.649      2459.32      7427.06      15903.3      22663.8      31630.4      73111.6     -1.00000
      54.0000      947.000      102.777      111.450      93.7385      181.143      272.506      278.662      670.275      829.027      2221.63      7166.17      15958.4      23041.8      32268.7      74779.6     -1.00000
      640.000      561.000      64.4081      92.7929      95.5276      182.571      183.974      276.990      755.276      499.116      2296.66      5632.91      16042.6      12045.1      32089.3      71680.5     -1.00000
      345.000      537.000      80.6996      93.9443      105.501      189.312      237.836      278.459      1118.51      1078.54      2913.77      8686.49      22317.2      23784.0      35300.7      73408.2     -1.00000
      487.000      441.000      40.4870      17.9548      48.3309     -1.48567      35.2439      37.4154      84.5457      185.681      391.273      4171.29      333.932      19820.2      390.518      10660.0     -1.00000
      758.000      44.0000      25.6020      51.2747      10.2362      176.990      179.880      271.679      985.466      448.732      2380.49      5323.59      20504.6      22068.9      40464.5      72402.8     -1.00000
      417.000      843.000      123.325      92.1736      95.4003      214.010      188.448      272.409      691.084      807.904      2221.84      6988.88      15441.9      22236.5      31447.8      73189.5     -1.00000
      680.000      284.000      34.1577      41.4264      91.0704      112.944      185.886      236.582      725.698      879.243      2296.56      6973.50      15034.7      21596.6      30589.1      72007.1     -1.00000
      402.000      33.0000     0.653126      20.6875      32.2239      94.5271      104.619      183.249      748.026      889.968      2348.73      7156.90      15261.1      21754.2      30648.8      71207.6     -1.00000
      594.000      443.000      58.6465      94.7676      115.450      180.094      214.918      379.093      781.580      887.728      2439.76      7347.16      16588.3      22771.9      34045.0      71492.1     -1.00000
      373.000      655.000      88.1809      88.6730      129.130      176.732      184.448      288.143      799.111      962.700      2562.39      7911.94      16922.6      23780.4      33029.2      71783.3     -1.00000
      724.000      209.000      31.7022      89.6919      103.652      183.257      184.818      321.968      825.042      994.147      2588.33      7868.09      16526.3      23292.0      32181.1      70271.7     -1.00000
      675.000      598.000      63.7588      90.1504      95.8305      177.979      190.731      194.289      748.422      899.029      2413.02      7444.18      15803.4      23660.4      31449.4      69681.8     -1.00000
      98.0000      86.0000      15.3937      20.2351      6.98763      22.9326      27.5994      42.2075      50.4036      72.9308      108.820      230.496      263.506      283.755      339.222      68207.5     -1.00000
      540.000      708.000      90.2823      100.049      126.797      93.3657      184.386      235.029      649.799      759.583      2006.81      6293.76      13779.8      19812.3      28390.3      68240.9     -1.00000
      144.000      588.000      71.3601      54.7409      19.6144      22.6182      119.404      39.6912      166.848      161.929      366.910      3158.11      1582.71      18517.5      3034.75      7447.77     -1.00000
      319.000      267.000      23.4435      94.5039      91.4172      141.835      120.690      272.801      680.165      771.535      2103.57      6570.32      14123.5      20987.0      29013.6      67087.0     -1.00000
      900.000      287.000      28.2741      27.1484      90.4687      179.074      197.937      220.119      719.921      828.165      2227.60      7409.03      14248.7      25294.6      28382.2      67039.2     -1.00000
      977.000      227.000      30.2987      2.50372      16.1427      134.367      113.537      180.264      590.391      714.695      1899.75      11341.9      12260.9      54103.2      25552.3      66588.8     -1.00000
      78.0000      174.000      34.2885      86.8914      44.0645      147.162      185.462      235.709      769.684      922.993      2414.52      7298.81      15374.0      21605.8      29963.0      65559.9     -1.00000
      784.000      648.000      82.7422      110.138      94.5880      113.134      184.778      184.818      633.944      758.220      1968.93      6192.21      13531.5      19570.9      27490.7      66112.9     -1.00000
      149.000      961.000      121.395      103.932      136.880      143.192      184.050      203.007      584.176      666.977      1808.96      5865.39      12961.7      19185.1      26879.1      66595.8     -1.00000
      88.0000      291.000      30.4546      85.7681      102.474      179.096      202.579      307.590      843.087      1003.79      2641.71      8024.48      16518.4      23544.3      31524.3      65104.2     -1.00000
      37.0000      648.000      95.9214      94.0397      87.3376      107.164      98.0767      178.847      202.029      204.497      319.857      554.554      803.349      871.403      1755.12      65388.9     -1.00000
      895.000      34.0000      14.4320      53.6712      27.3143      94.4149      140.745      180.703      658.807      731.251      1980.26      6068.66      13102.2      18851.0      26401.8      63284.2     -1.00000
      698.000      968.000      107.729      101.867      100.139      92.8914      92.9325      114.010      107.074      119.427      187.993      3131.47      285.139      18363.3      341.739      428.844     -1.00000
      589.000      757.000      95.8589      89.4717      90.2022      183.180      180.715      179.502      627.975      738.841      1880.29      5814.79      12809.0      18445.5      26343.9      63990.5     -1.00000
      369.000      243.000      42.5384      13.3231      11.9119      110.214      147.605      204.556      601.352      696.273      1813.55      5455.93      11888.5      17268.0      24602.0      62528.5     -1.00000
      580.000      608.000      74.0148      101.543      87.6652      147.697      120.582      266.449      602.965      705.368      1856.68      5727.10      12209.9      17756.4      24853.9      60914.7     -1.00000
      1.00000      21.0000     -248.115     -207.495     -236.327     -206.690     -198.381     -209.824     -213.021     -205.267     -151.926      2395.43     -74.0449      16068.8     -52.7114     0.738109     -1.00000
      836.000      68.0000      9.17788      92.5343      6.59026      94.3740      132.618      183.903      573.136      662.023      1777.00      5413.65      11665.6      16792.6      23927.2      59475.8     -1.00000
      63.0000      21.0000      2.41683      24.0700      36.1034      122.010      134.954      183.686      644.140      730.383      2017.85      6098.97      12888.8      18383.2      25626.1      58599.3     -1.00000
      267.000      34.0000      14.4320      13.3819      27.3143      94.4149      111.786      178.325      596.480      748.491      1905.47      5824.98      11507.4      17826.0      23138.7      58230.8     -1.00000
      132.000      518.000      56.9794      92.5106      96.5649      182.006      146.588      203.903      562.325      682.698      1686.33      5150.84      11175.3      16136.5      23065.4      58465.1     -1.00000
      618.000      917.000      112.169      90.2554      97.8737      110.698      197.680      181.638      558.464      649.304      1679.90      5197.99      11386.0      16395.0      23553.1      59292.2     -1.00000
      335.000      790.000      87.2543      55.1069      89.6949      144.910      113.817      181.438      604.581      574.400      1896.41      6213.84      12526.1      13312.6      25454.4      58662.3     -1.00000
      815.000      457.000      32.8440      37.8167      118.099      108.412      96.0102      180.565      521.361      626.169      1643.27      5223.98      11305.2      16585.2      23428.0      57964.4     -1.00000
      641.000      90.0000      12.8421      6.90513      28.6875      135.980      91.1210      192.746      518.748      635.221      1638.33      5027.59      10870.0      15787.9      22374.5      57712.1     -1.00000
      12.0000      288.000     -5.67787      19.9699      87.8737      208.128      221.316      324.620      577.198      698.316      1758.33      8340.32      11695.0      39669.0      23867.0      57714.9     -1.00000
      555.000      944.000      94.7226      101.452      93.4168      126.795      179.669      179.787      531.386      578.239      1492.26      5639.83      9850.47      17690.8      20394.3      58209.5     -1.00000
      970.000      816.000      84.5924      133.417      92.5870      103.447      129.751      103.326      501.308      567.059      1531.39      4571.74      10516.9      14543.4      21886.5      55575.9     -1.00000
      910.000      336.000      28.3898      53.1798      55.7880      181.702      179.260      192.755      544.559      686.147      1682.10      5330.22      10768.8      16358.1      21974.7      56449.1     -1.00000
      793.000      917.000      100.060      90.2554      97.8737      148.954      190.468      181.638      543.536      630.058      1673.57      5153.21      11780.8      15928.9      24083.3      57355.0     -1.00000
      36.0000      611.000      68.7142      60.4863      87.3912      145.327      114.194      182.887      539.202      651.146      1653.48      5112.70      11182.5      15989.9      22984.1      56548.8     -1.00000
      476.000      545.000      61.8025      105.666      117.541      144.389      179.148      194.902      566.789      665.430      1717.08      5278.94      11453.4      16697.1      23487.4      56358.1     -1.00000
      375.000      287.000      22.7543      16.9931      50.9922      92.5333      107.127      220.119      538.301      368.190      1783.78      4143.71      12222.5      8161.20      24035.9      54591.3     -1.00000
      366.000      691.000      88.6435      94.3254      94.8439      127.441      127.218      186.476      580.370      660.078      1794.75      5595.71      11963.4      17181.0      24009.8      56240.8     -1.00000
      290.000      671.000      73.4254      94.0433      15.0525      89.9988      45.7034      32.0519      76.6701      88.9428      162.109      2556.44      315.169      15159.1      394.772      459.050     -1.00000
      674.000      317.000      34.3409      42.1652      32.6043      96.1995      120.140      193.979      550.060      669.505      1757.15      5314.57      11413.8      16390.1      22953.2      54118.6     -1.00000
      867.000      740.000      94.4683      94.8868      56.1036      178.441      207.326      238.442      599.296      659.553      1970.49      6217.03      11719.6      19384.2      23374.3      54448.9     -1.00000
      880.000      745.000      87.3335      93.5309      117.039      114.368      137.444      144.308      460.002      529.065      1379.31      4330.87      9394.86      13755.5      19767.5      51200.0     -1.00000
      374.000      775.000      99.2734      44.0244      45.5675      89.4441      56.6099      39.4818      86.3928      89.9902      165.497      2572.03      338.560      15062.8      390.858      458.956     -1.00000
      527.000      645.000      81.7013      131.367      101.390      176.117      134.364      181.162      536.003      625.826      1594.18      4873.08      10538.2      15326.3      21672.1      53217.9     -1.00000
      401.000      599.000      69.0976      88.8270      90.8969      130.875      180.900      196.637      574.921      660.507      1772.29      5328.38      11507.5      16481.2      23010.9      52852.7     -1.00000
      798.000      984.000      120.341      95.6436      94.3326      188.145      179.160      197.036      518.963      605.733      1556.37      4981.94      10717.7      16101.5      21770.1      53366.4     -1.00000
      508.000      484.000      64.2272      86.0112      88.5235      111.870      38.9345      184.790      472.998      590.817      1505.94      4737.52      10289.6      15368.9      21580.7      52338.4     -1.00000
      658.000      835.000      96.7949      96.4018      98.4420      110.475      184.143      181.626      525.417      622.542      1567.01      5002.37      10833.5      15731.7      22132.4      52781.8     -1.00000
      142.000      570.000      64.8996      24.4935      92.2060      102.555      111.200      181.266      512.352      602.302      1514.48      4523.44      10167.0      14310.7      21060.6      52250.4     -1.00000
      392.000      1015.00      119.582      101.927      109.038      131.349      130.233      226.882      537.810      606.468      1538.87      4776.66      10532.0      15302.3      21773.2      53123.0     -1.00000
      782.000      980.000      112.979      93.0343      94.0961      106.950      87.9764      113.680      109.698      99.5548      215.179      2552.80      278.677      15083.6      339.836      407.898     -1.00000
      37.0000      544.000      50.9444      39.2574      92.0174      106.227      144.682      187.171      523.673      637.420      1616.63      5031.21      10050.0      14549.1      20646.2      52221.8     -1.00000
      453.000      128.000      22.3251      60.7668      50.7175      104.394      108.106      195.034      536.703      630.861      1611.77      4937.60      10606.1      15204.6      21707.2      51687.3     -1.00000
      793.000      30.0000    -0.295035      42.6403      29.1479      31.4652      41.9066    -0.889600      502.325      602.246      1533.52      7527.83      9698.81      33657.9      20023.3      51449.7     -1.00000
      273.000      512.000      55.3364      9.25803      13.8194      92.2221      94.4608      106.194      151.424      215.831      482.768      3099.87      1762.34      14024.1      3476.98      8527.90     -1.00000
      154.000      877.000      98.1449      89.7173      109.102      108.298      109.185      180.561      512.660      578.220      1461.46      4588.16      9993.88      14552.5      20927.8      51903.6     -1.00000
      302.000      331.000      29.1171      95.0925      94.1576      90.7230      110.555      205.051      500.446      584.720      1518.09      4590.41      10056.4      14553.0      20666.4      50776.5     -1.00000
      288.000      310.000      18.9910      52.0608      54.0126      132.711      149.563      185.861      656.871      710.732      1844.87      5650.56      12854.9      18189.9      23241.0      50719.1     -1.00000
      58.0000      90.0000      24.3929      6.90513      53.4746      94.9290      137.770      137.530      514.961      635.221      1641.54      5035.51      10770.0      15245.2      21510.6      49903.1     -1.00000
      200.000      758.000      106.400      104.904      86.6182      36.8183      89.7181      85.2284      843.934      111.641      1574.63      2615.56      17828.1      679.864      35767.6      50393.9     -1.00000
      220.000      502.000      51.6096      46.1165      88.8992      105.813      96.5661      113.620      483.978      375.087      1386.64      3349.04      9323.34      7975.68      19337.5      47352.8     -1.00000
      212.000      672.000      93.8879      91.7969      19.8683      98.2990      119.984      121.434      429.473      517.297      1306.17      3967.40      8716.11      12953.1      17836.3      47195.2     -1.00000
      123.000      70.0000     -3.61688      14.9936      6.55559      6.02913      34.5015      1.61300      68.4289      55.5917      118.135      2199.38      276.544      12974.8      312.837      430.403     -1.00000
      821.000      611.000      70.8427      1.86629      120.227      105.733      114.194      182.887      575.198      548.672      1576.48      4846.59      11484.3      17242.9      24035.5      48775.0     -1.00000
      538.000      183.000      34.1297      54.7346      55.1793      115.767      100.328      182.586      540.509      629.740      1594.17      4725.76      10044.5      14346.5      20200.3      48172.7     -1.00000
      521.000      69.0000      16.4648      10.1256      39.9673      94.3635      113.151      93.5466      508.953      601.000      1608.91      4953.74      10574.8      15034.1      20889.6      48086.0     -1.00000
      594.000      452.000      60.5265      58.2346    0.0314929      10.4370      30.6499      88.7726      101.710      580.886      1434.86      4820.70      338.904      15240.2      419.732      48227.0     -1.00000
      910.000      744.000      83.0741      96.0179      48.6784      93.7224      101.658      235.098      475.244      538.529      1466.98      4474.93      9726.65      14111.5      19735.2      48211.5     -1.00000
      20.0000      764.000      60.7289      45.3318      3.46510      91.2212      105.527      89.1773      77.8857      106.662      203.134      2222.30      299.009      13448.4      338.282      423.114     -1.00000
      617.000      739.000      101.513      95.1547      56.1700      107.295      128.714      144.426      484.237      563.285      1437.64      4320.33      9656.09      12693.6      19805.8      47983.9     -1.00000
      643.000      399.000      40.9801      99.3717      6.12047      98.0505      93.7336      145.573      476.743      533.897      1442.84      4669.00      10381.3      13814.6      20958.3      47483.1     -1.00000
      514.000      851.000      99.3758      91.2995      58.9371      108.938      123.930      141.376      427.120      496.190      1248.46      3857.34      8514.04      12489.0      17854.3      45901.9     -1.00000
      617.000      409.000      39.1433      57.8418      86.9392      90.3744      104.787      180.168      509.542      599.456      1541.95      4571.63      9810.86      13998.8      19823.2      46803.9     -1.00000
      678.000      265.000      28.5478      33.1222      10.1675      96.3614      123.031      183.966      478.866      575.764      1520.26      4676.63      9970.84      14258.1      19908.3      46582.0     -1.00000
      566.000      807.000      111.151      86.4377      127.227      143.359      190.335      195.148      571.800      651.166      1596.61      6406.83      10363.7      23519.7      20526.8      47258.5     -1.00000
      805.000      354.000      26.1453      55.9569      55.8051      97.7941      131.961      99.2871      468.363      554.112      1448.05      4343.82      9392.39      13406.7      19086.1      46531.8     -1.00000
      193.000      369.000      32.3624      55.6030      25.1821      98.5236      114.749      134.569      449.340      513.229      1398.72      4149.00      9106.83      13151.9      18482.9      45745.6     -1.00000
      501.000      448.000      43.5451      8.93256      95.0504      96.4322      192.201      189.569      483.185      592.729      1516.16      4442.75      9600.00      27681.7      19492.0      45558.3     -1.00000
      831.000      490.000      42.1803      85.8538      89.1139      113.052      119.912      177.610      469.392      552.768      1398.92      4181.66      9019.96      13279.8      18470.2      45432.2     -1.00000
      232.000      805.000      107.846      112.991      105.339      145.724      188.481      183.109      510.285      586.133      1468.91      4463.43      9724.07      13944.1      19608.8      45660.0     -1.00000
      248.000      547.000      65.2278      113.080      41.4591      120.719      139.987      211.334      450.740      545.320      1315.84      4696.36      8288.38      18364.3      17320.4      45095.0     -1.00000
      470.000      291.000      24.5547      8.11747      11.6642      88.2863      51.6303      35.1601      462.676      537.397      1387.07      4013.27      9537.00      11630.4      18498.4      44340.0     -1.00000
      549.000      47.0000      6.61839      3.55040      41.7471      90.7174      92.8091      102.316      441.149      531.999      1344.64      4127.08      8798.82      12672.8      17903.6      43871.4     -1.00000
      280.000      814.000      101.423      32.7842      46.4541      110.427      89.0944      116.168      174.352      188.924      399.603      2339.45      1700.34      12445.5      3330.43      8428.86     -1.00000
      537.000      546.000      71.0202      117.529      41.4614      113.463      132.702      199.118      468.224      539.686      1327.93      3940.43      8488.65      12351.1      17465.3      43776.9     -1.00000
      51.0000      722.000      77.2141      32.2216      92.4045      94.2034      126.484      177.351      451.248      523.437      1275.63      3954.49      8666.32      12619.5      17807.7      43986.1     -1.00000
      589.000      219.000      41.1570      12.4212      19.2013      87.2063      100.420      118.265      445.726      530.625      1364.09      4189.07      8935.97      12834.7      18203.9      43152.0     -1.00000
      847.000      497.000      46.3878      24.1042      30.5288      43.5812      27.0938      13.9190      493.566      545.233      1337.96      2702.14      9394.48      3612.17      18944.6      43019.3     -1.00000
      985.000      161.000      22.3877     -1.70064      21.5388      90.0714      99.1710      186.647      474.226      549.040      1409.65      4267.88      9061.36      12906.2      18064.0      42580.4     -1.00000
      885.000      589.000      54.4095      99.8628      103.846      109.614      114.571      135.111      410.528      500.933      1277.73      3993.31      8633.74      12447.0      17619.5      42871.4     -1.00000
      403.000      6.00000     -3.99866      18.8391      19.2354      14.1380      8.48581      7.35564      54.0902      56.3407      89.9452      1846.86      264.931      11340.3      333.672      456.730     -1.00000
      472.000      143.000      21.5060      52.2334      4.29778      120.937      92.9948      109.104      427.862      514.589      1327.58      3953.54      8473.22      12272.8      17275.0      42277.9     -1.00000
      775.000      154.000      23.1607      10.3428      51.9383      116.071      99.1406      92.8918      414.569      465.648      1231.71      3622.85      8064.35      10895.4      16607.2      41885.1     -1.00000
      425.000      200.000      23.4141   -0.0471699      24.0147     0.924613      21.6530      22.0765      390.763      178.316      1020.87      2185.78      7921.16      1645.86      16367.6      41907.7     -1.00000
      155.000      734.000      93.7341      32.7030      60.8887      113.003      122.257      202.797      435.925      486.478      1237.65      3676.90      8170.49      11578.6      16890.6      42374.1     -1.00000
      189.000      536.000      64.3575      51.3024      17.4669      50.5986      13.1663      94.2684      87.9101      329.528      669.682      1901.25      306.457      11412.3      395.712      510.466     -1.00000
      856.000      746.000      85.0317      91.0458      122.516      93.5806      113.824      131.227      413.110      455.127      1145.07      3449.41      7567.75      10689.4      15868.9      40553.6     -1.00000
      173.000      739.000      92.1629      95.1547      90.8819      107.295      139.434      233.765      453.967      527.315      1321.54      3913.98      8537.00      11513.1      17436.2      41461.7     -1.00000
      677.000      129.000      28.1285      2.60328      4.68722      35.1164      10.0285      48.0747      341.022      534.580      1358.86      4704.21      5965.34      16584.4      12151.0      40883.8     -1.00000
      202.000      776.000      114.716      4.05294      45.6726      52.5297      93.9523      51.0648      115.526      563.272      1396.75      4628.77      368.544      15657.6      396.816      41333.8     -1.00000
      248.000      727.000      90.5996      97.4805      91.6588      113.605      107.709      176.340      391.524      450.822      1147.43      2907.28      7535.24      7598.32      15776.0      41242.2     -1.00000
      231.000      183.000      12.9496      54.7346      55.1793      86.2839      100.328      91.7765      412.514      496.457      1264.99      3731.28      8037.25      11618.5      16414.0      40572.5     -1.00000
      834.000      272.000      19.7385      58.4679      33.4311      55.1036      99.4955      93.0147      400.405      485.587      1294.53      3958.22      8570.39      12187.7      17151.9      40212.6     -1.00000
      518.000      80.0000      9.24012      21.2634      43.6175      94.7608      89.3949      93.0282      393.787      457.815      1212.33      3594.85      7830.61      11231.4      15998.9      39830.0     -1.00000
      767.000      3.00000      10.5717      11.9664      13.6293      97.9257      106.338      95.0316      372.610      429.037      1120.34      3345.14      7991.37      9856.50      16624.2      39469.6     -1.00000
      527.000      916.000      92.0252      94.0057      95.4538      105.980      190.447      180.724      410.790      462.546      1172.43      3607.46      7763.99      11322.4      16195.7      40238.3     -1.00000
      708.000      985.000      105.431      92.9423      94.3237      102.279      167.704      186.942      412.272      463.848      1120.50      3739.29      7245.77      13510.5      15264.3      40267.4     -1.00000
      587.000      104.000      16.2738      2.53830      1.67299      94.3475      114.518      137.006      418.250      476.294      1206.75      3873.99      7860.00      12582.0      15935.0      39262.4     -1.00000
      1012.00      148.000      23.8547      57.3646      15.7058      90.2173      97.4398      93.8142      360.900      451.117      1131.67      3442.49      7151.19      10979.2      14698.6      39251.2     -1.00000
      553.000      979.000      118.209      93.0580      94.3879      106.748      115.571      123.696      419.399      471.261      1169.16      3550.53      7779.27      11367.0      16113.4      40012.4     -1.00000
      849.000      174.000      25.7987      2.19185      44.0645      89.5765      94.6525      144.899      410.743      445.875      1267.16      3747.47      9248.18      11789.2      16977.5      39013.8     -1.00000
      487.000      203.000      19.9886      6.52390      2.55249      92.0445      50.2765      130.119      404.244      461.754      1165.77      3633.38      7134.79      11981.0      15899.9      39027.1     -1.00000
      280.000      559.000      63.4127      37.6018      100.493      92.2629      100.169      100.487      396.814      463.097      1173.18      3621.49      7889.93      11372.9      16019.0      39235.3     -1.00000
      50.0000      806.000      79.8940      115.502      47.8603      143.389      197.709      187.915      427.004      477.045      1235.99      1956.78      8522.42      1394.29      17231.3      39536.5     -1.00000
      450.000      453.000      44.3636      20.8876      59.9052      84.7543      104.956      93.3522      374.031      336.823      1135.16      2807.56      7490.26      6490.52      15298.2      38777.1     -1.00000
      0.00000      121.000     -278.397     -238.082     -210.559     -197.696     -153.111     -154.544      266.083      334.650      1246.52      6737.21      8680.50      22978.2      16988.8      38310.9     -1.00000
      21.0000      284.000      21.8797      5.29270      66.0147      102.248      95.0764      145.772      388.133      469.797      1176.07      3563.24      7503.45      11037.3      15300.2      38215.5     -1.00000
      227.000      743.000      93.3145      94.0468      100.247      119.286      96.7794      145.471      387.453      439.904      1085.78      3177.98      6974.34      10063.9      14482.8      37257.5     -1.00000
      439.000      812.000      83.7882      94.2284      112.015      108.897      143.107      99.2976      331.819      396.983      1004.90      3052.80      6570.11      9562.70      13734.6      35905.0     -1.00000
      599.000      451.000      41.1704      60.8009      52.8370      34.6181      32.8264      89.4658      61.1012      70.6349      133.493      233.047      303.890      347.951      366.772      37251.4     -1.00000
      107.000      866.000      84.1306      91.4050      87.9851      96.7488      186.179      140.576      389.108      450.909      1101.22      3253.71      6817.48      10154.6      14187.1      36401.9     -1.00000
      457.000      908.000      119.210      90.6671      88.5220      193.863      135.410      179.769      407.783      490.335      1143.10      3482.32      7558.34      10833.9      15608.4      37565.5     -1.00000
      717.000      343.000      31.1138      4.35998      23.1042      90.1535      107.717      179.613      372.137      442.722      1115.74      3340.85      7161.48      10679.0      14506.1      36636.2     -1.00000
      849.000      130.000      13.2690      60.6103      55.4410      92.0145      90.3580      138.882      352.791      419.816      1113.07      3383.96      7398.45      10513.8      15061.7      36542.4     -1.00000
      421.000      945.000      141.821      101.561      93.5322      114.738      136.520      179.776      348.828      415.093      1018.17      2908.46      6237.88      10363.5      12757.5      37117.9     -1.00000
      1.00000      244.000     -226.191     -191.158     -200.846     -139.058     -149.676     -123.661      150.317      199.000      863.446      6330.02      6704.76      30132.5      14037.9      36225.7     -1.00000
      505.000      984.000      130.621      95.6436      94.0814      100.701      169.335      106.226      318.823      384.528      940.468      2895.71      6303.77      9138.76      13153.3      34251.7     -1.00000
      105.000      152.000      14.8182     0.825799      15.9126      53.2345      14.4200      2.49871      88.1717      77.1945      193.133      1798.21      744.172      9648.43      1350.54      3037.24     -1.00000
      98.0000      88.0000      18.3849      10.5646      36.2744      45.1771      34.8542      46.5146      69.2376      70.7743      145.543      256.532      355.111      493.506      2378.21      35864.2     -1.00000
      604.000      65.0000      9.76201      2.76662      6.57598      122.985      99.1202      105.584      675.614      525.335      1425.66      3973.15      12212.9      10988.2      22922.0      35814.3     -1.00000
      775.000      976.000      117.004      107.431      99.2613      103.899      122.783      109.108      352.834      437.079      1034.08      3043.91      6536.47      9587.03      13447.1      34592.7     -1.00000
      152.000      79.0000      22.0100      18.8412      8.38414      94.7424      89.4012      90.8448      361.801      419.134      1069.43      3287.58      7049.70      10229.2      14309.5      35483.8     -1.00000
      183.000      431.000      42.0876      54.9715      51.9146      96.6831      109.504      124.858      393.831      442.580      1150.50      3398.79      7265.62      10511.2      14803.9      35472.5     -1.00000
      1001.00      147.000      26.1654      27.4970      8.47354      13.2847      40.4475      93.9481      322.922      375.514      984.944      1821.53      6452.24      5359.58      13394.8      33493.1     -1.00000
      236.000      0.00000     -1.61631      4.54504      6.50548      7.30636      6.47163      2.74900      358.364      186.083      442.582      1082.18      6597.67      3208.21      13514.9      11586.4     -1.00000
      160.000      91.0000      15.0686      43.1045      26.0965      133.551      91.2588      130.361      377.128      431.778      1120.84      3372.60      7211.48      10323.0      14597.3      35160.2     -1.00000
      723.000      909.000      75.0013      87.3148      90.6788      110.288      140.312      179.892      414.927      467.029      1183.55      3499.55      7383.64      10610.2      14898.3      35867.9     -1.00000
      363.000      721.000      97.3643      97.8783      8.39796      94.1830      93.3034      96.1099      363.697      417.257      1023.49      3043.03      6576.48      9544.39      13656.6      34639.6     -1.00000
      541.000      1002.00      120.161      93.6609      112.230      122.549      90.6564      106.528      392.250      456.276      1095.39      3326.10      6751.96      11463.8      14194.2      35909.0     -1.00000
      953.000      511.000      44.9521      95.1251      55.7959      103.894      101.561      120.348      361.711      391.553      1077.14      3056.00      7397.15      9185.89      15498.4      35205.6     -1.00000
      877.000      1023.00      105.005      97.5542      96.7772      100.802      116.816      89.3372      350.557      419.954      1046.67      1810.59      7000.78      1125.19      14640.3      35617.6     -1.00000
      149.000      355.000      24.8931      4.22295      14.3035      11.8607      4.18936      13.2967      84.6912      78.2085      140.402      236.329      317.710      9352.20      381.741      470.221     -1.00000
      658.000      48.0000      12.4973      44.2110      36.9769      51.0663      89.4663      109.644      336.623      400.467      1043.67      3136.48      6682.06      9479.06      13743.9      34382.7     -1.00000
      787.000      499.000      46.9363      91.1501      37.8644      120.064      97.0569      103.826      348.664      414.603      1010.54      3035.00      6625.76      9466.22      13681.6      34383.5     -1.00000
      108.000      721.000      82.2293      92.1614      88.9163      94.1830      93.3034      176.868      383.014      466.108      1089.47      3267.73      6912.84      10015.2      14106.0      34501.1     -1.00000
      708.000      72.0000      32.2089      4.16523      6.48461      47.5560      89.4209      92.1061      342.871      383.916      1014.81      3021.24      6818.33      9156.53      14045.1      33987.5     -1.00000
      988.000      967.000      93.5849      20.8888      37.5384      97.6246      57.7175      113.975      71.3579      88.4138      165.762      1800.84      222.367      9826.71      250.907      326.210     -1.00000
      806.000      581.000      80.2478      48.4132      60.6101      44.4137      42.9066      30.8727      80.3064      85.1343      149.782      1622.44      301.886      9317.73      361.015      456.449     -1.00000
      581.000      381.000      32.9196      39.8582      11.6408      127.331      110.288      90.9380      304.041      385.799      1004.59      3025.87      6485.01      9376.46      13257.6      34059.0     -1.00000
      342.000      743.000      77.3936      94.0468      53.5464      96.2058      96.7794      145.471      358.803      429.700      1024.66      3093.16      6752.50      9771.65      13776.8      33980.0     -1.00000
      452.000      407.000      21.1655     0.402185      51.4430    -0.303531      26.0984      60.0801      327.351      391.090      1031.25      4632.39      5770.46      19198.5      11671.5      33353.6     -1.00000
      323.000      369.000      28.0884      89.9605     0.705049      98.5236      114.749      91.6278      343.351      377.452      934.619      2727.15      5942.11      8577.53      12212.9      31218.2     -1.00000
      903.000      176.000      16.1467     -2.62806      22.4365      56.3150      90.9041      134.099      371.363      335.255      905.539      2695.48      8028.35      7609.78      16678.9      32923.7     -1.00000
      19.0000      246.000      15.4560      37.9583      21.8428      96.1314      92.5624      130.444      364.530      418.067      1058.74      3106.18      6695.00      9463.88      13506.3      32831.4     -1.00000
      1015.00      571.000      43.4807      7.99760      92.0729      107.220      104.021      182.066      419.652      513.591      1195.97      3670.68      6720.67      13718.1      12505.6      32963.8     -1.00000
      614.000      50.0000      4.47086      10.8449      55.2404      110.425      100.941      126.434      332.567      393.591      986.595      2964.58      6445.23      9175.81      13130.8      32678.8     -1.00000
      358.000      894.000      126.305      92.9293      60.8791      93.1762      112.322      49.7858      115.341      109.618      187.903      1589.86      330.088      9412.42      416.654      488.791     -1.00000
      112.000      429.000      39.3258      52.7051      54.3678      113.639      180.240      181.136      358.786      417.405      1001.55      3281.25      6331.40      11812.3      12984.0      32604.4     -1.00000
      704.000      186.000      19.1208      47.2699      33.2581      94.1085      92.7219      89.4863      190.737      214.307      537.380      1542.84      3376.52      4671.27      7432.26      23684.9     -1.00000
      423.000      769.000      108.696      87.5897      60.1999      90.4990      94.4440      92.0603      334.578      382.622      983.881      2825.18      6479.08      8783.85      13524.8      32683.5     -1.00000
      505.000      399.000      30.8264      8.56166      6.12047      98.0505      93.7336      129.422      382.712      416.596      999.650      2945.74      7422.74      9049.44      15135.8      32252.5     -1.00000
      672.000      170.000      21.0976      5.94569      58.2990      88.3782      91.1749      138.329      353.301      425.517      1075.39      2270.97      6486.40      9980.36      13626.3      32125.9     -1.00000
      555.000      592.000      65.5557      90.1292      46.7692      102.114      114.416      149.686      357.390      367.655      935.418      3496.83      6261.15      13706.1      12656.6      32335.0     -1.00000
      301.000      102.000      23.6054      2.72474      2.11522      15.5364      42.3907      89.5969      243.327      278.875      737.048      2137.65      4484.05      6799.50      9096.33      23268.2     -1.00000
      221.000      117.000      17.9624      2.67403      1.08408      95.4257      90.8941      98.1240      321.447      381.879      981.266      2989.49      6255.11      9007.81      12697.8      31144.8     -1.00000
      773.000      644.000      81.7432      86.7149      15.2671      94.7891      100.470      90.1675      321.418      366.862      882.961      2796.90      5505.92      9684.80      11442.7      30390.3     -1.00000
      1019.00      93.0000      22.1866      21.4252      16.0549      45.7363      92.1826      120.989      294.190      373.645      959.891      2877.67      6139.50      8773.28      12512.2      30910.3     -1.00000
      792.000      609.000      73.1969      53.0678      87.5737      93.7290      104.581      175.648      328.925      381.241      985.515      2860.73      6099.17      8865.49      12622.0      31176.7     -1.00000
      323.000      483.000      38.1370      58.9497      88.4221      106.985      92.6228      100.054      335.426      382.908      920.104      2698.94      5897.06      8344.55      12136.6      30905.7     -1.00000
      939.000      835.000      106.266      96.4018      92.7007      103.360      95.9863      96.0191      289.998      332.065      842.755      2574.00      5659.02      8347.10      11742.8      30213.2     -1.00000
      141.000      871.000      99.7640      90.7186      90.0643      103.783      98.3510      88.2004      102.233      115.414      214.667      1527.15      302.529      8836.02      374.691      481.701     -1.00000
      237.000      73.0000     0.604548      4.27021      6.43553      42.8563      48.6798      91.9364      227.094      257.031      657.822      1935.55      4097.19      5879.73      8212.90      20440.9     -1.00000
      239.000      265.000      26.3923      4.21852      8.99132      92.6701      110.737      93.2832      329.110      369.369      918.837      2739.14      5914.35      8531.92      12207.5      30819.1     -1.00000
      667.000      498.000      64.8033      46.9244      90.9586      48.6245      29.3931      87.0128      303.686      385.228      907.849      2870.41      4956.82      9592.58      10322.5      30866.5     -1.00000
      993.000      992.000      79.5757      90.4709      93.7227      109.854      112.090      104.936      331.646      391.046      922.981      2801.71      5971.59      8755.87      12500.7      31186.8     -1.00000
      651.000      854.000      96.0842      91.3691      109.563      108.440      122.421      121.792      336.555      394.761      943.299      2694.38      5825.97      8499.76      11959.0      30321.3     -1.00000
      931.000      798.000      84.8867      88.5594      25.9745      106.574      95.7285      181.020      349.410      398.466      978.711      2966.07      6267.65      9061.61      12652.6      30902.7     -1.00000
      675.000      951.000      104.844      95.7867      94.0547      143.311      129.410      179.683      329.796      393.908      981.583      2840.54      6324.59      8702.42      12902.9      31003.6     -1.00000
      797.000      878.000      87.0235      89.5424      92.5102      110.667      99.2599      176.901      337.219      389.692      943.957      2760.01      5944.38      8444.60      12140.5      30488.3     -1.00000
      386.000      432.000      36.9040      52.4743      92.3344      94.1212      104.639      123.781      301.268      351.677      857.525      2515.25      5331.89      7795.86      10955.6      27756.4     -1.00000
      171.000      712.000      83.4243      35.8981      93.2247      92.5133      94.9285      110.178      324.318      384.531      972.873      2784.62      5990.94      8558.07      12295.4      30385.8     -1.00000
      741.000      807.000      82.3081      86.4377      43.0181      138.640      146.183      104.338      332.422      383.856      934.159      2704.88      5878.57      8582.46      12175.7      30417.0     -1.00000
      141.000      917.000      115.788      91.5967      87.5924      110.698      197.680      181.638      376.581      454.927      1113.27      4092.26      6112.83      14196.8      12097.9      30441.8     -1.00000
      831.000      514.000      58.4866      38.0329      106.912      92.3747      93.9796      118.203      297.473      371.369      905.396      2509.13      5812.51      6930.19      11828.3      29487.7     -1.00000
      916.000      390.000      26.5351      17.2030      56.8292      26.3503      101.258      114.492      299.238      347.309      891.240      2702.88      5727.42      8233.75      11800.1      29979.5     -1.00000
      1014.00      129.000      25.7720      2.60328      4.68722      101.851      100.838      113.874      296.115      337.450      871.635      2605.65      5692.61      8195.78      11647.6      29412.1     -1.00000
      969.000      305.000      40.2335      54.3878      42.5062      94.2358      103.031      91.7456      342.105      379.280      926.146      2892.10      5856.08      9306.79      11982.5      29435.5     -1.00000
      581.000      78.0000      11.7007      46.6909      21.8332      88.3786      54.4960      91.0037      294.151      342.230      902.695      2747.70      5707.61      8470.19      11624.3      29274.8     -1.00000
      714.000      408.000      41.1765     0.420965      51.3632      90.4439      95.6517      92.3363      158.287      364.677      882.401      2719.64      2022.05      8343.53      3928.30      29314.8     -1.00000
      170.000      904.000      108.758      89.5864      90.7731      92.6897      98.7468      186.537      294.456      382.773      863.489      1920.16      5690.55      3685.49      11837.2      29732.2     -1.00000
      930.000      243.000      27.4482      13.3231      9.12250      26.5903      56.7949      33.6431      181.604      328.574      857.402      2554.05      3196.59      8011.50      6291.24      29127.8     -1.00000
      740.000      211.000      15.6873      48.5785      58.3322      86.1777      93.8452      123.568      252.539      196.509      789.360      1888.82      5135.48      3873.37      10585.2      26840.0     -1.00000
      359.000      626.000      76.4210      88.8944      56.1466      88.5992      118.462      142.254      297.398      363.543      898.168      2666.57      5666.21      8156.99      11683.1      29219.8     -1.00000
      731.000      329.000      24.6858      49.0648      50.2349      90.6358      103.633      91.9545      264.036      281.298      683.940      2011.43      4251.50      6052.79      8587.77      21464.3     -1.00000
      903.000      99.0000      19.5098      2.95853      14.5808      95.4106      116.110      58.6702      279.072      330.335      857.141      2662.53      5525.21      8315.05      11371.1      28777.2     -1.00000
      621.000      303.000      30.8185      14.5209      25.8575      91.9290      111.521      181.042      323.013      357.675      938.308      2716.12      5795.07      8369.57      11692.0      28835.2     -1.00000
      202.000      458.000      49.8606      45.0936      89.7840      93.8720      96.2346      179.033      287.285      346.347      862.671      2542.32      5338.99      7615.99      11097.5      28879.9     -1.00000
      471.000      142.000      30.8462      21.7188      11.5606      27.8766      2.75356      3.72902      66.2172      396.334      952.318      3003.27      315.816      10317.7      382.114      28745.0     -1.00000
      487.000      286.000      29.8976      31.9060      58.4158      88.2614      102.312      128.773      290.370      99.3627      236.176      391.645      4591.99      1077.31      11032.7      3253.09     -1.00000
      166.000      463.000      41.6396      114.070      57.2549      93.7137      93.4125      97.4270      290.395      347.938      825.091      2499.50      5262.54      7706.78      10991.3      28586.1     -1.00000
      291.000      654.000      84.1190      54.3237      95.4124      113.845      93.6917      101.633      330.649      405.179      979.817      2773.71      5932.44      8401.33      11834.1      28703.2     -1.00000
      682.000      181.000      16.6658      54.9275      60.1249      49.3199      102.949      96.2507      309.210      345.358      926.247      2728.47      5775.98      8259.22      11754.1      28358.5     -1.00000
      624.000      432.000      40.7564      3.06349      92.3344      94.1212      90.0875      123.781      295.169      324.729      904.445      2701.49      5751.93      4231.85      11742.6      28362.1     -1.00000
      739.000      354.000      22.6908      55.9569      14.1084      36.1587      94.9478      99.2871      288.885      351.293      840.372      2521.80      5267.58      7714.75      10954.1      28338.6     -1.00000
      77.0000      547.000      61.6295      29.2202      41.4591      120.719      123.095      120.524      296.674      353.302      872.901      2553.58      5234.11      7884.45      10963.9      28420.8     -1.00000
      667.000      19.0000      14.9950      17.0368      19.4870      93.2974      91.2839      134.973      287.193      345.273      854.875      2763.23      5438.29      9071.25      11162.8      28189.1     -1.00000
      465.000      465.000      49.9055      30.3237      57.5984      8.11141      48.9840      18.8828      267.961      357.796      813.004      2318.62      4450.35      7647.19      9229.04      28216.1     -1.00000
      351.000      658.000      78.3569      88.8690      44.4955      93.4053      100.738      123.593      292.970      337.256      833.402      2457.49      5301.11      7657.85      11064.6      28018.1     -1.00000
      995.000      108.000      13.2727      2.10605     0.783975      23.6734      89.7346      97.2875      291.150      349.352      915.971      3127.67      5740.62      10764.9      11564.1      27891.9     -1.00000
      70.0000      198.000      27.9682      11.7910      38.3250      87.4938      94.6068      103.005      297.350      366.369      930.265      2838.14      5655.84      8960.66      11362.3      27716.6     -1.00000
      71.0000      607.000      72.6686      88.1691      87.7565      97.6401      97.3784      95.2227      295.687      362.463      836.124      2414.29      5201.99      7600.13      10771.4      27034.7     -1.00000
      422.000      985.000      126.457      95.6726      94.0604      102.279      76.8942      10.4429      103.977      149.436      276.308      1542.44      335.135      8032.54      389.187      4487.92     -1.00000
      754.000      583.000      65.4983      90.2544      53.3851      113.210      138.643      133.354      295.560      342.340      866.815      2575.59      5580.48      7899.42      11183.1      27784.4     -1.00000
      287.000      844.000      102.424      94.6374      95.4199      120.821      102.415      105.380      326.955      393.067      919.764      2646.91      5689.34      8284.78      11715.8      29476.9     -1.00000
      717.000      275.000      23.2691      21.4842      9.60780      95.5684      92.2474      92.8334      278.095      344.336      846.233      2474.69      5294.69      7589.78      10798.1      27691.5     -1.00000
      64.0000      268.000      16.0333      4.29358      8.51205      16.3897      5.71032      91.1721      66.2806      71.2799      122.864      215.702      285.643      7409.92      362.731      418.417     -1.00000
      528.000      984.000      132.712      92.9542      94.3326      100.701      136.212      182.272      315.916      364.515      859.505      2585.25      5580.81      7947.13      11355.9      28063.9     -1.00000
      906.000      741.000      84.1802      52.5973      33.7716      103.578      106.734      147.716      290.831      323.477      814.658      2153.23      5482.46      5600.31      11170.8      26764.3     -1.00000
      15.0000      659.000      44.1248      57.1537      46.9666      48.7478      107.948      123.627      281.552      334.958      799.872      2362.30      5036.28      7253.38      10453.0      26881.9     -1.00000
      599.000      453.000      59.9620      111.698      59.9052      96.3908      104.956      89.5459      144.711      154.636      270.776      473.345      651.055      725.922      949.645      27273.7     -1.00000
      483.000      16.0000      7.93277      7.71564      5.54867      6.85646      7.90570      38.6924      64.8638      114.551      218.259      1221.28      280.550      7249.73      371.841      447.580     -1.00000
      123.000      78.0000      19.2686      16.4180      6.06101      6.33251      54.4960      4.03304      52.7700      65.4506      111.923      196.315      280.003      301.794      334.763      26996.4     -1.00000
      244.000      689.000      88.0659      33.3580      95.0430      125.021      113.310      98.5753      310.939      362.883      868.550      2476.11      5331.08      7550.18      10862.7      27130.8     -1.00000
      738.000      965.000      109.297      110.081      47.2166      113.460      132.392      149.553      335.634      377.246      902.491      2643.41      5447.23      8107.61      11166.2      27486.0     -1.00000
      568.000      329.000      28.4868      49.0648      16.7222      90.6358      88.5248      91.9545      261.614      284.997      696.986      2059.77      4251.50      6106.31      8738.21      21695.6     -1.00000
      329.000      799.000      90.0716      90.9686      90.4810      116.298      95.6723      91.9375      273.438      321.424      775.535      2083.46      4763.06      5931.53      9785.54      25337.7     -1.00000
      304.000      124.000      24.1408      9.72408      36.4715      35.5445      126.361      87.4557      290.856      341.309      875.300      2526.13      5304.96      7666.62      10880.8      26745.4     -1.00000
      209.000      45.0000      4.86988      2.38562      17.3262      88.6063      89.1855      92.5238      284.494      335.998      884.117      2448.67      5661.66      6708.66      11297.2      26707.1     -1.00000
      8.00000      966.000      44.7658      16.8698      39.9566      13.9791      47.3338      26.2146      27.3762      41.0972      102.876      2390.82      162.332      7766.01      209.493      262.011     -1.00000
      16.0000      636.000      34.4097      53.2527      60.1285      86.9840      88.3243      104.079      284.733      338.739      825.870      2504.82      5278.20      7628.58      10838.9      27055.4     -1.00000
      589.000      231.000      31.9485      2.85692      7.64042      91.1472      88.9123      93.1839      278.104      319.363      834.112      2455.76      5251.01      7530.01      10708.7      27164.1     -1.00000
      516.000      76.0000      25.0993      11.5666      4.90425      26.3581      59.1487      91.3906      272.701      317.379      830.039      2477.24      5132.83      7763.88      10478.1      27052.9     -1.00000
      795.000      822.000      94.5923      90.4918      36.7844      92.2142      93.1371      119.875      250.545      210.621      486.893      1721.19      4856.15      3536.05      9937.21      24579.0     -1.00000
      71.0000      45.0000      4.86988      2.38562      17.3262      58.4159    -0.207941      92.5238      255.213      320.095      815.857      2434.51      5177.34      7414.48      10571.0      26592.7     -1.00000
      589.000      199.000      14.5737      4.65862      33.5909      87.5454      12.1190      110.368      234.769      322.425      790.902      2454.07      3524.79      8125.07      7070.50      26617.2     -1.00000
      862.000      953.000      105.123      117.586      95.2265      140.794      117.358      95.6420      292.076      339.544      776.594      2200.74      4719.37      6931.43      9963.05      25771.3     -1.00000
      269.000      311.000      30.3066      47.2706      53.9232      106.212      95.0031      188.287      304.655      353.817      882.717      2396.66      5531.19      7126.36      11345.7      26606.1     -1.00000
      867.000      792.000      95.8034      88.6414      89.9037      107.382      98.3753      91.2395      299.098      343.872      841.518      2385.05      5206.99      6632.44      10653.7      26250.7     -1.00000
      131.000      238.000      30.8350      5.69913      89.3719      97.1940      115.798      126.860      330.432      384.997      918.437      2656.56      5766.56      7886.13      11486.3      26470.5     -1.00000
      506.000      799.000      70.2590      88.1378      90.4810      116.298      95.6723      91.9375      303.708      334.447      844.457      2458.35      5215.86      7585.69      10812.6      26675.8     -1.00000
      850.000      952.000      115.035      93.4831      3.30479      57.3949      98.3915      95.4855      136.276      178.665      334.214      1516.90      1085.40      7538.53      1970.37      6461.43     -1.00000
      2.00000      582.000     -158.739     -151.847     -145.334     -116.733     -105.978     -113.434      62.4801      128.390      620.749      2246.99      5031.48      7153.05      10326.8      26003.3     -1.00000
      190.000      695.000      87.3301      95.2067      94.4067      115.318      128.665      111.884      275.175      325.421      790.257      2291.98      4970.02      7198.20      10181.4      25481.1     -1.00000
      800.000      26.0000      8.91529      30.3122      9.87954      55.5636      114.983      97.2514      278.570      332.269      812.808      2346.73      4969.96      7111.73      10158.8      25858.7     -1.00000
      830.000      236.000      27.0863      3.17641      55.0348      92.0107      103.597      114.757      268.434      321.875      778.610      2353.40      4956.81      7155.97      10135.4      25846.8     -1.00000
      59.0000      683.000      64.7136      33.1377      4.74172      88.7498      109.733      99.2617      278.137      343.272      816.048      2395.74      5212.30      7399.29      10476.5      25778.9     -1.00000
      37.0000      646.000      53.6960      43.0935      22.4165      85.3546      94.0343      90.5277      63.4361      74.5420      121.856      205.808      281.209      330.844      331.167      25668.4     -1.00000
      16.0000      205.000      18.2757     -1.73118     0.973587      4.32337      3.48208      49.1795      52.1455      56.5126      94.2019      1187.45      233.281      6825.33      314.389      371.724     -1.00000
      47.0000      77.0000      24.7765      16.4149      6.15214      8.72919      21.7427     0.388881      56.6002      51.7207      83.9275      1194.71      224.400      6785.30      256.846      327.925     -1.00000
      930.000      593.000      61.5613      35.2467      91.1866      97.1978      109.582      136.510      290.328      308.977      759.682      2220.53      5522.95      7708.84      9929.80      25540.4     -1.00000
      662.000      90.0000      18.9874      6.90513      28.6875      135.980      46.9600      101.936      269.563      301.859      769.114      2326.54      4927.24      7146.50      9994.05      25566.3     -1.00000
      608.000      981.000      97.1895      100.387      94.1024      107.158      88.0627      108.741      298.263      335.152      802.523      2294.11      4903.23      7008.52      10026.0      25163.1     -1.00000
      34.0000      970.000      100.645      100.453      122.026      142.875      111.589      116.931      228.678      290.935      793.402      2260.75      4935.25      6935.46      10562.5      25686.6     -1.00000
      639.000      351.000      30.0050      29.9942      20.7875      45.8128      89.3035      106.621      264.084      286.073      717.576      2206.50      4478.03      6810.80      9039.37      24676.0     -1.00000
      46.0000      828.000      96.5892      90.6728      113.750      105.108      93.7239      120.459      261.103      317.435      759.362      2194.36      4756.65      6951.56      9897.73      25000.6     -1.00000
      956.000      110.000      1.83661      1.86799      2.77008      3.04786      9.56399      88.9100      205.242      287.574      716.274      2160.64      3889.61      6723.61      7887.16      24927.0     -1.00000
      308.000      315.000      30.2857      8.83937      28.0158      89.6260      91.7635      104.792      251.000      298.385      762.140      2227.80      4830.47      6887.42      9916.09      24938.3     -1.00000
      998.000      420.000      16.1239      3.27829      30.8247      22.6191      28.1106     0.509167      81.7962      257.050      582.262      2037.03      298.414      8188.24      367.016      17765.4     -1.00000
      5.00000      434.000     -69.2016     -65.2790     -23.1275      5.73544     -18.2533      40.1522      134.971      163.111      506.559      1719.82      3812.48      5436.78      7774.28      19559.0     -1.00000
      962.000      436.000      35.8026      85.9138      20.5239      103.803      107.941      142.983      289.015      336.376      779.746      2314.40      4908.43      7321.18      9986.19      24797.4     -1.00000
      945.000      352.000      29.9658      48.9918      20.9819      92.8833      53.2266      101.755      297.625      158.506      807.461      1956.55      5081.16      9293.76      10278.7      24769.4     -1.00000
      283.000      636.000      64.4566      86.7130      91.3058      86.9840      115.925      104.079      275.530      310.177      801.741      2317.33      4875.36      7035.10      9995.44      24973.4     -1.00000
      918.000      625.000      84.0903      88.9512      91.7566      137.159      116.064      140.801      278.997      336.664      776.719      2277.90      4787.43      6929.84      9806.36      24665.4     -1.00000
      363.000      642.000      71.1542      109.228      86.9014      99.7304      98.9660      100.794      265.365      285.554      665.347      1828.10      3906.33      5127.46      7928.73      22125.6     -1.00000
      734.000      809.000      113.910      127.902      126.561      131.669      123.979      182.934      169.343      328.837      791.833      2225.32      4544.50      7049.34      9378.42      24097.0     -1.00000
      536.000      255.000      21.0290      8.79586      14.7515      23.6714      100.492      100.447      269.046      319.679      782.209      2292.44      4757.39      6924.08      9698.63      24645.5     -1.00000
      245.000      767.000      99.7475      54.9412      89.3995      120.045      114.989      92.2399      305.228      361.045      864.562      2435.83      5132.10      7299.91      10253.7      24623.8     -1.00000
      802.000      44.0000      12.9365      51.2747      27.0204      86.1803   -0.0954800      89.3569      278.705      294.110      792.903      2314.83      4853.53      6949.53      9856.08      24174.1     -1.00000
      207.000      496.000      44.9029      19.2427      23.2218      126.934      97.4761      93.9474      270.359      324.063      799.036      2310.83      4964.59      7081.96      9996.09      24269.1     -1.00000
      689.000      808.000      100.877      86.5402      131.406      47.9115      114.376      113.997      149.232      176.656      273.793      483.525      689.178      868.320      1035.46      24554.2     -1.00000
      726.000      660.000      68.7534      89.0182      95.9789      99.9663      89.3602      101.464      112.853      121.180      201.230      1383.26      335.531      6720.93      396.119      720.444     -1.00000
      985.000      381.000      24.0329      39.8582      11.6408      58.0158      19.4777     0.128023      90.8690      90.9670      136.381      1150.51      290.222      6529.87      356.370      450.597     -1.00000
      148.000      130.000      27.1888      2.55280    -0.240984      92.0145      5.17781      48.0719      213.510      242.763      569.966      2166.00      3387.04      6199.41      6905.38      24003.1     -1.00000
      277.000      304.000      44.7437      7.09827      17.3438      91.8716      108.008      91.7825      307.426      328.179      834.935      2311.15      4887.42      7043.93      9837.45      24028.4     -1.00000
      628.000      440.000      45.4317      22.8636      15.2845     -1.46796      45.5767      46.9898      90.9434      116.643      155.439      1207.11      309.061      6516.62      388.272      451.967     -1.00000
      68.0000      9.00000      2.24182      11.1382      27.7969      42.9131      7.22306      55.8094      257.945      318.235      795.877      2491.71      4807.10      7430.34      9670.70      23869.4     -1.00000
      380.000      127.000      24.1756      58.4268      21.8244      11.2766      26.9811      41.5103      252.610      288.662      774.671      2593.35      4049.07      9678.32      7944.15      24729.8     -1.00000
      118.000      429.000      43.1978      32.0605      92.5568      94.0906      89.4305      114.205      263.084      316.118      734.630      2130.93      4596.01      6585.44      9296.55      23885.0     -1.00000
      101.000      261.000      33.7425      4.12234      24.4025      41.7868      24.7526      93.2126      262.572      304.948      746.966      2203.27      4709.49      6769.27      9557.01      23689.3     -1.00000
      772.000      325.000      26.2626      18.1512      43.7762      93.5470      93.3912      99.1047      242.481      309.365      745.835      2211.57      4685.20      6745.95      9493.03      23603.4     -1.00000
      921.000      464.000      37.2991      50.1748      57.4242      103.728      97.4182      185.698      262.822      312.039      757.940      2318.04      4879.17      7041.50      9873.98      23632.4     -1.00000
      62.0000      370.000      33.7539      3.73019    -0.519312      36.7250      88.9829      91.5893      265.545      294.907      745.402      2139.14      4525.88      6343.35      9174.03      23649.2     -1.00000
      783.000      374.000      31.9094      53.7937      32.9090      93.4360      98.9550      91.4001      267.512      125.822      753.587      1329.47      4840.39      985.537      9768.70      23570.5     -1.00000
      513.000      725.000      80.7416      41.3201      91.7549      31.1123      100.513      86.2028      255.472      325.467      775.095      1454.46      5152.93      1958.82      10508.3      23702.5     -1.00000
      353.000      935.000      126.172      100.029      98.5676      91.6702      112.151      137.424      292.896      324.939      775.643      2155.51      4516.81      6490.75      9174.56      23074.9     -1.00000
      685.000      522.000      38.7179      34.2273      92.2017      10.9022      37.5661      41.4239      93.7865      288.015      669.298      2071.17      333.440      6390.50      372.637      23356.8     -1.00000
      241.000      244.000      17.8847      56.8145      11.0436      12.2919      104.496      118.499      260.301      288.888      727.287      2173.82      4615.68      6654.61      9376.45      23228.3     -1.00000
      338.000      58.0000      5.99541      12.2859      22.5041      96.1064      88.6790      58.6650      240.083      276.094      717.872      2150.59      4489.61      6531.20      9215.30      23426.7     -1.00000
      911.000      379.000      28.2317      23.1616      9.02100      45.9824      49.8131      91.0832      258.130      303.596      751.015      2147.71      4625.18      6597.02      9372.74      23105.3     -1.00000
      72.0000      267.000      18.3480      35.1654      8.68009      96.5119      98.8375      93.2375      286.655      314.134      756.282      2228.33      4635.46      6653.44      9356.68      23036.9     -1.00000
      482.000      1012.00      114.655      95.6073      110.271      99.2565      98.5437      146.370      261.176      308.541      712.349      1973.23      4082.02      6131.00      8424.09      21856.6     -1.00000
      506.000      432.000      42.5130      52.4743      92.3344      91.8372      104.639      123.781      297.037      314.510      785.544      2423.85      4600.56      8195.40      9320.68      23000.9     -1.00000
      203.000      363.000      28.8740      21.1569      14.7634      93.3118      100.915      131.878      248.104      302.418      759.979      2256.88      4519.06      7003.62      9197.69      22832.4     -1.00000
      753.000      133.000      23.1269      4.78318      23.4424      13.0051      93.1852      126.898      258.386      279.677      713.055      2148.69      4462.75      6390.98      9142.96      23102.1     -1.00000
      877.000      835.000      91.1313      96.4018      92.7007      103.360      93.3330      90.8159      254.997      290.968      674.278      1958.34      4132.86      5932.51      8447.43      21994.0     -1.00000
      58.0000      849.000      87.2310      91.2236      95.3370      111.307      131.200      116.134      272.808      328.954      753.191      2174.93      4605.79      6732.35      9409.47      23610.0     -1.00000
      570.000      31.0000      23.0424      32.8949      33.9772      19.3846      46.9435      89.9099      256.909      298.153      733.302      2159.85      4618.64      6604.12      9278.54      22653.8     -1.00000
      371.000      413.000      35.5939      17.7651      7.98621      90.0278      87.8922      90.0607      263.960      306.106      765.051      2193.61      4660.55      6553.50      9236.04      22664.3     -1.00000
      641.000      855.000      96.4321      119.339      142.112      106.116      122.734      114.450      313.024      326.473      780.880      2107.90      5050.93      6558.40      10177.9      22987.0     -1.00000
      607.000      518.000      56.9794      12.2190      23.6749      91.1958      55.7781      46.5335      263.561      282.685      722.027      2019.02      4326.32      6109.86      8876.92      22456.0     -1.00000
      840.000      394.000      26.7907      9.39166      29.7527      116.556      94.9632      94.4735      198.442      263.785      630.644      1176.79      4154.42      987.132      8539.40      22416.1     -1.00000
      732.000      1008.00      111.859      119.119      128.613      117.928      86.7761      136.648      266.649      303.208      724.114      1981.16      4175.80      6076.22      8446.67      21613.6     -1.00000
      12.0000      30.0000     -11.4350     -1.65048      2.78066      31.4652      6.53070    -0.889600      46.1399      37.6835      114.696      1011.01      144.687      5932.09      211.244      266.491     -1.00000
      29.0000      725.000      65.5280      97.6705      91.7549      92.5244      100.513      86.2028      267.312      305.984      707.577      1995.53      4339.77      5945.30      8866.81      22130.1     -1.00000
      318.000      710.000      90.2349      94.1893      138.706      184.365      285.078      404.453      292.605      352.702      794.980      2322.62      4787.28      6530.82      9610.26      22393.3     -1.00000
      294.000      655.000      76.1730      88.6730      95.5278      111.539      89.8152      106.523      249.299      300.906      716.024      2024.54      4211.06      6201.94      8599.12      22342.2     -1.00000
      311.000      637.000      81.2920      86.7074      60.2571      114.235      120.800      96.6552      236.851      288.987      657.691      1867.89      4034.45      5854.53      8266.29      21560.4     -1.00000
      990.000      698.000      80.4401      22.5596      60.6795      95.9043      135.117      118.650      272.388      315.105      727.621      2061.62      4447.22      6266.53      8966.32      22250.3     -1.00000
      445.000      869.000      122.476      91.0143      87.7752      103.884      93.2632      95.4155      257.643      277.732      648.605      1908.25      4023.08      5876.74      8340.80      21396.8     -1.00000
      1009.00      90.0000    -0.993714      6.90513      28.6875      94.9290      46.9600      46.7200      213.781      287.425      681.832      2054.27      4178.19      6619.78      8669.20      21913.0     -1.00000
      757.000      579.000      64.7196      57.9972      58.1588      56.7481      109.300      102.769      251.354      283.414      693.517      1998.00      4273.63      5784.13      8719.50      22048.9     -1.00000
      94.0000      879.000      105.732      94.1229      92.4209      115.460      104.244      89.7536      245.177      283.473      686.468      1966.75      4139.89      5963.88      8398.25      21307.6     -1.00000
      811.000      213.000      18.3326      11.5904      36.8413      86.4142      39.5491      111.623      240.548      279.880      717.862      2075.64      4309.69      6286.57      8912.01      22422.8     -1.00000
      353.000      603.000      61.1765      47.0958     0.455780      20.6701      95.0423      84.9000      99.2406      95.6886      157.503      1132.29      309.580      6010.54      393.132      512.077     -1.00000
      705.000      581.000      57.9190      48.4132      60.6101      44.4137      42.9066      37.2970      89.2861      350.101      672.235      1021.90      360.504      5987.63      425.540      577.435     -1.00000
      987.000      345.000      28.1489      4.22080      11.4017      132.345      101.728      93.7162      261.217      299.966      717.631      2033.30      4350.52      6195.64      8779.46      21736.3     -1.00000
      746.000      402.000      41.5463      5.92440      49.2671      90.7206      100.561      131.012      258.214      296.738      703.901      2008.20      4241.04      6115.47      8740.49      22141.9     -1.00000
      28.0000      146.000      13.7405      34.8994      54.7721      90.4615      91.4598      94.0764      238.604      280.794      673.412      1961.85      4163.45      5951.42      8523.54      21808.9     -1.00000
      632.000      490.000      59.4802      32.9775      57.7378      43.1385      93.1488      93.3332      237.513      294.900      714.363      2033.05      4239.74      6251.23      8777.34      22027.3     -1.00000
      164.000      877.000      100.386      101.348      92.5960      108.298      96.6994      89.7505      270.500      297.685      700.857      1928.14      4023.27      5938.91      8264.80      21106.3     -1.00000
      202.000      885.000      106.668      57.9025      93.7407      150.210      102.731      91.3878      243.394      272.833      684.159      1499.98      4159.12      2979.68      8611.32      22001.5     -1.00000
      726.000      899.000      117.098      111.392      103.865      182.139      117.933      141.137      320.247      335.618      781.760      2150.40      4428.03      6433.76      8994.63      21956.3     -1.00000
      818.000      88.0000      20.7467      10.5646      46.1417      94.7137      90.8442      49.1070      195.204      224.867      583.490      1632.01      3417.72      4862.30      6796.24      16785.6     -1.00000
      588.000      751.000      82.6449      89.6760      86.2790      93.1141      44.8973      39.4020      110.765      99.0649      197.483      1087.34      335.728      6060.37      391.222      479.797     -1.00000
      807.000      335.000      30.2298      55.6829      58.0728      35.5205      50.6230      92.1247      191.016      237.468      585.738      1680.31      3537.12      5103.48      7289.70      18197.5     -1.00000
      360.000      849.000      101.561      121.378      126.986      111.307      131.200      116.134      274.344      320.712      788.341      2175.88      4610.21      6415.25      9172.00      21763.7     -1.00000
      324.000      72.0000     -2.53203      4.16523      6.48461      10.9705      48.7573      1.29609      70.4413      153.083      358.924      1069.20      282.831      5710.40      342.437      428.453     -1.00000
      112.000      879.000      92.9250      91.7895      113.915      115.460      104.244      118.978      250.989      304.032      683.849      1370.54      4113.73      2204.80      8364.15      21716.6     -1.00000
      735.000      924.000      112.866      55.8914      60.0063      100.736      92.6495      105.608      237.171      280.796      641.492      1795.11      3780.34      5482.09      7848.69      20138.0     -1.00000
      631.000      3.00000      2.05814      11.9664      13.6293      25.9954      15.5282      95.0316      191.873      210.296      587.659      1706.11      3693.93      5406.81      7642.24      19326.4     -1.00000
      187.000      173.000      26.1385      7.02970      17.0888      9.86861      91.0423      56.6792      88.2894      124.934      234.487      698.201      559.447      5709.76      767.137      1733.29     -1.00000
      517.000      342.000      23.6879      93.1807      55.5322      55.9681      32.9256      93.2465      201.856      223.637      497.626      1281.84      2655.94      3832.48      5196.95      12648.2     -1.00000
      261.000      450.000      38.2629      58.5283      48.0955      85.1974      104.132      91.8547      153.910      294.950      669.841      1979.82      1509.80      6177.68      2906.84      21224.5     -1.00000
      18.0000      467.000      39.1516      35.8658      40.0919      53.0033      56.0759      26.3170      101.422      157.303      349.414      1029.40      301.098      5748.04      362.885      1600.14     -1.00000
      540.000      253.000      21.4107      15.9937      22.0565      25.7834      107.338      109.837      293.761      289.033      694.124      2559.51      5219.17      5851.80      10831.3      21134.5     -1.00000
      631.000      574.000      74.6474      24.5891      94.0667      118.802      96.9871      96.4612      238.546      242.163      654.245      1843.57      4086.09      5924.61      8297.47      21256.3     -1.00000
      550.000      912.000      90.5340      124.672      96.1506      99.1933      99.4512      89.4454      250.017      281.317      653.839      1853.60      3893.18      5138.60      8251.19      20579.2     -1.00000
      281.000      681.000      87.6783      98.0745      91.4224      100.566      92.7027      91.2495      255.562      285.690      689.173      1979.56      4156.05      5987.15      8508.88      21277.1     -1.00000
