PDS_VERSION_ID         = PDS3
RECORD_TYPE            = STREAM
OBJECT                 = TEXT
  PUBLICATION_DATE     = 2017-12-05
  INTERCHANGE_FORMAT   = ASCII
  NOTE                 = "NAC hot pixel file for epoch 2014.3."
END_OBJECT             = TEXT
END

NAC hot pixel list. Lines 1 and 2 are column headings giving exposure time 
(sec) and gain state (e-/DN), respectively, of source dark images. Starting 
on line 3, first two columns indicate x and y value of hot pixel; columns 3 
through N-1 give median electron counts for each exposure bin, and last (Nth) 
column contains either the index of the exposure bin where saturation first 
occurs, or -1 if no saturation.

\begindata
      0.00000      0.00000      0.00000      10.0000      32.0000      100.000      320.000      560.000      1200.00
      0.00000      0.00000      12.8410      12.8410      30.2700      30.2700      30.2700      30.2700      30.2700
      967.000      336.000      308.376      29367.2      80108.4      125509.      125475.      125482.      125480.      3.00000
      964.000      361.000      285.485      28174.4      77503.7      125479.      125485.      125490.      125477.      3.00000
      50.0000      614.000      235.417      19311.7      55498.4      121592.      125478.      125485.      125485.      4.00000
      297.000      396.000      238.102      18104.4      49266.0      114187.      125492.      125498.      125487.      4.00000
      996.000      931.000      194.478      10716.4      34902.8      98822.9      125479.      125491.      125485.      4.00000
      481.000      99.0000      115.974      11546.9      35332.7      96852.0      125494.      125473.      125490.      4.00000
      213.000      482.000      158.074      9904.62      32619.5      92564.5      125480.      125502.      125473.      4.00000
      98.0000      87.0000      116.716      10905.9      33575.1      89534.5      125480.      125491.      125494.      4.00000
      466.000      982.000      262.361      9325.54      31010.6      86577.9      125499.      125490.      125502.      4.00000
      845.000      326.000      114.714      11043.4      35633.9      89802.4      125473.      125496.      125482.      4.00000
      919.000      767.000      194.523      9114.17      29389.8      82756.8      125480.      125486.      125484.      4.00000
      843.000      421.000      107.087      8065.61      26386.7      76700.9      125498.      125484.      125492.      4.00000
      343.000      526.000      163.464      10163.8      31318.8      81091.9      125470.      125494.      125474.      4.00000
      573.000      212.000      104.545      8675.56      26937.0      71847.4      125475.      125486.      125498.      4.00000
      37.0000      647.000      165.770      7725.41      24963.1      69748.1      125477.      125499.      125494.      4.00000
      515.000      513.000      145.804      8076.14      26237.4      69940.8      125502.      125496.      125478.      4.00000
      466.000      770.000      183.775      5776.38      21931.7      62514.2      125484.      125496.      125491.      4.00000
      859.000      357.000      74.7188      7076.67      22416.6      62445.0      125501.      125492.      125488.      4.00000
      599.000      452.000      102.967      6533.99      20709.1      59249.1      125474.      125483.      125498.      4.00000
      190.000      864.000      210.195      6412.44      21087.2      59708.0      125507.      125493.      125484.      4.00000
      967.000      351.000      116.399      5204.80      16943.7      53195.2      125498.      125494.      125473.      4.00000
      117.000      230.000      67.3017      5742.13      17914.8      51125.8      123654.      125474.      125477.      4.00000
      570.000      606.000      116.682      4378.15      14721.1      46248.1      125483.      125502.      125502.      4.00000
      345.000      147.000      68.4900      5004.96      15835.7      46656.7      123200.      125494.      125478.      4.00000
      649.000      346.000      58.3087      4192.78      14183.0      44471.5      125509.      125489.      125481.      4.00000
      967.000      337.000      75.6334      293.202      524.316      996.092      87968.4      125481.      125483.      5.00000
      3.00000      884.000      16.4669      3564.63      13317.1      42589.2      118515.      125491.      125483.      5.00000
      408.000      377.000      83.7469      5516.18      18412.4      48544.9      121267.      125480.      125480.      5.00000
      859.000      667.000      137.936      2802.74      9636.29      32161.1      106489.      125481.      125471.      5.00000
      297.000      252.000      52.6936      3665.14      11648.1      35612.4      107271.      125496.      125497.      5.00000
      242.000      621.000      128.192      3302.00      11374.3      36671.4      107824.      125482.      125479.      5.00000
      363.000      573.000      122.121      3314.49      10979.4      35028.0      106390.      125485.      125486.      5.00000
      842.000      1000.00      211.254      5115.97      16986.5      49654.1      116716.      125502.      125480.      5.00000
      142.000      23.0000      59.7747      4434.37      13853.5      40922.4      108462.      125469.      125478.      5.00000
      268.000      74.0000      67.9563      4949.84      15014.8      43177.1      109910.      125498.      125479.      5.00000
      898.000      949.000      183.197      2513.02      8935.10      30260.7      99771.1      125477.      125489.      5.00000
      149.000      356.000      74.9056      4665.75      15355.5      45185.7      111075.      125492.      125493.      5.00000
      92.0000      413.000      87.5922      6457.74      20341.3      54488.7      117882.      125480.      125493.      5.00000
      544.000      256.000      54.2695      3060.27      9796.19      30851.2      98596.6      125483.      125494.      5.00000
      546.000      747.000      144.030      2793.82      11176.8      36235.5      102878.      125491.      125492.      5.00000
      899.000      52.0000      69.1991      6957.26      20894.9      54325.9      114715.      125494.      125497.      5.00000
      910.000      336.000      57.4713      3170.16      10329.2      32475.2      97401.1      125482.      125480.      5.00000
      960.000      153.000      45.8294      3528.78      11455.0      35538.4      99238.4      125501.      125481.      5.00000
      689.000      807.000      160.843      2607.33      8977.66      29957.2      94642.1      125502.      125484.      5.00000
      25.0000      684.000      126.773      3708.72      12540.3      38076.1      101015.      125487.      125480.      5.00000
      1008.00      692.000      105.011      3181.65      10353.3      33902.2      96355.1      125490.      125500.      5.00000
      711.000      498.000      101.736      5096.27      16204.1      45262.9      102497.      125470.      125498.      5.00000
      462.000      84.0000      46.7915      3624.69      11341.0      33905.4      92225.9      125491.      125492.      5.00000
      984.000      295.000      60.8237      3441.77      11270.1      34763.0      92950.2      125482.      125485.      5.00000
      936.000      998.000      173.222      3956.60      13086.4      39046.9      96683.5      125501.      125481.      5.00000
      578.000      312.000      60.7956      4483.79      14388.6      40152.7      96444.2      125489.      125476.      5.00000
      103.000      483.000      89.4697      4167.42      13204.8      38278.5      94808.4      125501.      125477.      5.00000
      523.000      169.000      49.6624      3667.17      11648.1      34114.5      89373.2      125490.      125485.      5.00000
      581.000      381.000      56.4560      2304.16      7917.02      25537.9      81645.6      125479.      125491.      5.00000
      647.000      265.000      57.5096      3716.61      11806.0      34592.0      88415.1      125485.      125490.      5.00000
      123.000      79.0000      44.5697      3525.30      11214.4      33206.8      87092.0      125503.      125479.      5.00000
      887.000      625.000      121.672      2912.62      9926.80      31095.2      85512.2      125486.      125474.      5.00000
      634.000      10.0000      26.9471      3657.45      11076.3      32544.9      85955.5      125497.      125484.      5.00000
      549.000      905.000      183.928      2492.27      8885.38      29317.4      82819.9      125008.      125489.      5.00000
      874.000      134.000      28.8915      2429.98      7876.68      24824.6      78639.6      125480.      125503.      5.00000
      776.000      573.000      96.7981      2589.30      8871.73      28019.4      80399.1      123148.      125486.      5.00000
      707.000      781.000      150.755      2117.47      7237.40      23960.3      75743.0      124489.      125495.      5.00000
      139.000      0.00000      32.8024      2798.16      8728.23      26647.0      78015.8      122486.      125482.      6.00000
      1000.00      337.000      45.0331      2874.38      9613.47      29415.7      80640.0      122205.      125483.      6.00000
      3.00000      473.000     -82.0842      1467.62      5422.33      18729.6      61835.3      107834.      125474.      6.00000
      181.000      823.000      160.396      1539.76      5213.08      18291.8      61767.3      107518.      125497.      6.00000
      328.000      733.000      151.209      2004.79      6588.10      21711.6      67969.0      111820.      125499.      6.00000
      157.000      741.000      124.968      2315.73      7933.90      25739.8      75349.6      116873.      125502.      6.00000
      18.0000      679.000      111.863      2451.77      8671.30      27423.0      77488.4      118025.      125471.      6.00000
      491.000      588.000      115.298      2847.76      9636.13      29576.0      80547.6      120135.      125472.      6.00000
      345.000      13.0000      42.2162      2760.34      8654.50      26396.3      73962.1      114862.      125495.      6.00000
      948.000      551.000      108.424      2756.17      9402.35      29734.6      81940.3      120410.      125482.      6.00000
      481.000      100.000      17.9300      99.7546      180.489      342.906      7813.11      64914.9      125492.      6.00000
      120.000      68.0000      34.6544      2539.62      7976.61      24128.4      69819.6      109719.      125470.      6.00000
      147.000      68.0000      29.8729      2219.95      7198.77      21986.9      65095.0      105925.      125470.      6.00000
      305.000      696.000      129.031      2198.01      7252.97      23664.8      69611.9      109208.      125486.      6.00000
      47.0000      360.000      59.0235      2616.82      8495.69      26176.0      73118.1      111404.      125476.      6.00000
      964.000      360.000      27.3704      95.0637      131.846      220.378      42542.6      125469.      125476.      5.00000
      444.000      692.000      145.878      1987.06      6985.72      22653.6      67908.4      107130.      125500.      6.00000
      911.000      250.000      48.1056      2178.40      7404.11      22960.4      67272.5      106372.      125491.      6.00000
      397.000      137.000      30.9961      2225.02      7251.25      22222.9      65769.5      105162.      125492.      6.00000
      762.000      386.000      55.0671      2192.91      7465.23      23714.4      68261.3      106664.      125474.      6.00000
      487.000      880.000      153.578      2226.83      7609.27      24729.5      71047.6      108924.      125477.      6.00000
      391.000      888.000      178.375      3190.83      10733.3      32179.5      81199.8      115719.      125492.      6.00000
      134.000      705.000      153.794      2286.88      7792.10      24536.7      68933.2      106063.      125496.      6.00000
      956.000      727.000      113.492      2035.16      6977.11      22187.8      65674.8      103705.      125483.      6.00000
      744.000      647.000      114.169      2139.13      7330.98      23143.7      66906.0      104549.      125494.      6.00000
      345.000      213.000      93.1573      6042.72      18392.0      49970.5      73596.2      108418.      125497.      6.00000
      774.000      785.000      149.400      2123.68      7284.88      23162.3      66321.3      102379.      125492.      6.00000
      552.000      694.000      149.277      1894.86      6501.10      20850.4      62283.6      99216.0      125494.      6.00000
      365.000      875.000      185.386      2175.48      7810.84      25233.6      69930.7      104746.      125483.      6.00000
      236.000      340.000      60.0967      2844.37      9093.20      27476.6      71854.4      105816.      125493.      6.00000
      681.000      578.000      107.622      2001.02      7097.83      22007.7      63933.9      99690.8      125493.      6.00000
      449.000      264.000      51.9931      3270.12      10503.6      30526.2      76595.0      108503.      125492.      6.00000
      758.000      44.0000      26.2559      2275.04      7178.27      21780.4      62124.1      97750.5      125485.      6.00000
      719.000      958.000      169.592      2068.45      7225.12      24125.1      66907.1      101463.      125472.      6.00000
      858.000      355.000      35.7960      1873.67      6426.31      20619.0      61598.3      97171.3      125490.      6.00000
      19.0000      1018.00      186.040      1490.79      5467.42      18598.5      58490.3      95270.9      125490.      6.00000
      817.000      592.000      123.283      2115.26      7445.76      23625.5      65981.2      99982.5      125482.      6.00000
      588.000      243.000      34.0944      1926.42      6399.62      19762.9      58901.4      94424.3      125473.      6.00000
      76.0000      1017.00      160.840      1726.08      6393.00      21347.3      64176.1      98626.4      125485.      6.00000
      335.000      245.000      47.1682      2486.70      8104.66      24123.3      65617.4      98940.9      125472.      6.00000
      847.000      345.000      45.9116      1938.64      6634.61      21167.5      61190.1      95740.8      125484.      6.00000
      578.000      933.000      190.216      1282.57      4491.40      15329.9      50997.1      88138.1      125486.      6.00000
      996.000      930.000      132.297      113.971      139.474      285.672      6887.37      56054.5      125483.      6.00000
      947.000      122.000      28.8789      1701.57      5541.58      17203.3      53649.3      89478.8      125472.      6.00000
      226.000      7.00000      25.7574      1628.36      5291.83      16178.2      50837.0      87051.4      125482.      6.00000
      813.000      953.000      182.989      1979.26      6902.54      22352.8      63926.8      96989.4      125480.      6.00000
      794.000      306.000      38.5505      1780.92      6153.88      19307.7      57540.1      91968.0      125480.      6.00000
      651.000      420.000      55.3101      1684.21      5723.83      18301.3      55783.7      90592.7      125491.      6.00000
      795.000      80.0000      25.5626      1787.23      5895.56      18360.0      55963.3      90490.2      125483.      6.00000
      435.000      576.000      112.868      1812.34      6266.31      19896.0      58776.2      92540.5      125490.      6.00000
      738.000      875.000      166.292      1805.61      6670.14      22013.3      63672.2      95735.9      125483.      6.00000
      433.000      70.0000      25.9259      1675.20      5363.93      16743.8      51641.7      86503.9      125470.      6.00000
      173.000      263.000      31.2904      1117.70      3904.57      12048.1      36720.8      75652.2      125475.      6.00000
      566.000      215.000      56.5328      1857.35      6197.86      19029.2      56161.3      89338.2      125494.      6.00000
      218.000      785.000      151.587      1680.99      5960.37      19442.6      56798.2      89600.4      125492.      6.00000
      358.000      246.000      47.9720      2016.95      6503.73      19977.8      57031.0      89288.4      125476.      6.00000
      580.000      531.000      85.2513      1914.23      6409.18      20148.4      58189.2      90061.0      125492.      6.00000
      277.000      703.000      135.092      1410.95      5005.40      16784.5      53182.4      86339.5      125492.      6.00000
      685.000      522.000      83.2033      1227.60      4289.77      14464.7      47260.6      81897.0      125468.      6.00000
      307.000      107.000      29.3802      2010.22      6429.39      19450.8      55400.1      87561.6      125482.      6.00000
      9.00000      306.000     -4.62482      2015.46      6839.91      20803.0      57841.6      88165.0      125480.      6.00000
      232.000      45.0000      24.1606      1897.56      6058.60      18346.7      53107.1      84307.5      125486.      6.00000
      523.000      626.000      162.540      1666.03      5741.52      18097.2      53823.6      84938.5      125469.      6.00000
      907.000      703.000      135.092      1142.96      4032.16      13519.2      44624.4      78082.3      125492.      6.00000
      771.000      412.000      57.7418      1518.79      5093.58      16260.8      50312.3      81798.0      125493.      6.00000
      223.000      273.000      35.2243      1183.48      4508.30      14559.7      45801.9      78292.9      125484.      6.00000
      3.00000      19.0000     -148.409      1636.01      5652.13      17547.0      51739.6      82335.4      125487.      6.00000
      303.000      118.000      21.3944      1773.94      5831.63      17910.6      51871.2      82468.2      125477.      6.00000
      505.000      470.000      80.3901      2846.82      9241.64      27308.4      67774.2      94005.5      125479.      6.00000
      264.000      101.000      43.3899      1588.12      5244.08      16190.0      49323.5      80302.0      125493.      6.00000
      865.000      462.000      74.9615      2399.34      7951.24      23978.8      60943.0      88537.1      125495.      6.00000
      945.000      197.000      25.5917      1983.07      6522.33      19794.2      54846.8      83833.9      125485.      6.00000
      96.0000      767.000      150.208      1465.54      5143.54      16363.9      49475.7      79539.2      125484.      6.00000
      586.000      516.000      84.5512      1389.30      4662.39      15315.0      47200.7      77745.6      125476.      6.00000
      844.000      950.000      179.869      1713.81      6355.95      20874.1      57773.9      85457.7      125485.      6.00000
      693.000      236.000      41.7186      1612.23      5394.34      16928.6      50056.7      79236.9      125475.      6.00000
      349.000      126.000      28.0745      1680.63      5442.58      16815.0      49618.4      78745.5      125489.      6.00000
      417.000      152.000      33.6939      1849.89      5959.74      18110.7      51756.2      80226.6      125478.      6.00000
      387.000      799.000      158.633      1488.21      4999.34      16097.2      48715.7      77992.6      125479.      6.00000
      198.000      686.000      108.547      1452.37      5262.65      16653.6      49169.2      78248.5      125474.      6.00000
      440.000      705.000      134.802      1372.65      5005.05      16253.7      49884.9      78640.8      125496.      6.00000
      757.000      317.000      48.5822      1774.19      5741.45      17721.1      50799.0      78801.0      125484.      6.00000
      820.000      262.000      42.8593      1730.87      5886.68      18255.1      52018.4      79481.8      125493.      6.00000
      667.000      246.000      39.9186      1471.07      4943.12      15534.3      46135.7      74636.8      125476.      6.00000
      798.000      803.000      139.831      1181.77      4390.89      14509.4      45218.3      73947.0      125480.      6.00000
      654.000      305.000      49.1453      1255.93      4286.66      13900.0      43017.6      71465.6      125481.      6.00000
      109.000      497.000      80.4895      1179.08      3813.28      12638.4      41221.2      70156.1      125495.      6.00000
      774.000      911.000      164.273      1399.10      4899.00      15656.7      46391.9      73991.7      125476.      6.00000
      329.000      799.000      156.767      953.720      3286.13      11177.7      38190.7      67912.9      125479.      6.00000
      617.000      756.000      146.933      1192.35      4086.30      13437.6      43111.7      71409.8      125474.      6.00000
      555.000      944.000      173.380      1074.61      3908.03      13360.7      42737.3      70773.7      125505.      6.00000
      977.000      227.000      21.8105      1125.99      3639.26      11961.6      38762.6      67380.5      125485.      6.00000
      424.000      78.0000      32.0736      1509.51      4809.02      14766.5      43985.3      71105.4      125478.      6.00000
      173.000      726.000      143.628      1331.65      4661.55      15024.4      45239.1      71946.4      123342.      6.00000
      632.000      885.000      172.237      1166.26      4001.16      13631.1      43219.7      70487.2      125464.      6.00000
      0.00000      233.000     -284.790      1114.85      4167.64      13445.1      41334.1      68658.6      125475.      6.00000
      624.000      893.000      182.793      1233.80      4237.94      13857.8      42564.2      69788.1      124245.      6.00000
      708.000      520.000      64.0991      1161.28      3838.60      12434.1      39852.7      67425.2      125470.      6.00000
      967.000      350.000      74.4568      119.045      157.041      274.174      383.784      37595.3      125472.      6.00000
      699.000      675.000      136.492      974.846      3347.54      11313.1      36913.8      63692.0      125489.      6.00000
      372.000      83.0000      15.6654      1182.19      3750.40      11689.0      36899.0      63306.5      124246.      6.00000
      606.000      56.0000      13.2502      1154.03      3583.60      11128.5      35482.9      61573.7      125498.      6.00000
      843.000      420.000      30.0330      84.4010      172.197      355.694      801.573      34857.4      125491.      6.00000
      144.000      141.000      24.3449      1690.68      5310.12      16089.2      45811.7      71838.8      122301.     -1.00000
      730.000      65.0000      20.2233      1285.47      4236.77      13395.0      40571.7      66689.7      121066.     -1.00000
      191.000      582.000      102.808      1253.22      4303.70      14118.9      42843.8      69127.2      121479.     -1.00000
      624.000      334.000      45.1656      1381.37      4480.08      14174.8      42577.6      68481.9      120895.     -1.00000
      703.000      632.000      116.130      1179.15      3887.16      12733.8      40182.1      66391.8      120270.     -1.00000
      963.000      850.000      125.188      934.149      3231.38      10835.0      35947.1      61533.1      120318.     -1.00000
      766.000      872.000      158.933      1030.26      3764.48      11979.7      38132.8      64258.7      120109.     -1.00000
      180.000      383.000      40.9448      1097.26      3755.96      11768.7      36563.2      59292.0      119441.     -1.00000
      476.000      102.000      19.5197      1443.11      4859.82      14665.6      43098.7      68450.7      119062.     -1.00000
      500.000      704.000      128.227      995.217      3388.55      11585.3      36608.8      61967.0      119018.     -1.00000
      210.000      160.000      25.7393      1660.38      5349.62      16090.6      45182.0      70126.4      117288.     -1.00000
      584.000      74.0000      24.6091      1089.38      4246.32      12351.2      38064.2      65751.5      117175.     -1.00000
      56.0000      787.000      128.580      1117.51      4060.02      13513.8      41217.0      66273.9      118050.     -1.00000
      113.000      815.000      163.546      1126.55      4208.13      14227.0      42600.0      68105.4      118047.     -1.00000
      595.000      162.000      39.1856      1506.25      4872.00      14943.5      43601.2      64148.5      117174.     -1.00000
      996.000      932.000      159.418      370.913      714.003      1295.26      7750.48      30094.0      118138.     -1.00000
      604.000      65.0000      16.3204      1247.10      3784.04      12108.1      37362.8      61361.1      116574.     -1.00000
      968.000      320.000      44.5154      1309.57      4259.56      13021.2      39277.8      64103.6      116181.     -1.00000
      707.000      553.000      85.7443      1025.70      3436.99      11190.2      35637.0      60424.2      116191.     -1.00000
      285.000      111.000      25.3754      1572.13      5136.27      15405.6      43580.6      67866.7      115416.     -1.00000
      566.000      332.000      46.1694      1207.44      4026.06      12751.2      38216.9      62566.5      115366.     -1.00000
      202.000      885.000      166.895      816.192      2752.45      9516.55      31610.5      55775.9      115805.     -1.00000
      949.000      926.000      168.342      867.127      2991.90      10091.3      33509.4      58490.3      115600.     -1.00000
      686.000      238.000      34.6470      1622.07      5239.87      16077.3      47785.5      73531.4      114445.     -1.00000
      117.000      577.000      89.7474      932.722      3073.83      10013.0      32824.8      56842.9      114614.     -1.00000
      259.000      207.000      39.8579      1462.56      4832.72      14813.6      42979.7      67401.3      113837.     -1.00000
      319.000      409.000      56.2504      1159.08      3818.53      12138.5      37622.2      62202.1      114052.     -1.00000
      393.000      351.000      46.7621      1552.36      5082.69      15483.8      44271.7      68695.6      113920.     -1.00000
      166.000      840.000      155.965      957.945      3327.23      10810.8      34026.6      58169.3      114373.     -1.00000
      166.000      826.000      139.701      1240.04      4418.00      14646.3      42980.1      67568.3      114187.     -1.00000
      484.000      945.000      169.099      978.151      3330.71      11303.5      36771.9      61177.9      114276.     -1.00000
      826.000      781.000      131.763      975.348      3255.10      11019.3      35894.7      60632.4      114024.     -1.00000
      873.000      878.000      152.951      885.203      3134.43      11190.7      36874.6      61690.6      114038.     -1.00000
      964.000      362.000      81.6348      316.819      542.578      969.366      19771.1      62953.2      112930.     -1.00000
      974.000      1018.00      175.599      739.621      2618.73      9586.30      32635.2      56594.7      112543.     -1.00000
      802.000      40.0000      27.9181      1303.09      4415.53      13320.6      39787.1      63536.0      111321.     -1.00000
      515.000      514.000      102.153      216.868      430.031      697.196      1268.47      31395.8      125481.      6.00000
      643.000      412.000      53.5015      1263.22      4264.30      13328.3      39389.2      63462.7      111499.     -1.00000
      784.000      211.000      16.5708      1076.58      3576.95      11296.3      34989.9      58441.2      111169.     -1.00000
      553.000      635.000      113.500      843.268      2744.40      9321.81      30559.2      53533.9      111320.     -1.00000
      419.000      259.000      43.0068      1269.83      4068.76      12579.7      37968.9      61702.4      110329.     -1.00000
      483.000      824.000      137.032      935.476      3271.62      10940.8      35702.2      60186.6      110262.     -1.00000
      1019.00      474.000      62.1061      903.868      3104.00      10257.2      32901.0      56314.5      109493.     -1.00000
      445.000      920.000      171.084      1124.89      4042.57      13932.4      42187.5      66017.7      109836.     -1.00000
      793.000      30.0000      9.02730      903.801      2942.89      9304.17      29501.4      51436.9      108763.     -1.00000
      454.000      817.000      173.379      960.205      3357.41      11215.0      35142.4      58854.1      109435.     -1.00000
      12.0000      163.000      7.83658      1613.32      5086.95      15486.0      42698.2      65713.4      108426.     -1.00000
      347.000      873.000      150.941      815.753      2851.44      9806.51      33304.8      56014.4      108869.     -1.00000
      97.0000      327.000      44.0504      1106.96      3525.41      11153.6      34326.5      57293.9      107671.     -1.00000
      425.000      546.000      78.2414      904.397      3060.58      10163.6      32561.5      55313.5      107782.     -1.00000
      290.000      246.000      37.3221      1348.41      4257.70      12996.5      39038.4      62963.5      107236.     -1.00000
      5.00000      322.000     -83.7352      871.550      3226.90      10541.4      32670.9      55197.9      106557.     -1.00000
      875.000      196.000      27.9912      1380.05      4377.87      13298.1      38925.0      61303.4      106335.     -1.00000
      456.000      914.000      180.974      1233.96      4320.19      13700.4      40954.0      63839.2      106715.     -1.00000
      967.000      352.000      82.9050      181.437      308.634      542.594      1039.22      15438.6      106073.     -1.00000
      985.000      997.000      179.807      906.632      3195.05      10485.2      33731.8      56140.0      106183.     -1.00000
      507.000      210.000      40.3995      1179.88      3899.85      12183.4      36529.1      59307.4      105035.     -1.00000
      15.0000      49.0000      17.5881      1070.88      3345.96      10427.9      32313.8      54217.7      104491.     -1.00000
      695.000      515.000      75.2767      1064.44      3538.83      11742.8      35570.7      59218.3      104942.     -1.00000
      807.000      287.000      58.4870      894.782      3124.14      10166.9      32062.6      54193.6      104522.     -1.00000
      297.000      395.000      49.4576      71.1782      115.113      220.076      326.576      28879.5      103871.     -1.00000
      859.000      668.000      123.861      189.053      369.072      690.968      1414.51      3142.03      104139.     -1.00000
      346.000      588.000      92.4536      845.348      2850.26      9658.00      31313.4      54347.2      104044.     -1.00000
      247.000      466.000      57.3241      830.919      2721.20      8803.48      28845.3      50020.6      103792.     -1.00000
      268.000      491.000      134.647      822.487      2622.77      8709.95      28629.4      49752.7      103431.     -1.00000
      804.000      684.000      119.821      1257.60      4112.63      12992.5      38754.9      61325.9      103124.     -1.00000
      344.000      970.000      170.941      1087.04      3846.81      13274.7      34256.1      56201.4      103378.     -1.00000
      618.000      452.000      61.2151      906.060      3329.47      10854.9      33320.1      55135.8      102609.     -1.00000
      62.0000      626.000      134.625      1205.30      3941.07      12415.7      37052.2      59271.2      102659.     -1.00000
      845.000      863.000      310.530      793.387      2469.71      8638.06      28807.5      50645.3      102865.     -1.00000
      901.000      885.000      159.863      755.754      2562.62      8837.53      30008.0      52070.5      101834.     -1.00000
      411.000      683.000      108.050      821.253      2661.45      8852.30      29139.3      50555.7      101433.     -1.00000
      814.000      545.000      87.8664      956.710      3121.46      10254.4      32667.5      54922.1      101273.     -1.00000
      967.000      335.000      15.3603      61.9472      105.945      199.891      12360.0      25492.9      101046.     -1.00000
      496.000      951.000      184.189      947.152      3213.69      10478.4      33231.8      55355.9      101552.     -1.00000
      544.000      255.000      16.5054      301.859      876.834      2502.27      7910.34      13794.9      100697.     -1.00000
      93.0000      236.000      47.5605      869.164      2987.69      9613.42      29979.9      51380.9      100614.     -1.00000
      739.000      689.000      122.954      924.025      3066.27      10041.8      32461.6      54084.4      101062.     -1.00000
      460.000      705.000      140.496      850.915      2842.76      9305.47      30082.9      51528.4      100779.     -1.00000
      607.000      174.000      33.8115      887.282      2863.79      9138.92      28319.9      47828.0      99986.9     -1.00000
      755.000      324.000      35.0260      859.168      2897.53      9130.85      29613.0      50595.5      100032.     -1.00000
      87.0000      156.000      37.7773      989.963      3140.81      9806.92      30526.6      51527.3      99744.2     -1.00000
      527.000      84.0000      22.2426      1178.44      3865.38      11659.5      34261.9      55362.5      99658.2     -1.00000
      997.000      105.000      30.2987      1152.30      3607.93      11297.4      33650.5      55063.6      99654.1     -1.00000
      378.000      749.000      123.123      589.626      2423.74      8499.12      28413.7      47667.3      100093.     -1.00000
      480.000      948.000      168.038      993.772      3574.86      12200.1      37818.0      59955.6      100130.     -1.00000
      397.000      447.000      70.5001      1069.06      3520.24      11303.6      33974.8      55382.8      99290.5     -1.00000
      729.000      475.000      86.4157      926.040      2948.33      9701.71      30789.9      51737.8      98954.2     -1.00000
      940.000      335.000      28.6948      950.857      3134.19      10438.5      32304.2      53980.0      98760.6     -1.00000
      860.000      807.000      160.227      986.507      3465.45      11661.9      35743.1      57073.9      99066.8     -1.00000
      561.000      19.0000      4.88082      919.744      2930.64      9111.67      28340.5      48377.2      98171.4     -1.00000
      61.0000      145.000      24.6106      1013.23      3313.83      10429.5      31885.5      52830.9      97906.2     -1.00000
      771.000      894.000      156.845      1080.85      3575.61      11503.2      34834.2      56378.1      98101.9     -1.00000
      946.000      960.000      169.624      686.771      2501.33      8707.36      29587.2      51000.5      98156.4     -1.00000
      204.000      2.00000      7.49820      968.590      3003.86      9311.83      27715.3      45156.1      893.545     -1.00000
      179.000      294.000      34.6945      787.649      2741.32      9099.58      28689.5      49474.8      96880.0     -1.00000
      797.000      311.000      27.4656      1038.68      3538.27      11244.8      33899.8      55025.8      96869.3     -1.00000
      228.000      238.000      36.5273      900.916      2770.81      8618.76      27086.8      46887.7      96696.4     -1.00000
      1020.00      98.0000      26.2786      937.536      3098.27      9856.14      30344.8      50892.8      96507.3     -1.00000
      396.000      69.0000      23.4174      900.686      2865.69      9016.82      28156.6      47724.4      96148.3     -1.00000
      225.000      457.000      58.5867      793.889      2534.65      8143.81      26239.6      45752.3      96432.9     -1.00000
      89.0000      653.000      125.523      701.322      2215.06      7383.88      25168.3      44462.9      96409.1     -1.00000
      737.000      32.0000      13.5315      943.349      3073.80      9632.98      29648.0      50038.4      95022.1     -1.00000
      342.000      36.0000      28.3416      1064.95      3246.73      9905.41      30198.6      50062.6      94794.9     -1.00000
      757.000      376.000      47.3119      946.968      3088.58      9645.71      30034.3      49881.9      95129.8     -1.00000
      42.0000      261.000      24.3941      755.098      2449.55      7821.23      25613.9      44244.4      94707.4     -1.00000
      530.000      805.000      144.640      893.039      2954.81      9607.21      29594.0      49613.6      94746.2     -1.00000
      47.0000      948.000      207.289      1006.25      3331.66      11402.3      35856.0      58801.6      94853.8     -1.00000
      960.000      387.000      56.1830      966.471      3334.59      10651.1      32205.1      52806.3      94109.1     -1.00000
      333.000      40.0000      22.0070      863.819      2618.53      8116.32      25358.3      44328.6      93643.4     -1.00000
      62.0000      49.0000      17.5881      1135.26      3576.83      10893.4      32204.8      52214.4      93515.5     -1.00000
      973.000      430.000      38.2553      891.598      3040.02      9719.01      30079.2      49995.8      93822.2     -1.00000
      448.000      584.000      109.068      915.815      2957.57      9460.87      30296.2      51020.4      93966.1     -1.00000
      387.000      837.000      166.693      837.745      2835.17      8989.14      28618.1      48400.5      93725.4     -1.00000
      878.000      412.000      42.2720      722.329      2410.48      8200.87      27054.2      46651.4      93259.8     -1.00000
      672.000      486.000      75.0376      746.516      2403.83      7993.73      26115.6      45580.2      93112.0     -1.00000
      235.000      72.0000      22.3167      1081.67      3473.95      10766.2      31677.1      51463.9      92608.5     -1.00000
      1.00000      244.000     -222.631      578.565      2550.30      8495.80      27248.6      46428.1      91575.3     -1.00000
      898.000      948.000      183.858      94.3194      120.993      224.392      304.914      348.915      92169.5     -1.00000
      312.000      158.000      19.3162      941.469      2905.60      9265.95      28871.9      48416.3      91305.5     -1.00000
      409.000      469.000      60.3131      1085.06      3302.39      10565.0      31924.8      51459.1      91323.2     -1.00000
      380.000      16.0000      16.8484      997.670      3065.13      9370.83      28542.6      47643.0      90538.3     -1.00000
      592.000      399.000      48.3528      728.332      2290.14      7373.88      24548.5      43366.1      90872.8     -1.00000
      216.000      153.000      22.6985      1069.48      3453.02      10785.2      32244.8      52016.9      90520.5     -1.00000
      919.000      766.000      127.758      81.7042      116.558      206.470      315.908      15873.8      90998.7     -1.00000
      855.000      422.000      46.3310      749.886      2403.17      8247.42      28152.6      46176.7      90385.3     -1.00000
      765.000      370.000      38.0163      832.806      2807.09      9000.95      28389.2      47484.4      90306.5     -1.00000
      325.000      995.000      174.309      638.827      2128.99      7835.83      26371.8      45410.1      90826.9     -1.00000
      365.000      275.000      35.7660      721.643      2462.96      8065.54      25755.2      44344.9      89635.6     -1.00000
      205.000      308.000      50.1586      801.608      2637.48      8410.07      26789.2      45814.5      89579.1     -1.00000
      64.0000      477.000      72.1914      742.108      2371.42      7567.11      24594.5      42699.4      89369.7     -1.00000
      586.000      114.000      18.9191      919.311      2829.13      8759.52      27274.9      45998.1      88767.4     -1.00000
      576.000      320.000      57.1189      1010.76      3155.57      9815.43      29899.1      48990.2      88878.9     -1.00000
      745.000      319.000      46.4145      793.394      2579.44      8424.16      27182.3      46183.0      88779.9     -1.00000
      269.000      522.000      73.3521      834.234      2539.08      8049.37      26173.2      44788.4      88834.6     -1.00000
      604.000      508.000      74.4345      820.167      2697.76      8711.05      27182.3      45857.9      88397.8     -1.00000
      331.000      756.000      129.429      946.998      3198.50      10468.1      31559.9      50717.9      88326.2     -1.00000
      553.000      979.000      163.939      684.336      2259.65      7870.70      25696.1      44182.7      88497.4     -1.00000
      707.000      40.0000      20.6902      863.819      2776.77      8627.02      26606.1      45027.6      87370.2     -1.00000
      747.000      167.000      14.5234      845.408      2729.79      8766.37      27106.9      45516.7      87461.8     -1.00000
      255.000      8.00000      12.2736      832.234      2634.71      8045.75      24974.3      42669.9      87062.9     -1.00000
      206.000      351.000      29.7470      726.013      2314.33      7400.58      24175.4      42150.4      87374.9     -1.00000
      459.000      492.000      78.5345      647.558      2042.72      6639.43      22189.4      39570.5      85880.6     -1.00000
      843.000      422.000      49.6515      205.452      372.329      652.463      1379.13      18311.8      87217.9     -1.00000
      466.000      294.000      46.7528      864.687      2716.17      8648.10      27101.1      45291.4      87079.5     -1.00000
      476.000      340.000      39.4420      900.260      2832.01      9267.61      28465.2      46820.9      86867.3     -1.00000
      975.000      575.000      72.8809      901.523      2922.73      9434.27      29150.5      47919.8      87035.8     -1.00000
      715.000      202.000      21.4115      905.171      2950.32      9372.21      28322.9      46505.8      86191.3     -1.00000
      112.000      139.000      26.7872      891.358      2839.04      8835.82      27123.6      45634.2      86114.7     -1.00000
      705.000      164.000      25.2248      810.569      2667.01      8336.28      26003.5      43839.4      85724.1     -1.00000
      547.000      889.000      167.891      532.312      1797.89      6334.08      22103.0      40231.9      86321.9     -1.00000
      559.000      351.000      39.7489      859.101      2822.39      9331.56      29245.9      47605.1      85669.0     -1.00000
      667.000      689.000      124.163      524.422      1841.15      6677.54      22942.4      40454.6      85876.3     -1.00000
      743.000      756.000      135.880      734.436      2248.00      7856.04      25640.7      43965.6      85604.9     -1.00000
      353.000      615.000      119.273      845.498      2648.59      8372.74      26335.6      44268.4      85235.1     -1.00000
      604.000      465.000      76.1843      793.128      2599.84      8583.61      23679.3      44859.7      85039.9     -1.00000
      31.0000      274.000      35.3349      857.430      2805.24      8748.63      26934.1      44814.0      84835.6     -1.00000
      822.000      738.000      117.876      651.862      2072.57      7310.41      24324.4      42070.5      85138.4     -1.00000
      341.000      573.000      98.6587      719.579      2405.54      8196.79      26785.3      45158.9      84808.1     -1.00000
      52.0000      221.000      19.1186      716.607      2255.42      7152.61      23111.6      40136.0      84343.7     -1.00000
      377.000      986.000      177.132      736.200      2423.40      8206.53      26305.1      43976.9      84984.4     -1.00000
      461.000      921.000      157.652      583.806      1986.37      6954.32      24001.0      41816.8      84423.2     -1.00000
      144.000      995.000      184.312      789.708      2736.88      8940.24      28213.9      46444.9      84106.7     -1.00000
      941.000      993.000      169.183      570.477      1854.55      6384.49      21808.5      38997.1      84096.0     -1.00000
      71.0000      811.000      161.270      645.137      2074.05      7040.46      22977.1      39556.0      20844.8     -1.00000
      533.000      367.000      35.0717      760.914      2489.13      8167.49      25719.7      43275.3      82893.7     -1.00000
      880.000      745.000      129.557      566.844      1835.76      6427.22      21635.3      38225.5      83153.7     -1.00000
      768.000      677.000      123.048      872.498      2977.58      9800.81      29699.2      47752.8      82638.5     -1.00000
      391.000      535.000      91.8692      1419.43      4726.23      14624.2      43075.0      69194.1      81741.7     -1.00000
      326.000      567.000      104.285      794.812      2741.43      8794.55      26936.6      44194.6      81712.2     -1.00000
      22.0000      221.000      31.2160      697.270      2210.46      6990.11      22424.4      38768.7      81322.3     -1.00000
      760.000      486.000      66.5486      719.264      2370.09      7895.99      25452.6      43080.6      81527.5     -1.00000
      96.0000      524.000      67.3073      839.875      2649.41      8310.59      25322.6      42302.4      81020.0     -1.00000
      100.000      807.000      141.235      557.450      1764.39      6296.57      21236.4      37672.5      81032.4     -1.00000
      230.000      761.000      133.446      757.643      2382.35      7954.16      25542.4      42908.4      80736.7     -1.00000
      876.000      104.000      16.9335      860.960      2843.90      8850.64      26663.5      43624.3      80165.0     -1.00000
      678.000      34.0000      24.1993      1042.65      3252.30      9699.99      27141.3      45465.0      80028.7     -1.00000
      816.000      880.000      155.297      676.691      2199.36      7431.95      24693.6      41853.2      80730.2     -1.00000
      416.000      172.000      19.7561      740.717      2347.56      7726.45      23978.2      40670.3      79980.9     -1.00000
      919.000      948.000      190.189      648.633      2101.37      7032.31      23071.0      40152.4      80420.4     -1.00000
      530.000      873.000      167.309      769.624      2488.76      8199.02      24787.3      41679.7      80087.9     -1.00000
      4.00000      985.000      13.8992      660.945      2413.00      8600.73      26959.7      44458.1      80101.9     -1.00000
      701.000      371.000      34.2736      765.821      2562.59      8165.66      25413.2      42016.1      79387.6     -1.00000
      481.000      98.0000      12.2369      54.8184      118.741      206.132      578.615      22143.1      78730.0     -1.00000
      168.000      153.000      21.6238      800.081      2584.76      8133.45      24962.9      41907.3      78295.9     -1.00000
      394.000      500.000      79.3580      738.524      2334.90      7487.31      23481.0      40050.6      78491.1     -1.00000
      971.000      70.0000      27.6080      824.995      2617.63      8166.69      25207.1      41958.4      78052.6     -1.00000
      433.000      71.0000      20.3700      423.803      1214.76      3954.72      14346.1      28141.5      77934.3     -1.00000
      267.000      34.0000      8.05802      777.353      2489.09      7676.29      23659.4      39558.9      77625.7     -1.00000
      207.000      732.000      133.907      687.417      2233.32      7468.88      23834.7      40248.9      77973.2     -1.00000
      359.000      241.000      35.1458      824.307      3170.47      8898.16      24748.6      42316.8      77401.9     -1.00000
      399.000      930.000      170.281      620.422      1992.52      6913.45      23489.4      40233.3      77959.0     -1.00000
      213.000      483.000      84.6872      253.815      458.947      873.132      1860.64      21583.9      77572.3     -1.00000
      16.0000      244.000      21.1868      737.951      2328.09      7555.44      23681.4      39962.1      77349.8     -1.00000
      828.000      434.000      42.1124      563.613      1826.25      5922.72      19610.2      35124.8      76073.5     -1.00000
      702.000      163.000      14.9641      631.496      2040.39      6488.43      20858.1      36397.6      77074.6     -1.00000
      497.000      161.000      28.3906      721.441      2285.82      7211.18      22681.1      38564.5      76971.0     -1.00000
      964.000      690.000      148.829      767.877      2361.09      7887.29      24397.2      40512.2      77354.2     -1.00000
      325.000      530.000      67.6039      627.973      1935.23      6479.35      20979.3      36601.2      77183.7     -1.00000
      937.000      998.000      178.676      725.304      2339.54      7778.13      24738.1      41024.2      77535.9     -1.00000
      304.000      917.000      175.499      685.736      2129.50      7475.59      24398.6      41233.0      77254.7     -1.00000
      232.000      737.000      162.528      677.590      2123.48      7300.56      23778.3      40173.0      77094.8     -1.00000
      860.000      647.000      95.1772      717.715      2463.29      8237.26      23381.6      41089.7      76797.9     -1.00000
      501.000      448.000      43.1062      718.839      2362.04      7611.30      24126.5      40349.6      76416.9     -1.00000
      78.0000      174.000      32.4820      874.621      2833.20      8798.96      26016.4      42426.9      76186.8     -1.00000
      155.000      102.000      17.3297      854.034      2726.51      8537.95      25447.2      41683.8      75944.5     -1.00000
      265.000      270.000      45.8933      683.056      2121.96      6723.75      21782.6      37629.3      75506.6     -1.00000
      586.000      763.000      141.284      639.525      2036.82      6853.54      22580.3      38707.5      75825.2     -1.00000
      859.000      666.000      117.939      99.2456      157.499      224.978      324.135      401.787      75526.4     -1.00000
      750.000      602.000      100.606      656.477      2089.74      7146.66      22768.7      38591.7      75467.2     -1.00000
      919.000      199.000      31.8270      800.049      2490.47      7855.85      24172.5      39823.4      74896.3     -1.00000
      184.000      151.000      15.8365      624.880      2002.20      6289.43      20148.4      35306.7      74800.6     -1.00000
      831.000      59.0000      26.9219      860.731      2769.42      8683.93      25896.0      41731.0      74723.2     -1.00000
      533.000      446.000      41.4084      281.827      822.748      6464.89      20825.8      36935.7      74457.8     -1.00000
      345.000      537.000      148.909      787.650      2557.60      8202.84      25511.2      41854.3      74318.6     -1.00000
      301.000      21.0000      18.3151      853.065      2822.72      8413.75      25543.5      39537.7      73548.7     -1.00000
      540.000      708.000      131.883      645.863      1992.85      6637.13      21699.0      37003.0      73969.0     -1.00000
      1000.00      375.000      41.9266      686.377      2230.17      6992.58      21895.4      37307.8      73438.4     -1.00000
      879.000      826.000      127.566      581.259      1863.40      6182.38      20347.1      35487.5      73600.5     -1.00000
      785.000      572.000      96.0058      716.089      2389.29      7946.26      24743.2      40386.4      73286.4     -1.00000
      57.0000      35.0000      21.0734      723.178      2336.14      7146.85      21974.2      38103.8      72751.8     -1.00000
      38.0000      138.000      24.6091      664.956      2197.86      7121.36      22447.1      37615.2      72758.4     -1.00000
      704.000      185.000      23.7561      649.889      1995.12      6432.14      20461.1      35362.7      72636.2     -1.00000
      985.000      56.0000      6.22546      633.148      2062.40      6549.54      20584.3      35622.7      72494.1     -1.00000
      453.000      511.000      81.4911      640.772      1956.69      6489.57      21214.0      36465.2      72802.2     -1.00000
      587.000      458.000      46.5358      554.356      1889.85      6559.58      21393.5      36539.9      72693.2     -1.00000
      824.000      260.000      37.0599      572.950      1921.25      6109.95      19544.9      34396.7      73760.6     -1.00000
      247.000      467.000      64.1496      602.262      1783.38      5544.91      18017.4      32306.4      72636.0     -1.00000
      55.0000      405.000      32.0658      730.763      2306.48      7247.78      22503.9      37743.7      72526.0     -1.00000
      694.000      17.0000      5.19237      729.138      2301.35      7105.19      22243.9      37237.5      72179.1     -1.00000
      198.000      518.000      74.4310      598.418      1894.24      6306.99      20116.0      34760.9      72355.5     -1.00000
      380.000      1.00000      7.77619      633.540      2027.91      6323.97      19485.9      34055.3      71951.0     -1.00000
      362.000      982.000      180.753      288.827      2185.66      7726.57      20319.6      41845.7      72676.4     -1.00000
      380.000      2.00000      19.9566      595.910      1905.69      5954.21      19034.4      33458.4      71904.3     -1.00000
      343.000      917.000      181.829      603.618      1925.42      6550.88      21673.2      37256.0      72517.0     -1.00000
      103.000      813.000      156.375      647.775      1988.91      6701.19      21535.3      36550.1      72410.8     -1.00000
      748.000      369.000      44.7748      737.774      2393.55      7493.58      23659.3      38622.3      72063.4     -1.00000
      724.000      209.000      15.0080      843.397      2705.55      8383.34      24830.9      40046.6      71737.7     -1.00000
      724.000      114.000      22.9718      775.913      2459.77      7807.95      23314.0      38469.9      71570.2     -1.00000
      300.000      692.000      105.011      643.582      1934.72      6483.35      21404.4      36422.4      72003.9     -1.00000
      417.000      843.000      168.492      564.759      1733.41      6134.83      20933.1      36227.0      71789.4     -1.00000
      499.000      723.000      136.184      565.571      1704.04      5795.98      19727.0      34854.5      71675.5     -1.00000
      680.000      284.000      37.9344      680.634      2068.03      6635.60      21157.6      36005.9      71334.2     -1.00000
      88.0000      291.000      39.6022      931.528      2895.20      8906.74      24934.1      40928.9      71210.9     -1.00000
      671.000      6.00000      21.9050      824.269      2612.79      7928.40      23704.0      38691.3      70891.8     -1.00000
      815.000      1012.00      161.666      573.139      1809.96      6162.84      20430.7      35482.2      71535.3     -1.00000
      208.000      503.000      81.8057      650.418      1993.37      6352.12      20308.1      35099.5      71141.4     -1.00000
      422.000      362.000      39.0538      717.643      2305.37      7397.50      22704.9      37530.0      70806.1     -1.00000
      435.000      2.00000      13.6259      709.862      2268.51      6504.87      20900.3      34276.9      70461.1     -1.00000
      1002.00      579.000      75.3004      546.306      1633.01      5614.18      18613.5      33020.4      70883.4     -1.00000
      514.000      532.000      89.9348      562.019      1897.17      6280.57      20417.9      34671.6      70795.9     -1.00000
      242.000      194.000      29.3808      827.061      2452.86      7635.83      23095.8      38078.3      70223.9     -1.00000
      373.000      655.000      124.821      695.128      2197.79      7302.21      22799.5      37669.5      70234.0     -1.00000
      731.000      536.000      69.2723      682.464      2284.87      7254.82      22630.0      37664.5      70074.3     -1.00000
      103.000      827.000      155.205      843.474      2511.52      7945.27      23095.4      37279.0      70286.2     -1.00000
      319.000      267.000      26.9142      608.861      2121.56      6840.71      22741.0      37465.3      69828.3     -1.00000
      488.000      921.000      147.080      621.055      1993.90      6543.98      21216.5      36313.5      69944.3     -1.00000
      725.000      349.000      37.5817      585.979      1891.21      6094.49      19578.5      33821.8      69151.3     -1.00000
      168.000      851.000      160.963      591.291      1945.74      6669.16      25491.1      36399.5      69350.6     -1.00000
      627.000      61.0000      19.3676      637.651      2065.24      6470.24      20094.3      34175.5      68742.9     -1.00000
      741.000      807.000      147.554      518.557      1613.95      5418.28      18187.2      32854.9      69021.4     -1.00000
      132.000      477.000      69.1380      740.316      2341.06      7565.48      23090.7      37661.5      68371.1     -1.00000
      280.000      559.000      105.000      624.613      2018.51      6932.71      21563.2      36148.2      68283.0     -1.00000
      814.000      601.000      102.263      501.989      1611.02      5264.72      17264.4      30408.4      65264.6     -1.00000
      13.0000      316.000      20.6918      555.401      1843.22      5831.43      18573.4      32116.6      67573.6     -1.00000
      805.000      72.0000      8.07806      624.716      2013.67      6405.01      19796.9      33780.1      67276.4     -1.00000
      906.000      47.0000      11.8576      629.922      2053.03      6422.77      20218.6      34079.1      67138.0     -1.00000
      490.000      616.000      107.536      630.132      2099.72      7090.67      22799.5      38297.6      67343.9     -1.00000
      460.000      592.000      104.292      584.545      1825.55      5801.94      18989.5      32895.1      67303.7     -1.00000
      862.000      207.000      20.8660      617.419      2001.27      6348.76      20026.1      34063.5      67009.2     -1.00000
      633.000      283.000      30.5216      536.799      1736.14      5568.63      18107.4      31807.9      66905.6     -1.00000
      248.000      547.000      83.1748      534.962      1600.22      5263.48      17719.5      31260.9      67005.6     -1.00000
      204.000      956.000      185.929      674.439      2006.92      6834.85      21483.8      35953.7      67261.7     -1.00000
      947.000      376.000      41.6071      782.192      2471.40      8077.86      21861.8      35889.9      66604.5     -1.00000
      577.000      843.000      158.804      564.759      1885.19      6448.59      20873.5      34999.8      66909.0     -1.00000
      32.0000      73.0000      25.0579      850.251      2642.57      8014.26      23429.2      37629.1      66164.0     -1.00000
      203.000      639.000      99.6934      562.283      1793.65      5720.23      18439.7      32124.1      66377.2     -1.00000
      370.000      180.000      22.4929      680.936      2163.95      6957.21      21086.9      34992.4      65989.7     -1.00000
      845.000      57.0000      12.6505      656.097      2156.64      6754.57      20929.9      34789.3      65890.7     -1.00000
      981.000      743.000      111.430      571.072      1742.89      5927.01      19548.9      33693.8      66342.6     -1.00000
      811.000      964.000      154.685      456.389      1391.40      4938.53      17300.3      30583.9      66112.1     -1.00000
      37.0000      648.000      107.681      265.344      461.914      771.517      1438.03      7478.53      65735.2     -1.00000
      149.000      961.000      229.301      493.281      1445.38      5171.23      18031.0      31866.8      65918.5     -1.00000
      113.000      234.000      33.9607      586.828      1858.23      5972.18      18677.8      32152.5      65346.5     -1.00000
      579.000      981.000      186.484      467.005      1371.16      5002.22      17263.6      30700.2      65799.9     -1.00000
      751.000      60.0000      15.2453      645.448      2022.91      6324.07      19573.9      33239.1      65078.9     -1.00000
      16.0000      444.000      35.0470      584.426      1901.47      6100.98      19677.5      33493.7      65232.2     -1.00000
      55.0000      839.000      149.424      581.343      1791.08      5857.47      19730.0      33590.3      65503.9     -1.00000
      784.000      648.000      119.562      517.317      1643.20      5633.60      18649.6      32334.3      65281.9     -1.00000
      154.000      715.000      117.542      559.308      1737.95      5975.82      19085.4      33012.7      65307.5     -1.00000
      96.0000      803.000      163.244      656.102      2108.78      6841.44      21115.6      35207.2      65313.1     -1.00000
      601.000      932.000      160.404      606.595      1864.98      6331.91      20221.2      34121.9      65033.0     -1.00000
      517.000      844.000      155.228      631.074      1864.50      6218.58      20304.5      34120.1      64949.7     -1.00000
      471.000      142.000      20.0055      735.457      2352.27      7355.33      22005.0      35683.0      64216.8     -1.00000
      179.000      346.000      34.3037      625.729      1970.11      6407.13      20011.9      33659.7      64216.0     -1.00000
      375.000      759.000      139.923      490.283      1537.70      5323.61      17707.9      30980.1      64344.6     -1.00000
      929.000      814.000      141.837      628.048      2110.65      6991.68      21234.4      35034.4      64332.5     -1.00000
      942.000      96.0000      21.7646      746.882      2289.62      7168.75      21754.8      35624.9      63839.6     -1.00000
      288.000      310.000      27.1415      691.318      2177.14      7040.12      21380.3      34861.0      63903.8     -1.00000
      715.000      894.000      178.445      547.936      1628.92      5796.16      18866.7      32399.9      64194.1     -1.00000
      684.000      91.0000      28.4200      667.492      2075.17      6544.23      19878.0      33275.7      63502.2     -1.00000
      31.0000      122.000      23.9335      594.996      1875.42      5806.19      18165.6      31206.5      63494.5     -1.00000
      463.000      459.000      52.6523      546.437      1685.23      5436.45      17587.2      30802.0      63610.9     -1.00000
      895.000      34.0000      11.7214      600.095      1870.20      5850.34      18370.9      31591.0      63210.8     -1.00000
      712.000      768.000      139.160      500.257      1667.96      5502.36      18213.3      31462.5      62926.7     -1.00000
      177.000      958.000      183.863      521.634      1713.24      5855.10      19254.7      32965.3      63045.1     -1.00000
      257.000      353.000      27.2424      577.531      1771.28      5727.87      18132.3      31241.5      62580.5     -1.00000
      608.000      453.000      64.6812      576.299      1810.00      5850.20      18479.7      31349.4      62519.6     -1.00000
      777.000      92.0000      18.7380      612.317      1981.80      6227.29      19177.4      32119.2      61996.6     -1.00000
      819.000      249.000      23.2870      518.950      1663.38      5636.74      18078.9      30812.8      62002.4     -1.00000
      737.000      496.000      71.5790      580.263      1830.88      5860.07      18863.1      32000.4      62159.8     -1.00000
      874.000      280.000      32.6342      576.100      1888.35      5978.19      18799.8      31625.5      61907.5     -1.00000
      514.000      852.000      151.894      502.502      1602.31      5362.65      17747.3      30716.7      62263.6     -1.00000
      630.000      510.000      79.3776      492.552      1596.08      5275.21      16922.0      30150.0      61703.8     -1.00000
      630.000      606.000      103.310      509.590      1663.16      5623.74      18256.5      30899.4      61726.7     -1.00000
      489.000      830.000      119.141      492.583      1517.24      5167.58      17372.0      30337.3      61836.6     -1.00000
      334.000      25.0000      15.4720      623.608      2001.51      6279.75      18823.9      31485.4      61154.1     -1.00000
      827.000      817.000      149.993      467.782      1451.20      4747.80      15924.7      28371.3      61547.8     -1.00000
      803.000      749.000      123.123      582.881      1805.40      5813.15      18467.2      31500.4      61472.6     -1.00000
      956.000      9.00000      8.54454      538.445      1748.85      5488.77      17333.2      29809.3      60943.5     -1.00000
      674.000      433.000      48.4798      468.625      1463.84      4909.00      16139.4      28161.0      60834.5     -1.00000
      1000.00      228.000      28.1663      584.585      1846.02      5901.74      19044.1      31600.4      61040.3     -1.00000
      317.000      537.000      93.0983      597.730      1894.45      6017.56      19016.2      31977.5      61144.8     -1.00000
      851.000      931.000      169.156      470.770      1551.59      5085.31      16658.6      29487.0      60975.2     -1.00000
      355.000      891.000      132.007      515.826      1613.57      5290.66      17475.4      30493.9      60818.5     -1.00000
      701.000      305.000      30.2001      506.298      1604.25      5090.88      16543.1      29272.3      60433.3     -1.00000
      1022.00      681.000      94.9921      510.495      1651.40      5584.38      18099.1      30934.6      60662.9     -1.00000
      875.000      570.000      89.9862      512.097      1583.03      5145.31      16661.2      28897.1      60475.6     -1.00000
      531.000      500.000      71.1780      526.192      1632.94      5274.69      17094.6      29520.9      60427.1     -1.00000
      163.000      271.000      25.4011      603.404      1881.43      6053.21      18759.4      31339.6      60188.3     -1.00000
      277.000      25.0000      23.7191      522.318      1631.82      5113.31      16174.1      28191.1      59976.8     -1.00000
      726.000      603.000      97.4361      577.767      1831.12      5775.04      18360.2      30979.2      60232.7     -1.00000
      634.000      234.000      33.9607      530.580      1587.69      5000.66      16016.1      28465.1      59755.8     -1.00000
      566.000      807.000      167.174      556.541      1704.04      5787.00      18345.7      31219.2      60093.3     -1.00000
      873.000      466.000      63.4624      474.361      1513.38      5171.61      16958.6      29346.6      59760.4     -1.00000
      369.000      243.000      13.2060      499.848      1580.83      4994.16      16011.2      28033.3      59425.7     -1.00000
      836.000      68.0000      19.8624      531.384      1661.53      5306.82      16510.3      28700.9      59188.8     -1.00000
      995.000      163.000      14.9641      554.043      1736.60      5634.80      17701.6      29887.9      59234.7     -1.00000
      521.000      69.0000      23.4174      618.487      2014.60      6139.03      18761.5      31177.8      59155.0     -1.00000
      460.000      642.000      117.242      516.527      1686.82      5280.48      17169.7      29485.8      59433.2     -1.00000
      855.000      840.000      168.046      423.571      1298.86      4400.26      15091.5      27061.3      59497.8     -1.00000
      705.000      214.000      28.0947      487.037      1535.63      4935.47      15854.9      27719.9      59097.0     -1.00000
      102.000      655.000      118.629      496.246      1535.03      5117.08      16429.8      28983.2      59357.5     -1.00000
      132.000      518.000      74.4310      542.702      1620.59      5037.38      16154.8      28105.7      59256.5     -1.00000
      648.000      586.000      75.6484      402.650      1237.45      4967.61      16707.3      29017.6      59296.4     -1.00000
      197.000      216.000      37.0310      494.588      1546.20      4941.01      15648.4      27380.9      58634.9     -1.00000
      904.000      7.00000      8.84078      593.649      1887.45      5848.07      17880.9      30064.6      58884.3     -1.00000
      76.0000      699.000      108.844      508.049      1621.16      5244.44      17008.8      29384.3      59277.5     -1.00000
      367.000      595.000      108.516      486.933      1403.58      4646.43      15310.3      26805.5      57649.1     -1.00000
      169.000      475.000      80.9832      508.116      1530.40      4897.82      15884.1      27655.8      58835.3     -1.00000
      63.0000      21.0000      20.3391      612.501      1943.81      5987.42      17952.7      30305.5      58204.0     -1.00000
      98.0000      86.0000      14.7376      68.0049      105.263      180.206      270.049      7521.19      58113.1     -1.00000
      698.000      968.000      187.078      511.695      1571.98      5420.43      17671.4      30095.1      58478.4     -1.00000
      944.000      67.0000      14.6784      468.041      1620.27      5094.77      16087.7      27980.2      57744.3     -1.00000
      500.000      143.000      30.3984      538.105      1570.74      4928.91      15536.9      27228.6      57682.5     -1.00000
      898.000      950.000      176.103      211.759      416.632      801.973      1610.74      2192.08      58136.8     -1.00000
      147.000      776.000      158.647      597.526      1824.34      6021.61      19901.4      32957.1      57969.9     -1.00000
      454.000      764.000      138.453      446.216      1295.86      4314.87      14898.8      26577.5      57907.9     -1.00000
      956.000      719.000      113.542      480.217      1505.08      5037.50      16837.5      28639.7      57868.8     -1.00000
      1003.00      716.000      108.330      486.252      1502.11      4995.20      16628.2      28739.8      57846.8     -1.00000
      437.000      816.000      143.119      441.974      1262.92      4317.40      14983.5      26623.0      57891.7     -1.00000
      815.000      457.000      39.6877      461.041      1458.58      4993.97      16024.3      27925.3      57481.0     -1.00000
      1023.00      24.0000      3.99168      545.973      1736.32      5294.56      16350.0      28064.4      57049.2     -1.00000
      641.000      90.0000      13.1780      480.760      1535.64      4766.41      15237.8      26421.0      56790.9     -1.00000
      960.000      233.000      25.4108      535.797      1586.41      5187.73      16492.2      28445.0      56855.4     -1.00000
      108.000      548.000      82.3596      566.691      1728.70      5519.91      17347.0      29269.4      56926.5     -1.00000
      618.000      917.000      183.058      481.935      1355.09      4566.00      15327.0      27024.6      57130.5     -1.00000
      798.000      984.000      172.856      438.691      1356.07      4821.84      16029.0      28120.0      57133.4     -1.00000
      930.000      79.0000      16.3814      578.545      1768.11      5626.53      17341.0      28897.3      56575.9     -1.00000
      582.000      634.000      103.458      542.728      1676.07      5525.29      17557.1      29334.0      56775.6     -1.00000
      871.000      177.000      30.1516      495.587      1611.90      4976.01      15764.9      27188.0      56465.9     -1.00000
      64.0000      271.000      13.4386      311.122      814.322      2395.97      7553.09      13115.9      56484.8     -1.00000
      8.00000      1008.00      96.2118      374.934      1361.91      4938.52      16517.3      28115.2      56826.4     -1.00000
      351.000      352.000      27.5936      485.307      1516.96      4741.78      15448.4      27010.2      56292.7     -1.00000
      548.000      884.000      169.175      490.865      1499.12      5031.49      16290.2      28097.1      56482.4     -1.00000
      363.000      225.000      24.2383      513.835      1598.18      4775.29      15204.7      26319.8      56071.4     -1.00000
      452.000      407.000      44.3890      497.820      1552.83      5046.67      16104.1      27805.9      56061.9     -1.00000
      191.000      207.000      25.9319      583.935      1723.36      5385.48      16777.2      28495.3      55878.2     -1.00000
      532.000      195.000      26.3828      560.269      1747.22      5384.57      16811.5      28102.3      55822.6     -1.00000
      420.000      202.000      27.8164      557.684      1725.12      5368.79      16655.9      28218.3      55776.8     -1.00000
      142.000      570.000      137.359      455.063      1371.72      4481.09      14997.9      26360.1      55799.7     -1.00000
      666.000      487.000      69.4280      536.865      1612.13      5047.11      14952.8      28467.0      55716.0     -1.00000
      145.000      649.000      133.577      456.825      1390.83      4490.55      14782.3      26238.7      55770.1     -1.00000
      311.000      421.000      41.2899      510.914      1584.71      5129.01      16513.3      28048.8      55631.4     -1.00000
      65.0000      808.000      150.841      487.416      1616.06      5112.33      16652.4      28660.5      55833.0     -1.00000
      620.000      463.000      57.0426      476.173      1447.64      4767.37      15724.9      27422.8      55604.5     -1.00000
      934.000      646.000      76.5003      427.677      1320.75      4327.96      14467.4      25971.5      56171.8     -1.00000
      679.000      373.000      31.2072      467.010      1541.66      4979.44      16008.9      27611.9      55500.8     -1.00000
      766.000      378.000      43.0954      536.679      1742.12      5404.26      16943.8      28555.3      55484.8     -1.00000
      946.000      1017.00      165.862      381.979      1201.93      4254.33      14465.9      25730.4      55793.2     -1.00000
      340.000      14.0000      20.0439      596.281      1906.18      5764.74      17513.0      29138.3      55101.5     -1.00000
      44.0000      957.000      135.659      472.328      1502.34      5117.34      16683.9      28469.8      55414.7     -1.00000
      570.000      605.000      98.6438      76.3599      136.889      252.357      348.840      394.175      55200.3     -1.00000
      417.000      297.000      51.7668      515.728      1583.49      4937.85      15774.5      26418.0      55013.7     -1.00000
      427.000      586.000      86.9587      480.918      1573.63      5012.77      16086.1      26448.6      55175.6     -1.00000
      269.000      311.000      26.6380      548.560      1678.68      5304.70      16510.6      28024.4      54689.7     -1.00000
      541.000      445.000      68.0160      488.292      1432.40      4497.15      14635.1      25598.2      54674.4     -1.00000
      816.000      369.000      30.1191      470.735      1418.76      4570.88      15087.5      26101.7      54598.3     -1.00000
      486.000      402.000      48.2381      525.682      1571.12      5040.42      16289.5      27575.5      54593.5     -1.00000
      553.000      667.000      117.249      466.164      1415.84      4533.51      14736.2      25731.3      54737.2     -1.00000
      349.000      308.000      43.8280      548.378      1647.16      5276.34      16355.9      27810.5      54421.0     -1.00000
      366.000      691.000      112.622      491.309      1512.96      5044.25      16183.8      27510.9      54634.2     -1.00000
      959.000      912.000      152.774      475.518      1525.36      5348.21      17544.9      29533.2      54704.3     -1.00000
      265.000      541.000      106.763      505.482      1469.44      4680.56      16830.7      28739.7      54478.2     -1.00000
      643.000      185.000      18.5195      451.011      1473.34      4655.94      14809.2      25373.9      54167.6     -1.00000
      898.000      710.000      121.779      429.257      1344.25      4305.89      14318.3      25394.7      54451.6     -1.00000
      476.000      545.000      85.6257      484.068      1458.40      4749.53      15385.8      26892.7      54331.0     -1.00000
      36.0000      611.000      94.6954      464.658      1394.38      4357.63      14906.0      25788.2      54352.3     -1.00000
      421.000      545.000      75.5651      543.857      1747.18      5551.56      17140.6      28618.8      54236.5     -1.00000
      897.000      1003.00      164.613      414.467      1240.80      4135.03      14558.5      25771.4      54428.0     -1.00000
      341.000      130.000      23.8840      498.057      1608.48      5078.68      16023.2      27218.3      53822.3     -1.00000
      764.000      394.000      38.1570      574.685      1738.01      5569.94      16927.4      28255.1      53897.8     -1.00000
      64.0000      357.000      43.0656      574.185      1665.85      5470.67      16596.5      28037.5      53738.1     -1.00000
      544.000      257.000      34.0042      102.018      182.956      374.770      600.021      847.209      53621.0     -1.00000
      836.000      954.000      178.740      474.338      1433.08      4832.50      15876.6      27297.7      53979.9     -1.00000
      135.000      527.000      63.0517      465.273      1463.68      4775.58      15256.7      26460.2      53685.3     -1.00000
      651.000      116.000      17.2175      594.231      1864.64      5890.38      17639.7      28873.3      53382.0     -1.00000
      656.000      431.000      60.5681      525.628      1612.87      5115.36      15889.1      26918.5      53497.9     -1.00000
      587.000      104.000      16.7409      577.775      1914.34      4964.70      15419.3      26624.1      53268.8     -1.00000
      213.000      193.000      21.9222      498.893      1525.59      4744.98      15078.7      25842.7      53240.1     -1.00000
      430.000      51.0000      16.0324      568.699      1736.13      5327.77      16204.0      27439.5      53053.3     -1.00000
      594.000      443.000      35.0423      457.115      1466.63      4771.11      15485.5      26526.3      53137.5     -1.00000
      402.000      382.000      37.0378      501.479      1565.57      5055.24      15714.3      26907.9      53054.0     -1.00000
      397.000      341.000      47.4003      536.440      1550.35      4937.24      15795.2      26769.1      52973.4     -1.00000
      718.000      886.000      174.839      440.463      1334.29      4647.28      15285.7      26256.7      53213.9     -1.00000
      915.000      498.000      52.7577      487.157      1535.11      5093.98      15799.1      27409.7      52856.2     -1.00000
      213.000      481.000      55.2454      75.6139      137.246      250.222      348.580      13231.2      52747.7     -1.00000
      985.000      14.0000      8.53910      469.017      1441.56      4569.74      14436.8      25183.2      52412.2     -1.00000
      301.000      102.000     0.993119      470.333      1451.51      4474.71      14134.9      24722.6      52389.6     -1.00000
      466.000      983.000      217.171      418.018      787.107      1444.49      2759.20      26894.5      52662.3     -1.00000
      421.000      945.000      150.867      426.173      1272.42      4345.55      14526.1      25238.8      52568.7     -1.00000
      618.000      611.000      100.653      481.614      1422.62      4663.50      14956.4      25844.6      52362.8     -1.00000
      674.000      317.000      36.2446      462.490      1538.93      5046.27      15550.2      26375.7      52167.5     -1.00000
      54.0000      947.000      157.452      392.111      1234.73      4154.40      14574.0      25624.0      52291.8     -1.00000
      675.000      951.000      183.765      454.312      1328.88      4423.27      14732.7      25574.8      52231.3     -1.00000
      468.000      517.000      67.4022      467.624      1444.13      4558.64      14871.8      25634.5      51950.8     -1.00000
      401.000      599.000      96.6493      467.845      1539.58      4956.41      15545.1      26795.9      51987.4     -1.00000
      830.000      978.000      170.273      502.506      1571.76      5000.91      16276.6      27411.5      52176.2     -1.00000
      842.000      931.000      168.182      463.163      1328.63      4204.07      13779.6      24411.2      51986.0     -1.00000
      58.0000      90.0000      32.2872      516.157      1618.38      5020.46      15612.5      26387.1      51517.2     -1.00000
      188.000      370.000      48.1031      512.202      1540.36      4979.15      15628.5      26343.2      51389.2     -1.00000
      527.000      645.000      118.082      447.401      1331.59      4396.26      14297.1      25095.1      51508.0     -1.00000
      964.000      359.000      21.2246      72.6023      120.994      219.479      275.219      327.176      51278.1     -1.00000
      45.0000      536.000      69.9598      494.703      1563.22      4968.86      15503.3      26205.9      51348.2     -1.00000
      12.0000      187.000     -1.34916      424.252      1411.97      4375.57      13847.3      24038.0      51100.3     -1.00000
      642.000      131.000      12.2818      474.273      1514.85      4744.72      14787.6      25288.0      51064.5     -1.00000
      476.000      420.000      56.9483      500.405      1524.06      4643.71      15431.1      25630.8      51170.2     -1.00000
      512.000      660.000      111.448      477.306      1376.56      1444.17      15024.8      25653.4      51295.3     -1.00000
      782.000      980.000      156.229      422.447      1290.88      4420.79      14811.4      25445.0      51427.8     -1.00000
      771.000      550.000      75.9673      545.728      1674.96      5286.77      16291.7      27013.4      51086.3     -1.00000
      240.000      881.000      167.850      464.200      1388.06      4541.71      14837.3      25583.4      51187.4     -1.00000
      857.000      398.000      33.9838      485.095      1506.21      4752.16      15071.3      25725.2      50850.1     -1.00000
      154.000      877.000      157.927      416.432      1284.42      4218.70      13876.7      24420.2      50957.4     -1.00000
      944.000      744.000      132.255      525.952      1513.88      4838.85      15287.8      25761.4      50809.1     -1.00000
      658.000      835.000      151.909      408.236      1259.27      4258.30      14486.1      25359.6      50800.8     -1.00000
      219.000      272.000      40.1707      524.857      1612.32      5073.46      15569.8      26159.6      50489.5     -1.00000
      229.000      624.000      115.170      459.753      1387.05      4385.57      14108.7      24483.3      50667.0     -1.00000
      37.0000      544.000      79.1203      452.331      1445.69      4207.38      14202.2      23698.7      50515.9     -1.00000
      953.000      511.000      62.4992      393.709      1311.38      4256.62      13874.6      24229.9      50419.1     -1.00000
      783.000      617.000      98.9698      326.211      972.871      3200.43      10822.7      19548.2      50467.7     -1.00000
      302.000      331.000      31.0532      447.349      1389.35      4314.20      13937.6      24337.5      50291.9     -1.00000
      273.000      252.000      16.0040      507.692      1505.20      4745.69      14815.8      25057.7      50210.8     -1.00000
      512.000      796.000      145.263      420.570      1315.16      4251.56      14356.0      24933.5      50494.5     -1.00000
      529.000      436.000      47.8191      496.084      816.564      2227.57      7055.78      24933.9      50189.8     -1.00000
      32.0000      223.000      29.8018      771.713      2386.91      7570.81      8645.89      16366.6      52828.8     -1.00000
      834.000      758.000      129.280      384.248      1200.00      4002.15      13448.5      23901.8      50241.5     -1.00000
      689.000      808.000      147.657      220.738      376.333      661.100      1343.14      1883.18      50246.4     -1.00000
      493.000      627.000      120.021      440.998      1299.61      4257.77      13917.2      24143.2      50081.4     -1.00000
      363.000      572.000      88.2784      83.0251      140.600      218.676      308.084      385.826      50016.7     -1.00000
      453.000      128.000      33.0067      499.901      1519.14      4633.64      14434.8      24840.2      49769.9     -1.00000
      375.000      676.000      105.854      417.826      1166.14      3771.47      13105.1      23109.1      50048.2     -1.00000
      745.000      379.000      33.7717      271.978      1632.77      5032.24      15786.3      26845.7      49867.1     -1.00000
      983.000      709.000      109.703      421.994      1315.69      4310.47      14713.7      25162.1      50034.7     -1.00000
      650.000      393.000      47.2674      455.202      1380.23      4285.75      13967.0      24113.1      49724.3     -1.00000
      957.000      176.000      14.4192      487.270      1457.22      4691.99      14798.1      25023.7      49608.3     -1.00000
      392.000      1015.00      193.523      406.779      1186.49      4043.87      13854.5      24181.5      50048.1     -1.00000
      171.000      712.000      124.319      452.705      1375.20      4525.70      14674.3      25266.9      49807.7     -1.00000
      127.000      368.000      41.9881      511.115      1539.12      4695.61      14521.1      24558.8      49565.4     -1.00000
      210.000      220.000      42.3608      507.242      1549.69      4815.26      14801.1      25013.0      49448.2     -1.00000
      753.000      91.0000      17.8686      435.709      1443.59      4525.33      14240.2      24297.4      49269.8     -1.00000
      209.000      17.0000      9.13314      527.185      1547.43      4663.60      14362.5      24475.0      49211.5     -1.00000
      117.000      568.000      87.4175      415.494      1303.50      4095.32      13415.7      23601.3      49354.9     -1.00000
      576.000      165.000      20.6611      438.517      1309.92      4175.39      13295.5      23239.1      49127.1     -1.00000
      365.000      238.000      28.3163      392.465      1319.44      4280.74      13899.9      23962.4      49014.6     -1.00000
      167.000      41.0000      25.2020      513.063      1498.44      4728.81      14440.6      24552.3      48729.1     -1.00000
      894.000      182.000      20.3832      480.711      1454.83      4451.45      14014.6      24380.9      48780.0     -1.00000
      825.000      317.000      45.1193      487.813      1568.90      4863.48      15235.2      25471.5      48811.0     -1.00000
      532.000      774.000      147.653      380.304      1208.64      4105.73      13903.7      23999.5      49035.4     -1.00000
      649.000      347.000      37.0619      139.819      252.569      445.306      819.045      13854.4      125477.      6.00000
      50.0000      615.000      136.016      402.627      684.441      1194.80      2925.03      17352.2      48753.9     -1.00000
      832.000      980.000      162.560      346.480      1060.49      3502.02      12561.7      22751.2      48757.0     -1.00000
      808.000      878.000      164.803      404.075      1264.85      4233.97      13964.8      24426.5      48694.4     -1.00000
      451.000      1001.00      188.920      393.885      1138.96      3730.09      12760.5      22672.0      48732.9     -1.00000
      359.000      1004.00      191.253      448.779      1444.22      4624.17      15216.8      25774.4      48705.8     -1.00000
      920.000      777.000      131.653      415.082      1236.69      3991.74      13196.7      23280.8      48487.6     -1.00000
      403.000      6.00000      7.26701      444.194      1405.02      4452.09      13886.7      23727.5      48038.7     -1.00000
      836.000      126.000      15.1145      421.842      1368.59      4209.81      13226.4      23366.5      48062.1     -1.00000
      424.000      922.000      177.125      396.682      1174.28      3880.40      13148.6      23223.7      48386.1     -1.00000
      427.000      580.000      95.3745      414.434      1257.42      4054.73      12979.4      22702.4      48145.9     -1.00000
      74.0000      106.000      26.2127      534.293      1611.32      4869.60      14601.1      24117.1      47873.8     -1.00000
      1012.00      20.0000      15.4069      421.590      1342.27      4178.30      13367.4      23053.8      47748.9     -1.00000
      538.000      183.000      30.1384      510.155      1483.52      4537.41      14076.2      24017.7      47802.3     -1.00000
      630.000      790.000      130.163      435.472      1329.00      4521.86      14443.0      24478.5      48105.3     -1.00000
      659.000      1008.00      179.670      496.743      1306.55      4533.65      14851.9      25159.4      48188.7     -1.00000
      548.000      186.000      10.7525      477.571      1490.55      4688.08      14383.6      24156.5      47756.2     -1.00000
      132.000      959.000      193.584      448.128      1274.27      4131.30      13317.1      23277.3      48070.3     -1.00000
      150.000      341.000      46.8226      421.720      1326.41      4201.16      13466.4      23242.1      47726.2     -1.00000
      158.000      65.0000      19.8960      549.295      1660.12      4985.50      20882.8      32094.6      47559.5     -1.00000
      671.000      412.000      40.8402      461.382      1382.44      4319.03      13812.4      23712.2      47734.3     -1.00000
      675.000      332.000      37.5148      432.875      1445.33      4475.57      14101.6      23971.3      47568.2     -1.00000
      607.000      135.000      14.1599      716.208      2204.09      6902.05      21181.0      23664.0      47341.9     -1.00000
      967.000      620.000      141.906      490.517      1543.39      3959.94      12744.3      22690.8      47551.2     -1.00000
      728.000      689.000      125.202      429.957      1279.54      4194.13      13870.0      23629.6      47522.6     -1.00000
      915.000      216.000      28.6460      442.921      1408.85      4409.86      13897.2      23635.4      47184.4     -1.00000
      495.000      437.000      48.7903      414.276      1226.64      3862.08      12538.1      22253.3      47282.4     -1.00000
      828.000      435.000      43.1322      434.855      1286.48      3971.34      12497.6      22057.8      47083.9     -1.00000
      643.000      399.000      40.5280      437.123      1309.80      4257.38      13683.8      23276.6      47161.1     -1.00000
      8.00000      241.000     -37.4411      349.516      1174.41      3810.07      12393.1      21748.2      46768.6     -1.00000
      177.000      830.000      144.463      414.984      1216.75      3985.08      13229.8      23190.8      47174.5     -1.00000
      831.000      533.000      87.9178      499.516      1715.59      4775.91      16186.5      25367.4      46978.1     -1.00000
      3.00000      883.000     -12.2908     -67.6687     -39.6119      17.2895      78.9223      108.783      47121.3     -1.00000
      297.000      397.000      72.4076      262.098      470.995      844.424      4779.20      18685.2      46788.3     -1.00000
      685.000      433.000      47.2991      426.072      1320.81      4320.97      13976.7      24005.3      46792.5     -1.00000
      163.000      752.000      132.117      410.613      1265.39      4115.70      13378.8      23358.2      46934.0     -1.00000
      238.000      860.000      152.666      397.463      1177.30      3661.07      12230.2      21788.3      46881.9     -1.00000
      735.000      970.000      177.017      444.782      1271.52      4138.38      13960.0      24155.6      46910.4     -1.00000
      280.000      814.000      157.218      386.719      1091.02      3585.25      12623.6      22269.1      46720.2     -1.00000
      433.000      804.000      149.850      450.586      1278.65      4165.25      13396.3      23394.8      46706.8     -1.00000
      715.000      409.000      54.9503      441.551      1376.22      4380.99      13920.1      23808.8      46498.6     -1.00000
      678.000      265.000      36.9685      452.604      1386.72      4439.28      13941.1      23719.8      46296.7     -1.00000
      307.000      977.000      210.778      467.118      1306.39      4205.56      14099.0      24012.3      46639.7     -1.00000
      691.000      97.0000      25.3820      437.325      1370.15      4262.01      13306.4      22694.1      46162.4     -1.00000
      433.000      581.000      119.012      471.134      1406.40      4476.71      13283.4      23383.0      46381.2     -1.00000
      699.000      683.000      137.619      416.092      1246.48      3693.52      12573.6      22061.6      46423.9     -1.00000
      737.000      582.000      105.821      387.960      1231.14      3985.70      12701.5      22240.4      46359.6     -1.00000
      521.000      183.000      24.8627      464.148      1384.02      4384.10      13876.4      23582.9      46146.8     -1.00000
      239.000      362.000      57.3570      401.111      1226.42      3992.23      12964.5      22456.9      46193.3     -1.00000
      1004.00      434.000      45.2255      452.699      1346.34      4291.59      13710.5      23219.6      46215.8     -1.00000
      874.000      562.000      113.304      372.736      1146.81      3821.10      12241.0      21777.0      46227.1     -1.00000
      779.000      576.000      89.2888      422.612      1355.85      4502.72      14206.3      23613.2      46219.7     -1.00000
      294.000      932.000      154.884      431.434      1246.86      4088.10      13269.4      23052.5      46353.1     -1.00000
      140.000      897.000      175.906      381.405      1127.68      3737.30      12507.7      22100.9      46263.2     -1.00000
      137.000      754.000      128.395      405.045      1176.24      3737.35      12595.9      22225.4      46101.3     -1.00000
      805.000      354.000      34.5198      402.520      1287.48      4032.64      12988.9      22532.6      45903.2     -1.00000
      508.000      898.000      133.097      380.135      1054.36      3436.39      12263.1      21775.7      45905.3     -1.00000
      178.000      989.000      155.650      359.309      1026.39      3489.49      11656.9      21092.9      45882.8     -1.00000
      689.000      806.000      135.503      98.1758      114.420      216.898      311.682      366.823      45779.9     -1.00000
      831.000      490.000      84.4440      405.659      1247.94      3965.84      12815.9      22191.0      45497.2     -1.00000
      583.000      974.000      181.507      406.825      1168.72      3841.63      12829.2      22317.4      45685.0     -1.00000
      754.000      434.000      48.8106      411.677      1313.14      4129.77      13081.8      22523.9      45377.5     -1.00000
      340.000      293.000      36.0704      444.535      1296.65      4057.21      12630.6      21762.8      45179.1     -1.00000
      901.000      73.0000      14.8424      470.795      1474.91      4417.80      13753.7      22880.1      44885.4     -1.00000
      762.000      852.000      200.973      890.668      2967.02      9363.75      23741.3      32614.3      45036.6     -1.00000
      881.000      92.0000      4.63948      403.445      1257.32      4010.75      12651.7      21737.2      44642.6     -1.00000
      135.000      784.000      138.345      372.750      1092.42      3727.54      11931.4      21214.1      44963.6     -1.00000
      124.000      976.000      181.461      378.679      1071.68      3432.27      11715.7      20871.4      45040.5     -1.00000
      973.000      638.000      86.8253      312.485      1024.58      3402.12      11167.8      20184.7      43837.5     -1.00000
      674.000      514.000      70.5002      419.448      1317.45      4192.34      13684.4      21433.4      44793.8     -1.00000
      825.000      825.000      144.463      418.422      1240.87      3857.17      13000.9      22480.8      44874.1     -1.00000
      665.000      677.000      128.805      386.690      1194.04      3772.44      12503.0      21687.7      44786.5     -1.00000
      197.000      559.000      89.3641      409.371      1238.20      3763.20      12540.6      21824.2      44683.5     -1.00000
      831.000      303.000      40.9934      383.004      1187.97      3810.84      12325.6      21355.0      44532.7     -1.00000
      187.000      340.000      47.5488      409.522      1188.56      3770.67      12272.8      21474.5      44480.8     -1.00000
      47.0000      335.000      34.2363      468.829      1397.02      4257.04      13114.7      22270.6      44453.1     -1.00000
      297.000      838.000      464.592      436.805      1232.25      3758.86      12566.5      21915.1      44688.0     -1.00000
      817.000      387.000      26.0460      431.307      1363.24      4258.34      13428.4      22586.5      44464.7     -1.00000
      235.000      58.0000      31.9735      467.696      1376.62      4325.94      13152.7      22394.2      44280.9     -1.00000
      699.000      893.000      151.754      409.997      1267.94      4037.02      13098.6      22455.0      44619.8     -1.00000
      109.000      908.000      173.396      407.246      1103.58      3406.63      11463.4      20471.2      44611.1     -1.00000
      578.000      934.000      209.685      329.829      789.078      2148.67      7253.21      14441.9      44471.7     -1.00000
      795.000      170.000      32.6485      378.651      1120.58      3565.60      11245.3      19564.8      41725.5     -1.00000
      437.000      817.000      162.655      407.963      1205.33      3776.52      11827.0      20660.6      44281.8     -1.00000
      58.0000      589.000      98.2105      404.794      1190.19      3882.23      12422.3      21732.5      44103.0     -1.00000
      648.000      840.000      167.879      362.608      1149.76      3742.58      12341.5      21730.4      44166.1     -1.00000
      673.000      846.000      143.078      341.195      993.641      3258.98      11303.1      19984.5      44119.3     -1.00000
      345.000      146.000      22.7504      53.5062      127.886      223.295      348.103      416.205      43776.1     -1.00000
      363.000      721.000      137.352      412.619      1159.33      3731.58      11996.0      21063.7      44036.3     -1.00000
      470.000      291.000      23.8094      399.652      1238.97      3924.60      12431.2      21367.2      43787.4     -1.00000
      588.000      802.000      139.633      343.001      1057.63      3517.78      11673.0      20490.4      43961.9     -1.00000
      944.000      946.000      157.075      393.718      1124.53      3706.24      12017.6      20964.5      43944.2     -1.00000
      940.000      801.000      136.370      387.234      1167.36      3821.48      12605.8      21615.6      43844.3     -1.00000
      232.000      805.000      153.884      410.155      1215.63      3983.32      12873.0      21965.3      43726.2     -1.00000
      160.000      332.000      31.1842      420.213      1259.70      3865.76      12473.5      21496.0      43454.7     -1.00000
      202.000      776.000      148.688      399.045      1148.26      3740.33      12390.7      21308.2      43620.8     -1.00000
      459.000      237.000      24.6637      384.752      1229.56      3734.19      11969.8      20643.2      43310.5     -1.00000
      25.0000      138.000      17.2047      477.040      1387.60      4298.78      13104.1      22250.8      43223.2     -1.00000
      549.000      47.0000      11.8576      433.999      1287.16      3978.63      12302.4      21082.4      43150.7     -1.00000
      662.000      1013.00      172.967      380.351      1095.11      3671.95      12269.6      21516.9      43539.6     -1.00000
      221.000      117.000      26.6084      433.233      1372.36      4128.39      12812.7      21599.6      43114.4     -1.00000
      722.000      70.0000      15.6765      413.812      1333.36      4171.66      13259.4      22542.4      43089.0     -1.00000
      504.000      22.0000     -2.66338      373.637      1145.45      3652.78      11568.1      20224.1      42954.9     -1.00000
      466.000      769.000      159.020      80.8018      154.085      243.445      347.642      422.786      43272.8     -1.00000
      951.000      965.000      151.117      368.508      1135.32      3689.54      12340.6      21480.0      43359.0     -1.00000
      239.000      141.000      24.4085      429.689      1281.03      4103.28      12835.1      21720.2      42861.4     -1.00000
      649.000      345.000      22.8527      65.3133      127.411      213.401      315.712      753.345      42953.5     -1.00000
      531.000      270.000      36.0480      466.982      1405.25      4312.21      13004.1      23605.7      42855.3     -1.00000
      16.0000      553.000      70.6551      377.169      1153.04      3775.10      12363.9      21121.1      42971.3     -1.00000
      12.0000      288.000      17.5634      389.605      1156.84      3764.42      11954.0      20477.7      42730.2     -1.00000
      589.000      219.000      37.5983      407.375      1261.54      3999.29      12395.8      21263.5      42617.8     -1.00000
      740.000      488.000      56.2793      422.716      1267.39      3871.97      12355.7      21198.7      42560.1     -1.00000
      169.000      790.000      160.282      410.149      1179.83      3652.10      12025.9      20756.9      42696.1     -1.00000
      954.000      716.000      109.140      394.186      1166.87      3679.22      11813.3      20535.4      42580.2     -1.00000
      729.000      876.000      150.678      409.392      1144.26      3731.69      12431.3      21392.8      42629.3     -1.00000
      108.000      237.000      38.8830      410.075      1234.73      3674.59      11668.6      20310.7      42307.9     -1.00000
      362.000      884.000      171.933      371.526      1058.49      3614.81      12259.0      21099.3      42530.9     -1.00000
      758.000      526.000      81.9649      351.600      1025.75      3396.17      11148.6      19876.1      42332.2     -1.00000
      76.0000      195.000      32.2448      398.641      1148.70      3527.63      11073.7      19308.8      41028.9     -1.00000
      293.000      693.000      125.507      381.537      1208.96      3248.68      10437.9      19106.0      41373.9     -1.00000
      940.000      819.000      152.641      384.301      1198.97      3803.05      12227.7      21056.4      42447.4     -1.00000
      51.0000      722.000      115.629      384.888      1052.54      3377.03      11670.4      20100.4      42387.5     -1.00000
      291.000      273.000      33.9910      389.327      1166.02      3650.68      11406.7      19823.7      42240.6     -1.00000
      823.000      205.000      11.5675      405.337      1278.80      4225.20      13560.0      21017.0      42068.2     -1.00000
      866.000      299.000      29.0645      379.261      1137.31      3605.22      11454.1      20017.0      42085.1     -1.00000
      806.000      201.000      22.8948      470.111      1467.80      4362.26      13338.9      22049.6      42038.3     -1.00000
      343.000      527.000      78.8445      247.877      436.675      752.105      1339.84      7722.61      42060.3     -1.00000
      265.000      973.000      171.838      362.589      970.229      3176.19      10892.5      19406.8      42243.1     -1.00000
      986.000      566.000      65.8319      387.179      1101.79      3611.78      11733.9      20409.6      41900.0     -1.00000
      332.000      630.000      105.435      336.930      968.226      2990.97      9887.59      17346.6      38624.2     -1.00000
      342.000      993.000      181.844      355.236      985.415      3084.91      10663.9      19055.9      42007.4     -1.00000
      582.000      787.000      141.242      380.384      1064.80      3470.77      11208.1      19765.6      41885.8     -1.00000
      506.000      432.000      65.2675      380.515      1177.61      3807.18      11855.8      20526.6      41623.1     -1.00000
      169.000      493.000      72.9573      436.450      1291.07      4042.79      12519.8      21056.3      41560.6     -1.00000
      50.0000      613.000      86.4306      91.7604      128.743      209.823      281.934      10974.0      41575.2     -1.00000
      891.000      899.000      166.637      386.814      1130.61      3657.60      11971.2      20758.8      41557.2     -1.00000
      645.000      914.000      166.841      332.540      1056.97      3201.43      11076.5      19681.2      41559.3     -1.00000
      89.0000      698.000      105.090      391.405      1118.76      3617.42      11297.0      19805.5      41462.9     -1.00000
      120.000      134.000      30.5683      445.443      1355.72      4171.75      12617.8      21028.5      41212.5     -1.00000
      727.000      344.000      21.0386      393.371      1280.11      3969.48      12450.5      20962.9      41299.7     -1.00000
      190.000      863.000      163.397      91.0799      129.676      214.218      285.693      362.637      41506.0     -1.00000
      716.000      989.000      174.642      342.078      955.665      3204.18      10825.6      19378.4      41555.1     -1.00000
      348.000      214.000      16.6540      404.144      1230.97      3783.96      11953.5      20437.7      41188.1     -1.00000
      47.0000      551.000      81.3018      368.508      1145.78      3458.88      11054.5      19241.6      41055.2     -1.00000
      570.000      667.000      111.573      343.977      1077.96      3498.45      11853.0      20013.2      41113.1     -1.00000
      265.000      198.000      33.3731      383.945      1107.39      3492.71      11110.4      19485.4      40775.3     -1.00000
      376.000      439.000      46.4456      355.201      1023.66      3393.93      10974.7      19465.7      40875.4     -1.00000
      667.000      344.000      40.9994      415.503      1245.82      3797.24      12119.4      20570.8      40832.9     -1.00000
      806.000      581.000      87.3583      344.522      1020.40      3199.17      10566.4      18719.2      40374.8     -1.00000
      440.000      155.000      13.1063      420.568      1283.69      3919.14      12074.0      20376.3      40645.7     -1.00000
      264.000      410.000      37.2721      384.926      1139.37      3838.71      11672.0      20478.0      40743.0     -1.00000
      659.000      886.000      147.447      307.858      829.794      2538.98      8340.20      14859.7      34831.9     -1.00000
      281.000      66.0000      11.9966      418.559      1280.46      3947.58      12003.4      20306.5      40396.9     -1.00000
      752.000      516.000      89.6877      343.002      1030.57      3349.92      11115.4      19523.4      40581.2     -1.00000
      910.000      744.000      157.577      339.897      1073.92      3436.64      11480.1      19940.1      40672.1     -1.00000
      640.000      616.000      109.351      340.736      996.388      3286.92      11069.1      19494.0      40607.9     -1.00000
      665.000      862.000      150.646      326.575      998.570      3295.91      10998.1      19303.7      40682.2     -1.00000
      26.0000      620.000      94.7874      335.067      941.187      2958.52      10175.1      17965.6      39300.9     -1.00000
      423.000      769.000      152.714      348.279      1029.40      3272.09      11010.0      19239.0      40472.3     -1.00000
      785.000      970.000      180.240      330.830      936.689      3172.69      10879.5      19435.3      40558.6     -1.00000
