PDS_VERSION_ID         = PDS3
RECORD_TYPE            = STREAM
OBJECT                 = TEXT
  PUBLICATION_DATE     = 2014-02-19
  INTERCHANGE_FORMAT   = ASCII
  NOTE                 = "NAC hot pixel file for epoch 2012.6."
END_OBJECT             = TEXT
END

NAC hot pixel list. Lines 1 and 2 are column headings giving exposure time 
(sec) and gain state (e-/DN), respectively, of source dark images. Starting 
on line 3, first two columns indicate x and y value of hot pixel; columns 3 
through N-1 give median electron counts for each exposure bin, and last (Nth) 
column contains either the index of the exposure bin where saturation first 
occurs, or -1 if no saturation.

\begindata
      0.00000      0.00000      0.00000      10.0000      32.0000      100.000      320.000      560.000      1200.00
      0.00000      0.00000      12.8410      12.8410      30.2700      30.2700      30.2700      30.2700      30.2700
      343.000      526.000      442.042      40287.8      103238.      123439.      123438.      123426.      123421.      3.00000
      845.000      326.000      176.996      15605.3      48499.5      117712.      123424.      123435.      123424.      4.00000
      964.000      361.000      192.496      17876.8      51895.1      118799.      123430.      123426.      123426.      4.00000
      268.000      74.0000      198.672      16762.8      47370.5      110355.      123435.      123426.      123415.      4.00000
      996.000      931.000      214.934      10571.8      34683.7      96803.0      123425.      123435.      123405.      4.00000
      213.000      482.000      154.424      10109.1      33018.4      92851.7      123437.      123421.      123417.      4.00000
      98.0000      87.0000      110.267      9770.96      30071.7      81444.1      123434.      123436.      123436.      4.00000
      430.000      51.0000      116.849      9953.19      29964.8      77035.3      123432.      123432.      123433.      4.00000
      573.000      212.000      106.610      8861.61      27611.6      73197.5      123428.      123437.      123431.      4.00000
      37.0000      647.000      170.926      7964.45      25225.1      69961.2      123434.      123411.      123428.      4.00000
      466.000      770.000      183.842      6198.66      21973.2      63038.8      123432.      123430.      123419.      4.00000
      899.000      52.0000      97.3048      8440.53      25037.6      63468.2      123433.      123432.      123431.      4.00000
      599.000      452.000      127.722      6518.02      20675.3      58300.8      123428.      123427.      123424.      4.00000
      269.000      522.000      138.229      6199.02      19831.1      55685.9      123436.      123425.      123422.      4.00000
      967.000      351.000      69.8966      4140.00      13483.2      42513.0      123422.      123434.      123419.      4.00000
      408.000      377.000      100.097      6589.65      21105.3      49527.1      123414.      123428.      123428.      4.00000
      25.0000      684.000      156.097      4654.09      15560.7      46426.6      117219.      123413.      123422.      5.00000
      466.000      982.000      233.901      3979.61      13776.6      42484.7      113006.      123434.      123425.      5.00000
      117.000      230.000      76.5661      5687.15      17774.8      49948.6      118260.      123412.      123421.      5.00000
      523.000      169.000      57.4472      5085.51      16098.6      45732.6      114649.      123430.      123425.      5.00000
      776.000      573.000      132.222      4140.27      13737.7      41878.1      110500.      123429.      123416.      5.00000
      967.000      336.000      62.0215      4968.15      15932.3      45978.4      113459.      123424.      123423.      5.00000
      984.000      295.000      64.1411      4473.33      14226.9      42736.8      108552.      123428.      123422.      5.00000
      843.000      421.000      80.6925      3815.81      12850.6      39582.5      105792.      123416.      123429.      5.00000
      149.000      356.000      75.6725      4606.16      15216.2      44982.6      109331.      123430.      123424.      5.00000
      544.000      256.000      53.1147      3043.77      9804.99      30744.2      96227.4      123428.      123426.      5.00000
      936.000      998.000      197.918      3896.54      13311.8      41344.2      104999.      123417.      123440.      5.00000
      92.0000      413.000      101.887      6015.55      18891.9      51046.0      111829.      123422.      123423.      5.00000
      549.000      905.000      198.002      3663.51      12847.9      39978.6      103250.      123432.      123429.      5.00000
      842.000      1000.00      220.683      4131.22      13695.3      41509.2      104070.      123417.      123442.      5.00000
      910.000      336.000      71.9973      3158.67      10453.4      32665.7      96690.4      123424.      123423.      5.00000
      689.000      807.000      171.163      2629.75      9012.59      29621.9      92532.7      123428.      123419.      5.00000
      239.000      141.000      58.4538      3849.26      12313.6      36571.8      97258.7      123426.      123417.      5.00000
      242.000      621.000      151.769      2866.35      9847.58      31628.2      93184.4      123429.      123418.      5.00000
      449.000      264.000      70.1740      3827.08      12429.6      36598.2      94642.4      123419.      123427.      5.00000
      142.000      23.0000      39.9039      3677.21      11290.6      32708.7      89985.8      123402.      123399.      5.00000
      774.000      785.000      162.941      3107.87      10733.5      33278.9      91369.3      123429.      123421.      5.00000
      634.000      10.0000      37.1650      3767.49      11808.9      34639.7      90683.1      123427.      123428.      5.00000
      157.000      741.000      150.104      3155.20      10807.5      33348.7      90003.0      123438.      123434.      5.00000
      711.000      498.000      112.423      4727.47      15176.6      42345.6      96469.1      123424.      123423.      5.00000
      581.000      381.000      63.9695      2533.33      8318.26      26342.2      83498.8      123419.      123425.      5.00000
      578.000      312.000      80.0673      4824.49      14784.7      40996.8      94558.4      123430.      123419.      5.00000
      481.000      99.0000      45.1772      4402.87      13510.3      37991.1      91419.7      123419.      123414.      5.00000
      123.000      79.0000      42.6055      3604.25      11334.2      33421.8      87107.8      123430.      123430.      5.00000
      874.000      134.000      36.5181      2478.84      7997.93      25314.8      79602.0      123430.      123423.      5.00000
      285.000      111.000      49.3163      3574.66      11065.7      32340.1      84689.5      123426.      123419.      5.00000
      859.000      357.000      79.7117      4269.07      16792.3      47132.3      91002.9      123428.      123425.      5.00000
      707.000      781.000      158.935      1988.16      6891.20      22551.2      71521.8      117711.      123415.      6.00000
      282.000      25.0000      34.1981      2442.21      7814.83      24313.2      73612.1      118246.      123395.      6.00000
      147.000      68.0000      30.1940      2739.95      8791.37      26496.0      76534.6      120359.      123413.      6.00000
      343.000      527.000      192.165      439.471      803.782      1838.37      49104.4      100621.      123427.      6.00000
      181.000      823.000      177.295      1602.05      5432.80      18882.3      62408.4      108196.      123428.      6.00000
      1000.00      337.000      59.0410      2817.91      9207.97      28174.3      77933.2      117617.      123424.      6.00000
      651.000      420.000      87.1730      2209.69      7430.94      23795.8      71075.3      112574.      123431.      6.00000
      745.000      319.000      60.8633      2874.08      9321.42      28404.2      79602.5      118623.      123423.      6.00000
      3.00000      473.000     -81.5307      1435.28      5395.65      18377.2      60367.3      104308.      123429.      6.00000
      18.0000      679.000      116.577      2525.17      8752.77      27659.5      77640.5      116928.      123414.      6.00000
      1008.00      692.000      115.312      2222.92      7521.13      24050.8      72283.1      112921.      123416.      6.00000
      499.000      723.000      147.872      2177.10      7584.24      23959.2      71784.3      112109.      123422.      6.00000
      343.000      525.000      103.322      91.0070      161.828      239.553      45939.5      92534.5      123420.      6.00000
      380.000      2.00000      27.8708      1794.55      5664.81      18044.8      58064.0      101007.      123433.      6.00000
      380.000      1.00000      34.2734      1861.44      5924.41      18654.3      58756.5      101252.      123434.      6.00000
      120.000      68.0000      43.0351      2586.68      8045.45      24559.3      70481.6      109420.      123413.      6.00000
      487.000      880.000      172.466      2416.53      8505.72      26969.5      75098.4      112572.      123428.      6.00000
      305.000      696.000      110.863      2273.45      7649.80      24144.5      68962.9      107646.      123430.      6.00000
      444.000      692.000      153.260      2078.36      7256.43      23056.6      68559.6      107074.      123416.      6.00000
      345.000      213.000      63.5170      4410.94      18043.3      38577.1      72320.7      123407.      123432.      5.00000
      762.000      386.000      63.3032      2276.72      7613.23      23903.9      68347.0      105923.      123420.      6.00000
      744.000      647.000      147.446      2468.48      8450.87      24769.6      69768.4      106883.      123428.      6.00000
      462.000      84.0000      25.2909      2517.84      7995.88      24337.2      69106.9      106025.      123434.      6.00000
      681.000      578.000      123.729      2331.30      7959.73      24650.6      69803.6      106669.      123432.      6.00000
      391.000      888.000      200.635      3232.84      10806.8      31997.2      80511.0      113392.      123420.      6.00000
      956.000      727.000      166.349      2008.56      6886.14      22033.2      65020.6      101972.      123417.      6.00000
      411.000      683.000      137.100      1782.34      5842.97      19172.6      60646.4      98636.2      123421.      6.00000
      343.000      59.0000      26.3382      2366.87      7297.30      22236.1      64331.7      100800.      123420.      6.00000
      647.000      265.000      44.1594      2543.85      8251.69      25346.7      69205.9      104309.      123427.      6.00000
      758.000      44.0000      29.4336      2400.56      7532.30      22993.1      65137.2      101000.      123437.      6.00000
      552.000      694.000      157.887      2041.55      6845.72      21736.3      65894.2      101321.      123422.      6.00000
      236.000      340.000      78.1617      2817.86      9059.21      27400.3      71588.4      104997.      123428.      6.00000
      649.000      346.000      52.9247      1587.10      5280.12      17018.5      54129.6      92240.3      123423.      6.00000
      738.000      875.000      182.244      1980.07      6918.14      22358.4      66234.8      101197.      123432.      6.00000
      19.0000      1018.00      184.430      1647.89      5821.01      19536.7      60130.6      96729.6      123423.      6.00000
      900.000      403.000      58.4181      2883.16      9333.95      28771.9      68881.8      102359.      123431.      6.00000
      242.000      194.000      46.7117      2229.91      7091.34      21711.8      62551.7      97313.8      123421.      6.00000
      817.000      592.000      121.694      2287.96      7488.33      23385.0      66245.9      100078.      123428.      6.00000
      795.000      80.0000      35.2565      1902.82      6243.72      19433.5      58482.3      93939.3      123433.      6.00000
      588.000      243.000      47.5609      1986.74      6530.53      20061.0      59341.6      94598.8      123428.      6.00000
      76.0000      1017.00      208.185      1790.47      6444.06      21581.4      64220.1      98436.6      123420.      6.00000
      491.000      588.000      100.910      1977.15      6720.17      21175.0      61266.0      95605.8      123421.      6.00000
      996.000      930.000      147.142      105.828      174.706      281.091      5978.68      55480.5      123410.      6.00000
      847.000      345.000      57.7690      2047.43      6775.43      21409.0      61560.2      95474.5      123425.      6.00000
      3.00000      884.000      23.8636      1397.05      5274.72      18088.5      56372.4      91418.1      123423.      6.00000
      507.000      210.000      43.3750      2174.78      7046.89      21641.9      61861.6      94879.0      123429.      6.00000
      223.000      273.000      54.1807      1646.89      5298.73      16795.9      53427.7      88724.4      123431.      6.00000
      771.000      412.000      67.3937      1644.46      5368.87      16995.3      52973.6      88066.6      123426.      6.00000
      335.000      245.000      47.1427      2158.94      6926.62      20818.2      59442.5      92160.1      123428.      6.00000
      776.000      412.000      59.4051      2206.11      7297.81      22671.4      63280.5      94783.7      123426.      6.00000
      940.000      335.000      33.7852      1955.62      6579.38      20431.5      59052.9      91594.3      123424.      6.00000
      813.000      953.000      195.931      1915.97      6754.44      21860.8      62189.4      94129.2      123432.      6.00000
      964.000      360.000      41.8808      79.0285      150.103      246.459      4945.89      51849.9      123426.      6.00000
      844.000      950.000      195.462      2077.38      7542.26      24319.2      65757.0      96304.9      123432.      6.00000
      90.0000      431.000      54.8266      1372.48      4554.92      14655.4      47620.6      82812.2      123422.      6.00000
      139.000      0.00000      11.6443      1998.00      6104.33      18645.7      55523.7      88031.6      123434.      6.00000
      277.000      703.000      132.243      1501.26      5085.50      16982.7      53055.3      86393.3      123431.      6.00000
      580.000      531.000      90.6523      1886.34      6341.25      19979.0      57361.9      88766.6      123423.      6.00000
      578.000      933.000      214.631      1269.55      4289.58      14250.2      46987.0      81249.8      123410.      6.00000
      307.000      107.000      42.3564      2030.55      6425.13      19417.9      55511.9      86913.5      123421.      6.00000
      435.000      576.000      87.0647      1730.90      5870.51      18432.1      54247.8      85996.2      123425.      6.00000
      93.0000      236.000      46.7919      1562.51      5093.39      16004.6      49778.7      82422.6      123420.      6.00000
      358.000      246.000      53.2385      1943.82      6270.95      19021.4      54710.8      85694.9      123430.      6.00000
      9.00000      306.000      9.35751      2072.05      6944.20      21276.6      58378.7      88257.1      123432.      6.00000
      858.000      355.000      55.9025      1604.35      5416.51      17294.2      52368.8      83875.2      123425.      6.00000
      232.000      45.0000      33.8956      1907.14      6135.57      18411.2      53034.1      83990.1      123437.      6.00000
      303.000      118.000      23.5014      1886.67      6048.92      18311.9      52632.1      83206.4      123428.      6.00000
      264.000      101.000      33.8375      1629.77      5241.03      16230.1      49090.1      80315.9      123420.      6.00000
      3.00000      19.0000     -144.223      1665.69      5610.77      17455.6      51458.2      81690.6      123419.      6.00000
      617.000      756.000      150.669      1441.83      4900.09      16091.6      49709.9      80319.6      123429.      6.00000
      530.000      805.000      138.122      1461.25      4778.32      15510.8      48504.6      79181.2      123424.      6.00000
      814.000      545.000      98.3243      1521.48      5193.83      16491.6      50193.1      80213.7      123423.      6.00000
      945.000      197.000      46.9603      2028.55      6606.57      19983.8      55085.8      83522.8      123426.      6.00000
      963.000      850.000      156.859      1223.66      4188.34      13733.4      45081.9      76437.1      123417.      6.00000
      703.000      632.000      118.326      1419.98      4812.20      15590.6      48403.4      78420.1      123435.      6.00000
      693.000      236.000      39.9619      1691.47      5466.67      17133.7      50617.7      79728.9      123420.      6.00000
      505.000      470.000      93.1156      2663.00      8667.92      25318.8      63690.1      89082.2      123432.      6.00000
      514.000      852.000      168.492      1605.82      5719.53      18364.5      53199.5      81600.0      123409.      6.00000
      96.0000      767.000      147.997      1565.87      5119.54      16187.9      48708.3      78023.5      123424.      6.00000
      417.000      152.000      28.8851      1893.40      5966.68      18098.0      51537.4      79750.1      123414.      6.00000
      387.000      799.000      152.882      1562.75      5126.10      16264.0      49036.3      78152.9      123429.      6.00000
      757.000      317.000      56.2042      1797.49      5866.74      17909.9      50947.1      78638.2      123426.      6.00000
      798.000      803.000      152.817      1307.89      4548.99      15022.2      46353.2      75315.9      123428.      6.00000
      719.000      958.000      165.948      1443.73      4914.86      16450.0      49037.2      77230.4      123431.      6.00000
      708.000      520.000      106.713      1310.67      4292.57      13832.4      43537.6      72652.6      123419.      6.00000
      87.0000      156.000      33.3897      1467.18      4642.36      14513.7      43916.7      72724.6      123430.      6.00000
      667.000      246.000      45.9605      1520.23      4984.56      15553.1      46289.2      74192.6      123430.      6.00000
      109.000      497.000      84.6744      1216.14      3993.11      12809.8      41150.2      70148.5      123418.      6.00000
      774.000      911.000      172.297      1462.53      5011.07      15868.4      46980.8      74460.6      123434.      6.00000
      913.000      54.0000      26.5717      1502.91      4875.79      15302.9      45283.0      72761.9      123428.      6.00000
      632.000      885.000      174.588      1269.03      4297.64      14470.1      45155.4      72755.6      123422.      6.00000
      811.000      964.000      189.123      962.527      3312.89      11718.7      39145.9      68242.2      123423.      6.00000
      977.000      227.000      35.9246      1141.87      3744.82      12110.4      38986.6      67770.2      123418.      6.00000
      144.000      141.000      31.7519      1819.63      5634.22      17088.1      48124.1      74373.8      123406.      6.00000
      0.00000      233.000     -268.672      1139.58      4353.68      13713.0      41899.3      69043.0      123424.      6.00000
      329.000      799.000      153.279      997.259      3276.63      11017.9      36985.0      65349.7      123429.      6.00000
      570.000      606.000      105.067      1160.65      3967.80      12556.5      39804.5      66391.1      122629.     -1.00000
      345.000      13.0000      16.2793      1409.05      4433.29      13681.1      41211.0      67581.9      121802.     -1.00000
      960.000      153.000      41.3076      1483.78      4921.33      15345.1      45002.3      71280.6      121452.     -1.00000
      624.000      893.000      169.012      1296.17      4251.37      13987.3      43105.8      69968.2      122239.     -1.00000
      586.000      516.000      98.8034      1187.54      3928.93      12605.8      39456.3      65293.0      121072.     -1.00000
      168.000      851.000      165.699      1582.35      5510.58      17636.3      49709.0      75764.3      120804.     -1.00000
      173.000      726.000      144.654      1371.92      4696.48      15083.7      45029.7      71431.1      120567.     -1.00000
      103.000      483.000      77.3861      1684.99      5457.48      16601.1      46866.6      72494.9      120040.     -1.00000
      191.000      582.000      102.636      1300.80      4512.02      14392.7      43175.0      69292.1      120048.     -1.00000
      699.000      675.000      145.870      953.074      3205.68      10544.9      34390.5      59517.0      119861.     -1.00000
      685.000      522.000      105.149      908.808      3062.99      10352.7      33699.5      58501.0      119487.     -1.00000
      325.000      995.000      189.022      906.078      3288.87      11283.2      37400.5      63288.4      119995.     -1.00000
      804.000      684.000      130.415      1557.92      5198.53      16196.9      47557.0      73889.1      119588.     -1.00000
      857.000      398.000      56.5832      1625.91      5217.14      16162.0      46493.0      72045.6      118129.     -1.00000
      454.000      817.000      174.421      1177.54      4050.49      13370.7      40755.5      67459.4      118373.     -1.00000
      500.000      704.000      139.978      1014.59      3490.62      11674.0      36965.3      62065.2      117404.     -1.00000
      210.000      160.000      36.6388      1763.99      5497.02      16320.3      45507.0      70331.4      115585.     -1.00000
      553.000      635.000      116.511      946.275      3017.06      9954.78      32711.0      56618.4      116054.     -1.00000
      604.000      65.0000      28.5736      1261.80      3954.07      12409.2      37890.1      62246.1      115288.     -1.00000
      949.000      926.000      164.746      954.582      3216.26      10538.6      34666.7      59557.3      115576.     -1.00000
      873.000      878.000      173.737      904.215      3228.02      11445.7      37342.8      62474.8      115457.     -1.00000
      996.000      932.000      193.595      367.237      722.800      1296.16      7539.44      29783.5      115131.     -1.00000
      328.000      733.000      145.093      975.029      3347.64      10690.7      34281.9      59899.7      114712.     -1.00000
      484.000      945.000      190.134      1046.07      3449.78      11588.7      37589.2      62646.0      114829.     -1.00000
      875.000      196.000      39.5219      1656.81      5264.57      15976.1      44740.6      68772.2      113224.     -1.00000
      901.000      885.000      159.970      935.603      3098.32      10476.0      35037.5      59950.8      113798.     -1.00000
      225.000      457.000      75.7231      937.544      3116.98      9927.55      31547.7      54667.0      113173.     -1.00000
      618.000      452.000      70.2984      1102.37      3996.03      12559.3      37870.9      62368.0      113127.     -1.00000
      483.000      824.000      182.492      1084.25      3762.59      11928.5      37725.6      62475.8      113247.     -1.00000
      173.000      263.000      45.9862      980.743      3152.81      9660.81      29785.6      49612.8      112307.     -1.00000
      686.000      238.000      40.6550      1612.68      5240.60      16111.3      46714.0      72394.5      112207.     -1.00000
      117.000      577.000      102.472      967.669      3093.28      10025.5      32368.2      55740.1      111476.     -1.00000
      1019.00      474.000      59.8490      961.399      3307.73      10732.2      34122.9      58051.9      111336.     -1.00000
      730.000      65.0000      15.7326      1183.76      3833.85      12050.8      36607.3      60366.4      110838.     -1.00000
      425.000      546.000      93.7889      980.542      3348.63      10839.6      34400.2      57993.2      110909.     -1.00000
      826.000      781.000      133.272      963.977      3318.74      10989.5      35804.6      59856.7      110991.     -1.00000
      974.000      1018.00      173.987      801.597      2786.84      9851.82      33087.8      56925.4      111170.     -1.00000
      166.000      840.000      174.457      903.611      3163.79      10332.1      33214.1      56652.0      110746.     -1.00000
      802.000      40.0000      15.8972      1351.56      4419.47      13445.2      39743.8      63689.3      109696.     -1.00000
      555.000      944.000      197.133      906.909      3119.61      10512.4      34167.1      57740.1      110683.     -1.00000
      394.000      206.000      24.0579      1048.54      3318.01      10341.2      32429.5      55384.4      109514.     -1.00000
      939.000      375.000      33.2346      1110.22      3716.24      11919.1      37321.9      61624.3      109611.     -1.00000
      807.000      287.000      45.3817      1038.02      3496.22      11144.2      34734.3      58079.6      109396.     -1.00000
      566.000      332.000      43.5243      1148.16      3788.95      11849.4      36122.1      59418.5      108949.     -1.00000
      793.000      30.0000      15.7626      915.317      2980.46      9351.73      29681.0      51689.9      107609.     -1.00000
      5.00000      322.000     -52.0529      929.118      3341.98      10803.4      33720.5      56519.1      107532.     -1.00000
      97.0000      327.000      39.2534      1120.14      3585.10      11213.3      34476.3      57296.5      106731.     -1.00000
      290.000      246.000      48.1480      1352.58      4203.54      13121.7      39101.6      62557.1      105833.     -1.00000
      985.000      997.000      176.548      948.430      3254.20      10754.7      34125.7      56931.1      106020.     -1.00000
      471.000      142.000      30.1377      1519.32      4799.24      14773.0      42028.6      64952.5      104845.     -1.00000
      707.000      553.000      100.211      954.773      3118.69      10028.6      32179.0      54625.2      105156.     -1.00000
      142.000      502.000      123.616      1056.71      3524.56      11353.2      35161.7      57680.2      103916.     -1.00000
      584.000      74.0000      27.5849      1227.15      5334.39      12145.3      35693.8      57973.5      103435.     -1.00000
      739.000      689.000      133.728      1002.38      3213.76      10578.3      33596.7      55913.7      103980.     -1.00000
      268.000      491.000      264.040      874.638      2792.74      9108.16      29148.7      50542.7      103349.     -1.00000
      38.0000      667.000      119.268      1016.68      3483.24      11577.5      35650.2      58065.8      103173.     -1.00000
      247.000      466.000      76.1682      873.756      2892.50      8940.44      28938.7      50225.8      102892.     -1.00000
      378.000      749.000      135.169      664.036      2552.38      8615.25      27443.8      48136.7      102044.     -1.00000
      270.000      921.000      173.768      701.228      2331.10      8286.79      27943.1      49191.5      102026.     -1.00000
      729.000      475.000      60.3577      969.857      3203.56      10236.1      32209.9      53763.6      101229.     -1.00000
      845.000      863.000      339.798      843.146      2632.73      8748.78      29072.0      50789.8      101400.     -1.00000
      743.000      756.000      147.177      924.931      3137.91      10350.6      32977.8      54878.7      100736.     -1.00000
      480.000      948.000      212.348      1071.92      3756.93      12712.9      38632.4      61068.4      100880.     -1.00000
      445.000      920.000      195.702      1064.12      3598.17      12311.6      36686.9      58610.3      100827.     -1.00000
      62.0000      626.000      115.471      1224.19      3894.74      12119.6      35982.6      57307.2      99959.4     -1.00000
      496.000      951.000      181.598      1010.40      3326.73      10752.1      33448.3      55154.3      100274.     -1.00000
      755.000      324.000      52.7412      882.441      2940.22      9381.86      29604.3      50748.8      99276.3     -1.00000
      797.000      311.000      47.5323      1090.50      3701.04      11582.3      35077.4      56576.1      99108.0     -1.00000
      527.000      84.0000      19.9329      1224.87      3864.64      11752.4      34313.1      55211.0      98744.6     -1.00000
      372.000      83.0000      16.2818      919.654      2913.01      9001.38      28467.5      48976.6      98636.9     -1.00000
      347.000      873.000      160.853      919.760      3117.54      10996.6      34853.9      56896.1      99005.8     -1.00000
      299.000      38.0000      22.7364      1209.53      3609.02      11135.8      33339.8      54320.1      98106.4     -1.00000
      964.000      690.000      150.734      936.064      3093.77      9920.68      31349.3      52601.7      98525.8     -1.00000
      61.0000      145.000      33.6105      1069.36      3412.80      10637.1      32244.0      53148.9      97712.2     -1.00000
      424.000      78.0000      16.7644      1072.15      3322.66      10179.0      31124.8      51924.1      97351.6     -1.00000
      393.000      351.000      48.3193      1195.62      3858.59      11880.3      35001.4      55843.5      97342.0     -1.00000
      259.000      207.000      37.8689      1170.93      3880.35      12056.9      34889.8      56055.5      96976.2     -1.00000
      523.000      626.000      179.591      1013.54      3426.78      10752.3      33114.8      54214.5      96968.8     -1.00000
      973.000      430.000      61.3024      961.511      3185.31      10177.1      31341.5      51920.7      96308.1     -1.00000
      745.000      379.000      43.4677      1161.40      3762.61      11564.4      35071.8      57011.7      95796.9     -1.00000
      968.000      320.000      48.9705      938.270      3047.28      9752.61      29560.1      49551.0      95691.1     -1.00000
      1020.00      98.0000      14.5404      958.007      3100.59      9810.18      30276.2      50495.1      95240.9     -1.00000
      544.000      255.000      30.7001      279.080      795.103      2355.73      7116.12      12414.8      94846.2     -1.00000
      342.000      36.0000      10.9644      1054.75      3315.83      10124.2      30349.1      50360.7      94531.2     -1.00000
      768.000      677.000      142.321      1028.20      3560.55      11475.6      34493.4      54851.9      94461.8     -1.00000
      230.000      761.000      157.413      977.974      3095.41      10383.0      32355.9      52994.7      94240.9     -1.00000
      228.000      238.000      46.8184      874.617      2731.05      8392.34      26668.7      45810.3      93653.7     -1.00000
      333.000      40.0000      8.11239      853.763      2661.42      8111.15      25724.0      44447.2      93220.7     -1.00000
      607.000      174.000      41.4337      910.366      2894.36      9008.65      28349.5      47997.6      93115.7     -1.00000
      62.0000      49.0000      24.8945      1154.52      3639.05      10967.5      32254.4      52067.0      92686.6     -1.00000
      672.000      486.000      67.7863      738.069      2461.09      8001.29      26470.8      45612.3      92875.0     -1.00000
      235.000      72.0000      25.0030      1113.58      3572.23      10768.1      32050.7      51737.8      92239.3     -1.00000
      268.000      73.0000      12.4954      40.3264      113.119      190.996      327.499      28470.4      91896.3     -1.00000
      997.000      477.000      54.3666      696.240      2401.38      7796.04      25738.6      44657.9      92030.4     -1.00000
      47.0000      948.000      199.507      1029.49      3558.43      11702.9      36599.8      54356.2      92013.4     -1.00000
      197.000      16.0000      34.7724      1406.65      4364.55      13103.4      36585.0      56258.7      91048.4     -1.00000
      312.000      158.000      27.0097      942.745      3005.41      9291.46      28935.2      48482.3      90805.9     -1.00000
      198.000      728.000      148.248      714.860      2398.93      7609.88      24798.9      43203.0      91167.9     -1.00000
      1.00000      244.000     -220.222      628.428      2585.04      8467.88      27042.3      45900.3      90138.2     -1.00000
      380.000      16.0000      17.1544      1005.31      3078.88      9411.24      28564.4      47674.6      89871.6     -1.00000
      592.000      399.000      37.0687      719.222      2284.23      7385.53      24621.4      43147.2      89876.9     -1.00000
      865.000      462.000      75.0170      1150.49      3821.47      11835.4      34434.1      54028.3      89447.7     -1.00000
      604.000      508.000      79.9342      852.470      2823.01      9047.56      28109.2      46992.2      89304.4     -1.00000
      365.000      275.000      36.0703      764.522      2512.11      8106.54      25908.0      44499.3      89052.3     -1.00000
      855.000      422.000      49.0679      702.303      2340.30      7767.53      26242.7      46431.9      88543.9     -1.00000
      956.000      9.00000      20.6158      856.713      2782.78      8424.79      26987.1      45820.1      88139.7     -1.00000
      576.000      320.000      51.0904      1052.93      3203.17      9851.11      30223.6      49036.1      88117.1     -1.00000
      608.000      453.000      67.2448      909.572      2939.49      9233.98      28268.7      47200.3      88164.1     -1.00000
      553.000      979.000      182.456      714.601      2341.79      7945.08      26241.5      44841.7      88512.2     -1.00000
      747.000      167.000      32.2187      862.009      2796.84      8838.06      27330.4      45594.2      87144.5     -1.00000
      387.000      837.000      172.061      811.541      2576.15      8100.85      25956.2      44351.3      87478.6     -1.00000
      466.000      294.000      53.7989      883.566      2861.13      8841.77      27231.5      45523.5      86585.4     -1.00000
      975.000      575.000      77.6449      949.749      2973.79      9561.01      29403.2      48191.2      86841.0     -1.00000
      255.000      8.00000      12.9968      840.313      2624.09      8047.56      24946.5      42549.5      85986.0     -1.00000
      476.000      340.000      52.4796      919.249      2917.52      9357.24      28488.8      46880.0      85862.4     -1.00000
      43.0000      630.000      118.621      638.763      2085.18      6665.19      22932.8      40655.0      85833.7     -1.00000
      268.000      75.0000      43.4185      79.5530      161.131      342.620      3580.02      24234.7      85303.4     -1.00000
      705.000      164.000      30.1237      816.006      2709.88      8329.68      26150.0      43934.7      85287.2     -1.00000
      707.000      40.0000      15.8972      853.763      2730.81      8413.29      25996.2      43923.3      84894.9     -1.00000
      515.000      513.000      85.1382      814.376      2652.50      8369.32      26104.4      44162.1      85265.9     -1.00000
      830.000      978.000      216.890      941.500      2904.79      9801.47      30375.4      48941.5      85663.3     -1.00000
      667.000      689.000      140.246      543.773      1963.09      6734.03      22884.9      40285.0      84720.1     -1.00000
      760.000      486.000      65.3631      776.482      2544.23      8351.28      26543.0      44679.8      84521.4     -1.00000
      117.000      893.000      191.635      706.414      2175.98      7056.76      23419.4      40888.8      84731.9     -1.00000
      198.000      686.000      148.531      860.312      2797.38      8795.42      26921.6      44852.4      83985.8     -1.00000
      144.000      995.000      228.305      848.294      2874.39      9154.17      28504.1      46596.9      84095.0     -1.00000
      916.000      194.000      21.0296      696.542      2176.62      7131.29      23038.1      40206.1      83206.0     -1.00000
      326.000      567.000      92.1527      881.274      2872.63      9070.23      27738.2      45729.7      83493.8     -1.00000
      88.0000      291.000      53.6154      1145.65      3684.04      11304.4      32170.9      49826.4      83238.1     -1.00000
      416.000      172.000      21.4819      869.222      2802.93      8952.29      27305.5      45016.3      83042.0     -1.00000
      428.000      800.000      142.330      773.877      2426.44      7968.13      25630.3      43570.9      83326.2     -1.00000
      828.000      434.000      66.6640      615.714      2036.39      6646.79      21799.7      38534.3      82840.8     -1.00000
      453.000      511.000      80.5464      739.988      2397.08      7730.32      25047.5      42554.6      82700.2     -1.00000
      195.000      419.000      59.7534      751.614      2371.54      7507.40      23882.0      41186.4      82536.8     -1.00000
      353.000      615.000      116.582      788.816      2512.70      7790.88      24458.1      41802.0      82560.0     -1.00000
      941.000      993.000      156.658      585.766      1849.23      6406.87      21993.0      38840.7      82789.7     -1.00000
      205.000      308.000      40.7116      741.034      2440.89      7763.70      24628.5      41742.8      82055.7     -1.00000
      587.000      777.000      159.777      572.087      1955.96      6641.95      22405.9      39223.8      82359.8     -1.00000
      402.000      382.000      54.7187      920.298      2909.83      8944.99      27244.4      44981.4      81667.5     -1.00000
      213.000      483.000      101.749      257.022      452.140      810.343      1875.67      23457.8      81194.5     -1.00000
      16.0000      444.000      65.3187      787.945      2633.46      8180.66      25620.5      42997.8      81039.2     -1.00000
      737.000      496.000      77.1275      792.238      2537.71      8091.02      25690.8      43107.4      80950.1     -1.00000
      397.000      447.000      64.6035      830.226      2641.92      8420.33      25938.1      42879.4      80528.7     -1.00000
      359.000      241.000      32.7298      942.819      2892.70      8812.54      27371.2      46457.3      80126.3     -1.00000
      919.000      199.000      30.1738      834.780      2734.12      8600.19      25436.7      43337.7      79880.7     -1.00000
      816.000      880.000      163.185      663.733      2201.45      7394.18      24393.2      41527.3      80302.0     -1.00000
      971.000      70.0000      18.1512      864.022      2753.64      8568.47      25869.0      42874.5      78920.4     -1.00000
      208.000      503.000      81.8240      731.920      2298.78      7180.70      22885.2      39379.0      79093.1     -1.00000
      880.000      745.000      132.325      586.379      1852.30      6294.38      20831.1      36844.7      79205.4     -1.00000
      78.0000      174.000      32.0190      966.580      3073.60      9423.04      27818.7      44566.0      78635.2     -1.00000
      701.000      371.000      47.9704      808.064      2590.47      8243.52      25356.6      42064.2      78659.3     -1.00000
      394.000      500.000      81.9010      760.744      2489.74      7624.64      24125.0      40739.2      78724.0     -1.00000
      919.000      948.000      172.433      621.972      2071.03      6851.73      22905.9      39638.0      78790.6     -1.00000
      273.000      252.000      38.5342      831.052      2613.44      8069.68      24829.8      41442.4      78188.9     -1.00000
      207.000      732.000      144.776      711.590      2319.70      7595.35      24176.6      40890.8      78356.8     -1.00000
      304.000      917.000      191.422      706.106      2321.34      7776.80      24964.4      42005.0      78078.2     -1.00000
      4.00000      985.000      33.2728      631.533      2428.85      8487.81      26469.9      43184.7      78066.6     -1.00000
      267.000      34.0000      24.7426      799.934      2519.40      7743.39      23652.1      39688.4      77086.8     -1.00000
      715.000      202.000      41.6801      821.840      2682.32      8298.35      24821.7      41198.3      77148.2     -1.00000
      59.0000      749.000      136.845      579.626      1863.33      6096.38      20254.4      35885.7      76896.2     -1.00000
      937.000      998.000      193.486      760.955      2405.38      7926.38      24953.8      41365.2      76971.4     -1.00000
      232.000      737.000      145.376      733.173      2346.45      7520.58      23931.2      40281.6      76616.4     -1.00000
      103.000      813.000      173.090      701.504      2176.73      7229.51      23082.5      38999.9      76529.5     -1.00000
      501.000      448.000      59.5737      743.672      2400.60      7548.04      24147.8      40368.3      76225.0     -1.00000
      155.000      102.000      31.4824      871.987      2784.70      8574.29      25649.9      41722.8      75628.7     -1.00000
      324.000      402.000      65.3918      784.471      2463.07      7724.25      23803.6      39895.9      75697.6     -1.00000
      440.000      705.000      145.741      655.914      2166.98      7248.79      23527.7      39638.7      75788.4     -1.00000
      497.000      161.000      31.2272      740.963      2296.99      7123.77      22160.3      37913.0      75259.9     -1.00000
      750.000      602.000      109.969      657.575      2141.76      6869.75      21924.6      37594.7      74905.7     -1.00000
      265.000      198.000      30.3789      673.176      2133.37      6602.33      21207.0      36441.4      74456.0     -1.00000
      540.000      708.000      134.413      660.241      2106.66      6791.86      22043.1      37787.1      74650.0     -1.00000
      64.0000      477.000      78.0859      670.645      2025.89      6395.49      20477.9      35837.3      74239.0     -1.00000
      831.000      59.0000      21.9625      865.003      2774.15      8615.77      25543.9      41536.3      73788.7     -1.00000
      816.000      369.000      42.2337      619.298      2053.98      6402.67      20842.3      36382.6      73883.4     -1.00000
      377.000      986.000      183.884      723.527      2192.05      7204.06      23727.6      40160.1      74250.0     -1.00000
      566.000      215.000      36.2623      765.958      2393.90      7328.45      22588.6      38141.4      73639.7     -1.00000
      879.000      826.000      161.186      617.930      1932.71      6268.40      20718.6      36293.1      73990.6     -1.00000
      784.000      211.000      41.1098      781.340      2487.06      7803.97      23772.2      39011.7      73073.2     -1.00000
      301.000      21.0000      6.31351      916.000      2811.94      8426.55      24758.0      40023.3      72779.4     -1.00000
      460.000      705.000      144.797      617.155      1990.04      6437.32      20982.8      36283.0      73137.2     -1.00000
      678.000      34.0000      6.23000      858.486      2701.68      8650.58      24136.8      38992.2      72555.9     -1.00000
      985.000      56.0000      16.6578      649.810      2093.89      6647.47      20905.3      35828.1      72499.6     -1.00000
      752.000      439.000      43.2324      672.555      2193.34      7053.48      22371.9      37841.1      72733.2     -1.00000
      824.000      260.000      30.5105      600.515      1922.37      6026.38      19388.6      33979.6      72495.9     -1.00000
      704.000      185.000      23.9490      674.994      2315.62      7335.35      22123.4      35466.4      72295.9     -1.00000
      785.000      572.000      119.274      777.912      2446.07      8115.63      24635.7      40201.8      72570.6     -1.00000
      694.000      17.0000      19.3909      755.884      2339.47      7229.57      22194.1      37258.1      72048.6     -1.00000
      748.000      369.000      47.9934      750.575      2651.91      7923.66      23990.5      39772.5      72310.3     -1.00000
      247.000      467.000      74.5501      614.577      1818.28      5564.19      18014.2      32243.4      72309.8     -1.00000
      198.000      518.000      79.9022      620.581      1980.82      6286.60      20214.0      35074.1      71977.3     -1.00000
      724.000      209.000      25.6227      863.305      2839.89      8427.62      24921.9      40049.6      71576.2     -1.00000
      334.000      25.0000      21.3571      760.416      2397.85      7391.37      22485.4      37491.9      71365.5     -1.00000
      417.000      843.000      204.177      580.731      1857.17      6371.21      21252.1      36857.8      71979.6     -1.00000
      725.000      349.000      41.7432      638.913      1999.19      6449.12      20424.2      35324.0      71455.8     -1.00000
      680.000      284.000      37.4521      683.478      2132.85      6639.67      21030.0      35930.7      71171.4     -1.00000
      1002.00      579.000      74.0234      545.685      1728.79      5704.21      19019.0      33450.5      71365.2     -1.00000
      419.000      259.000      40.1333      761.344      2322.46      7050.56      22121.6      36876.3      70961.2     -1.00000
      373.000      655.000      118.112      726.989      2355.18      7488.50      23132.3      38245.8      70872.9     -1.00000
      343.000      917.000      279.269      673.594      2028.62      6531.48      21305.0      36348.6      70964.7     -1.00000
      737.000      32.0000      22.4878      690.738      2228.63      6882.58      21378.5      35992.9      70281.3     -1.00000
      145.000      649.000      123.535      585.214      1850.97      5905.10      19357.7      34197.4      70321.7     -1.00000
      363.000      225.000      32.6117      626.919      1974.67      6082.85      18920.7      33028.6      69926.6     -1.00000
      460.000      592.000      115.761      632.287      1968.75      6252.08      20295.8      34944.8      70150.8     -1.00000
      741.000      807.000      158.751      559.589      1707.56      5702.65      19282.2      33162.8      70286.8     -1.00000
      319.000      267.000      32.7827      716.018      2181.98      6855.42      22853.3      36980.6      69869.5     -1.00000
      641.000      14.0000     -1.21456      619.508      1989.23      6132.39      19238.4      33329.7      69594.6     -1.00000
      345.000      537.000      102.859      751.995      2333.03      7418.20      23277.9      38459.0      69795.6     -1.00000
      764.000      394.000      38.4877      738.155      2312.02      7348.99      22606.2      37305.7      69589.8     -1.00000
      488.000      921.000      193.029      635.366      2042.34      6619.20      21396.2      36249.6      69965.7     -1.00000
      55.0000      405.000      45.0162      691.554      2212.31      6886.94      21357.0      35857.2      69463.7     -1.00000
      239.000      362.000      45.6843      621.229      1986.81      6363.84      20287.5      34938.7      68919.7     -1.00000
      674.000      122.000      23.0347      661.692      2053.03      6308.59      19750.9      34063.9      68732.2     -1.00000
      582.000      634.000      100.671      708.539      2352.93      7497.08      23142.4      37733.4      68856.6     -1.00000
      595.000      162.000      28.5731      720.829      2280.28      7116.20      21720.2      36162.9      67867.7     -1.00000
      32.0000      73.0000      16.8431      868.224      2761.42      8363.59      24265.0      38805.2      67692.6     -1.00000
      248.000      547.000      77.6896      593.055      1761.85      5427.26      17673.4      31387.1      67116.5     -1.00000
      725.000      239.000      32.5524      670.050      2127.96      6583.17      20660.6      34865.4      67748.6     -1.00000
      533.000      367.000      43.3518      616.718      1935.98      6149.22      19829.6      34207.8      67831.9     -1.00000
      731.000      536.000      95.4899      687.138      2247.62      7104.52      22036.8      36652.3      67936.9     -1.00000
      13.0000      316.000      17.4375      582.713      1927.61      5877.68      18565.6      32247.0      67711.5     -1.00000
      606.000      56.0000      16.6578      588.812      1920.20      5823.41      18446.1      32048.0      67347.1     -1.00000
      587.000      458.000      59.3856      565.009      1828.09      6034.92      19529.4      33451.4      67544.0     -1.00000
      179.000      294.000      34.2852      590.908      1831.50      5648.00      18604.9      32356.4      67354.2     -1.00000
      906.000      47.0000      5.03945      641.001      2072.30      6498.93      20238.5      34346.7      66864.4     -1.00000
      341.000      130.000      29.0961      675.989      2148.76      6806.00      20880.3      34839.9      66895.3     -1.00000
      280.000      559.000      84.6090      659.790      2167.10      6809.49      21294.1      35677.9      67151.0     -1.00000
      127.000      368.000      44.2682      694.173      2118.34      6515.22      20336.0      34117.2      66806.4     -1.00000
      618.000      917.000      195.534      565.024      1675.29      5446.01      18134.3      31975.2      67130.5     -1.00000
      577.000      843.000      152.552      616.842      2077.28      6586.64      20923.4      35350.0      66754.3     -1.00000
      433.000      140.000      16.9932      615.498      1891.98      5821.71      18521.1      31970.6      66234.5     -1.00000
      712.000      768.000      132.629      580.341      1888.58      5985.36      19531.2      33514.4      66578.4     -1.00000
      204.000      956.000      186.222      694.867      2101.54      6868.23      21575.2      35871.4      66694.3     -1.00000
      341.000      573.000      96.9235      549.978      1791.44      5822.39      19313.7      33296.8      66345.5     -1.00000
      947.000      376.000      29.5788      698.498      2236.93      7000.55      21774.2      35890.1      66034.7     -1.00000
      149.000      961.000      232.189      510.409      1534.52      5222.34      18223.6      32268.2      66138.2     -1.00000
      300.000      692.000      132.240      608.343      1851.46      6014.46      19450.0      33462.1      65855.6     -1.00000
      817.000      387.000      41.7817      610.780      1946.04      6139.34      19297.9      32942.4      65550.6     -1.00000
      370.000      180.000      25.2773      708.007      2211.66      6925.97      21070.3      34872.1      65361.9     -1.00000
      8.00000      241.000     -40.6964      524.168      1712.56      5502.56      17600.7      30867.7      65284.3     -1.00000
      701.000      305.000      34.8139      582.202      1854.91      5809.51      18455.7      32095.0      65315.4     -1.00000
      55.0000      839.000      164.773      600.888      1853.92      6084.76      19988.1      34050.9      65660.6     -1.00000
      463.000      459.000      64.9042      563.599      1811.45      5634.07      18416.2      31953.8      65349.7     -1.00000
      784.000      648.000      126.263      554.241      1766.65      5785.53      18842.4      32625.7      65464.1     -1.00000
      319.000      409.000      62.8194      639.177      1985.38      6274.62      19853.9      33619.1      65211.1     -1.00000
      8.00000      1008.00      119.665      497.355      1680.66      5967.44      19672.1      33281.2      65524.3     -1.00000
      805.000      72.0000      14.0647      620.926      2017.68      6159.53      19068.6      32508.3      64662.1     -1.00000
      37.0000      648.000      113.422      257.096      433.802      723.437      1320.12      7536.07      64876.1     -1.00000
      31.0000      122.000      22.2218      617.856      1893.43      5894.18      18442.4      31737.6      64511.1     -1.00000
      633.000      283.000      37.0612      544.605      1740.14      5423.96      17341.7      30677.2      64511.3     -1.00000
      684.000      91.0000      13.0203      688.214      2171.92      6681.89      20373.6      33873.7      64292.6     -1.00000
      238.000      860.000      168.813      533.504      1702.80      5398.16      17761.5      31134.7      64722.4     -1.00000
      964.000      362.000      70.1173      258.803      453.147      746.591      7869.70      22765.6      64239.0     -1.00000
      290.000      654.000      138.046      584.762      1782.76      5697.77      18522.2      31807.9      64281.2     -1.00000
      967.000      352.000      49.2634      156.623      263.960      460.658      820.057      7869.12      63981.7     -1.00000
      929.000      814.000      138.940      656.921      2184.34      6973.01      21370.2      35120.8      64175.0     -1.00000
      288.000      310.000      39.0297      663.504      2072.44      6995.89      20654.5      35059.2      63660.1     -1.00000
      630.000      606.000      95.3904      530.446      1716.15      5747.47      18552.8      31836.7      63645.1     -1.00000
      163.000      271.000      47.2961      668.858      2070.46      6498.42      19936.0      33446.0      63253.3     -1.00000
      757.000      376.000      39.3657      627.087      1960.35      6099.05      18966.6      32024.9      63252.0     -1.00000
      648.000      586.000      110.438      498.742      1588.13      5150.41      16906.6      29703.4      63331.5     -1.00000
      586.000      114.000      15.7309      695.634      2211.00      6590.99      20642.6      34065.7      62918.9     -1.00000
      942.000      96.0000      9.40751      730.607      2345.79      7146.61      21483.1      35088.0      62707.9     -1.00000
      895.000      34.0000      11.9016      600.673      1907.05      5891.37      18407.6      31345.0      62632.0     -1.00000
      317.000      537.000      84.8837      616.531      2029.72      6396.15      19776.4      33293.4      62805.7     -1.00000
      803.000      749.000      125.060      592.571      1945.32      6092.94      19331.5      32556.6      62839.6     -1.00000
      257.000      353.000      37.6378      587.750      1812.97      5751.82      18467.1      31411.6      62527.3     -1.00000
      537.000      373.000      36.9747      600.041      1573.17      5076.94      18736.5      29347.2      62513.0     -1.00000
      76.0000      699.000      131.510      568.229      1695.41      5656.66      18188.5      31235.6      62594.7     -1.00000
      42.0000      261.000      32.2345      540.941      1734.47      5175.68      16599.8      30091.7      62117.7     -1.00000
      227.000      664.000      137.580      740.827      2355.15      7315.69      22650.2      35492.7      62209.7     -1.00000
      777.000      92.0000      19.1689      624.819      1945.31      6221.60      19110.3      32113.1      61761.0     -1.00000
      158.000      65.0000      21.0506      754.582      2379.99      7117.39      21045.8      34063.3      61742.1     -1.00000
      533.000      446.000      59.8138      547.747      1699.43      5316.24      17361.6      30135.6      61958.6     -1.00000
      860.000      647.000      120.468      553.007      1789.62      5877.06      18775.5      31872.2      61782.9     -1.00000
      365.000      875.000      186.680      484.107      1606.74      5530.91      18057.8      31128.5      61601.4     -1.00000
      355.000      891.000      168.922      543.211      1741.55      5452.68      17780.7      30812.9      61112.8     -1.00000
      994.000      518.000      75.3116      439.907      1501.86      4898.28      16373.1      29068.8      60754.6     -1.00000
      169.000      475.000      55.2563      519.505      1633.04      5084.01      16304.2      28993.6      60456.8     -1.00000
      456.000      25.0000      18.1746      628.802      1948.73      5998.04      18271.1      30856.1      60159.2     -1.00000
      873.000      466.000      63.1337      530.703      1665.02      5430.59      17305.6      29904.2      60409.3     -1.00000
      726.000      603.000      97.9268      594.856      1898.53      5930.46      18468.8      31355.6      60409.7     -1.00000
      674.000      433.000      71.2193      473.641      1559.40      4995.83      16030.1      28170.6      60254.5     -1.00000
      986.000      410.000      27.0594      455.527      1491.65      4815.00      15947.8      27979.1      60224.2     -1.00000
      995.000      163.000      17.8397      577.874      1838.60      5817.71      18158.2      30696.2      60055.0     -1.00000
      806.000      201.000      38.9224      733.462      2210.23      6834.88      20193.8      32967.0      59965.7     -1.00000
      985.000      14.0000      7.04654      536.093      1725.62      5385.60      16895.4      29110.4      59814.4     -1.00000
      960.000      233.000      26.1683      531.417      1725.55      5504.19      17537.3      30005.9      59917.9     -1.00000
      815.000      457.000      75.7231      498.703      1573.36      5190.41      16945.6      29363.2      60032.6     -1.00000
      674.000      514.000      77.2245      521.153      1619.39      5140.54      16491.8      28667.4      59862.5     -1.00000
      587.000      104.000      19.3813      612.533      1928.62      5004.16      19162.0      29356.8      59575.8     -1.00000
      566.000      807.000      191.447      580.625      1789.12      5859.38      18575.7      31391.4      60010.9     -1.00000
      166.000      826.000      172.145      551.526      1784.65      5779.73      18434.2      30984.3      59918.9     -1.00000
      437.000      816.000      156.727      468.168      1393.59      4517.58      15535.2      27618.0      59726.6     -1.00000
      1000.00      375.000      45.3350      570.635      1796.56      5640.92      17666.6      30048.9      59425.1     -1.00000
      855.000      840.000      179.852      449.659      1393.65      4575.06      15479.2      27573.3      59710.3     -1.00000
      369.000      243.000      22.4710      502.513      1609.64      5030.08      16105.3      28051.4      59319.8     -1.00000
      531.000      500.000      72.4466      558.555      1688.73      5246.03      16871.2      29234.4      59440.6     -1.00000
      836.000      68.0000      7.38996      548.913      1717.58      5327.38      16655.5      28663.3      59119.8     -1.00000
      147.000      776.000      178.338      657.911      2034.79      6549.52      21042.0      35118.7      59403.7     -1.00000
      521.000      69.0000      22.0290      640.649      2026.75      6234.93      18807.7      31214.5      58883.1     -1.00000
      878.000      412.000      61.4465      441.162      991.212      4044.95      14823.1      25549.5      58966.0     -1.00000
      953.000      511.000      68.4373      481.237      1813.89      5727.31      15799.9      31873.5      58426.7     -1.00000
      63.0000      21.0000      9.44691      635.208      1960.13      6053.71      18194.4      30318.0      58049.8     -1.00000
      915.000      498.000      78.7899      571.028      1879.07      5919.12      18596.3      30926.8      58258.6     -1.00000
      476.000      420.000      64.1344      581.844      1881.03      5594.15      17510.3      29423.8      58092.8     -1.00000
      500.000      143.000      28.7777      534.487      1600.69      4952.26      15726.0      27538.6      57866.9     -1.00000
      142.000      570.000      132.584      480.734      1489.98      4765.70      15505.8      27660.0      58044.2     -1.00000
      720.000      263.000      41.6201      522.971      1624.09      4964.22      15590.1      27219.6      57709.8     -1.00000
      904.000      7.00000     0.841869      594.302      1891.80      5778.97      17522.0      29700.8      57532.1     -1.00000
      132.000      518.000      88.1527      526.895      1545.04      4842.15      15549.4      27297.3      57666.8     -1.00000
      100.000      807.000      148.993      446.090      1365.34      4548.69      15275.1      26858.5      57834.8     -1.00000
      16.0000      244.000      22.6051      546.041      1667.21      5217.72      16807.3      28580.7      57487.6     -1.00000
      604.000      465.000      68.2660      513.027      1619.17      5175.83      16764.0      28822.1      57614.1     -1.00000
      64.0000      357.000      30.1701      639.559      1851.62      5838.44      18069.5      30251.9      57298.1     -1.00000
      798.000      984.000      183.441      488.824      1489.35      4936.55      16397.4      28669.5      57585.4     -1.00000
      641.000      90.0000      11.1534      505.055      1543.84      4851.91      15375.6      26735.2      56742.6     -1.00000
      875.000      570.000      94.4557      514.584      1607.61      4923.86      15649.4      27298.5      56981.9     -1.00000
      177.000      830.000      158.670      512.087      1581.67      4956.08      16585.8      28602.3      57038.1     -1.00000
      117.000      692.000      192.358      600.449      1803.29      5544.26      17548.7      29662.8      56689.6     -1.00000
      265.000      973.000      197.605      462.669      1350.07      4390.19      15169.3      26817.9      56849.1     -1.00000
      452.000      407.000      56.5759      530.504      1651.50      5168.38      16269.0      28195.7      56474.2     -1.00000
      705.000      214.000      29.7222      508.287      1537.84      4749.36      15215.8      26611.7      56355.3     -1.00000
      841.000      477.000      77.7183      557.571      1763.25      5550.87      17218.0      29115.0      56444.1     -1.00000
      331.000      756.000      140.756      588.508      1841.27      5833.82      18332.2      30430.4      56608.0     -1.00000
      367.000      595.000      86.6125      493.318      1488.46      4707.74      15029.1      26514.5      56386.4     -1.00000
      944.000      67.0000      4.09376      483.785      1587.85      4941.34      15700.7      27077.1      55939.7     -1.00000
      191.000      207.000      29.5418      593.882      1808.74      5584.61      17077.8      28873.0      55913.5     -1.00000
      210.000      220.000      36.2114      605.337      1896.67      5707.92      17333.4      28994.9      55906.7     -1.00000
      36.0000      611.000      69.9977      487.727      1496.87      4747.65      15537.0      27198.3      56037.7     -1.00000
      1000.00      228.000      31.7783      541.469      1783.81      5512.10      17025.7      28783.1      55676.9     -1.00000
      624.000      334.000      37.8512      558.565      1737.73      5406.85      16997.9      28720.9      55676.1     -1.00000
      163.000      752.000      134.390      497.348      1559.56      5077.00      16355.7      28131.8      55912.8     -1.00000
      44.0000      957.000      162.754      506.292      1643.22      5356.53      17136.4      29155.6      56003.5     -1.00000
      679.000      373.000      36.9747      479.622      1557.44      5007.91      16278.1      27825.1      55649.9     -1.00000
      766.000      378.000      41.1224      493.825      1714.35      5435.46      15076.5      28516.2      55512.9     -1.00000
      213.000      481.000      67.4565      69.0798      132.793      232.019      360.612      14166.9      55532.3     -1.00000
      698.000      968.000      191.067      487.366      1579.20      5186.06      16861.4      28715.6      55687.6     -1.00000
      618.000      611.000      86.3806      529.779      1629.73      5044.79      16168.7      27589.6      55313.8     -1.00000
      35.0000      358.000      50.8740      470.695      1424.56      4576.10      14762.6      25838.2      54868.1     -1.00000
      366.000      691.000      131.256      516.293      1595.83      5188.81      16441.7      27977.0      55042.4     -1.00000
      817.000      312.000      42.9309      526.388      1577.37      4775.47      15137.0      26216.4      54816.1     -1.00000
      150.000      341.000      43.4087      538.392      1689.65      5292.96      16481.5      28171.0      54730.7     -1.00000
      486.000      402.000      63.1588      531.444      1662.11      5177.69      16579.5      27880.6      54755.5     -1.00000
      898.000      710.000      130.839      449.453      1422.79      4410.84      14560.6      25671.2      54533.1     -1.00000
      269.000      311.000      34.6912      560.866      1738.52      5397.17      16558.2      28051.3      54153.3     -1.00000
      427.000      586.000      108.183      468.339      1437.86      4460.44      14682.0      25859.1      54236.8     -1.00000
      476.000      545.000      74.6274      510.926      1577.30      4861.82      15637.2      27146.1      54164.5     -1.00000
      240.000      881.000      189.377      526.366      1549.88      5005.96      15932.8      27388.5      54265.7     -1.00000
      821.000      611.000      85.6107      470.472      1448.11      4576.63      14973.8      26145.5      54061.1     -1.00000
      420.000      202.000      29.4964      554.178      1694.27      5314.74      16185.0      27606.8      53793.0     -1.00000
      213.000      193.000      23.1851      520.610      1532.26      4872.66      15337.0      26410.0      53769.8     -1.00000
      735.000      970.000      183.910      554.951      1710.38      5505.95      18177.7      31126.6      54206.3     -1.00000
      291.000      273.000      31.9381      425.184      1258.56      3824.00      14258.2      25184.9      53630.5     -1.00000
      417.000      297.000      32.9936      517.025      1574.59      4841.85      15316.5      26345.8      53634.4     -1.00000
      594.000      443.000      70.4139      465.131      1537.83      4857.54      15753.7      26953.6      53661.6     -1.00000
      1023.00      24.0000      17.0001      551.610      1667.26      4935.78      15204.3      26196.6      53385.4     -1.00000
      81.0000      736.000      139.778      460.468      1412.72      4524.47      14964.3      26088.4      53782.4     -1.00000
      471.000      937.000      211.235      438.655      1296.26      4263.12      14194.7      25189.4      53894.3     -1.00000
      265.000      541.000      92.9547      536.075      1525.35      4816.07      15478.2      26539.6      53465.9     -1.00000
      897.000      1003.00      175.186      417.999      1304.88      4263.77      14522.8      25709.2      53723.4     -1.00000
      375.000      295.000      36.0204      540.589      1623.97      5068.57      15594.9      26702.7      53312.9     -1.00000
      715.000      894.000      168.569      464.053      1417.23      4730.94      15486.7      26697.6      53632.4     -1.00000
      656.000      431.000      50.0958      534.462      1663.95      5120.03      15853.0      27030.0      53325.4     -1.00000
      491.000      746.000      141.527      546.247      1623.50      5152.64      16132.1      27200.7      53483.6     -1.00000
      617.000      739.000      121.977      469.744      1425.41      4536.81      15052.1      26188.5      53418.6     -1.00000
      827.000      817.000      142.750      422.541      1316.02      4229.80      14084.1      24797.8      53460.4     -1.00000
      37.0000      544.000      76.0471      515.987      1605.92      5044.32      15355.7      26062.2      53254.6     -1.00000
      399.000      930.000      172.825      474.572      1389.66      4490.74      15089.4      26363.5      53358.2     -1.00000
      306.000      885.000      170.053      458.449      1394.39      4360.83      14820.7      25872.1      52990.0     -1.00000
      674.000      317.000      43.3631      510.605      1604.54      5050.14      15751.3      26807.3      52645.7     -1.00000
      220.000      502.000      77.5709      481.560      1399.05      4448.76      14613.8      25392.5      52725.5     -1.00000
      200.000      758.000      120.661      549.784      2059.57      7039.98      18706.7      38253.7      52856.5     -1.00000
      44.0000      760.000      112.233      503.930      1511.87      4754.89      15215.8      26416.0      52808.1     -1.00000
      409.000      469.000      74.1958      647.944      1928.82      5926.63      18681.7      25831.2      52565.7     -1.00000
      401.000      599.000      92.9902      512.352      1647.01      5052.01      15814.4      26893.6      52223.7     -1.00000
      54.0000      947.000      166.698      420.924      1306.07      4393.11      14962.5      26134.0      52358.2     -1.00000
      532.000      195.000      33.7186      540.553      1645.02      5049.24      15492.6      26217.5      51730.4     -1.00000
      12.0000      187.000    -0.409513      429.675      1379.37      4345.17      13964.8      24337.9      51670.6     -1.00000
      45.0000      536.000      74.0337      551.722      1672.49      5136.36      15895.8      26692.9      51805.8     -1.00000
      842.000      931.000      158.563      490.222      1391.14      4419.91      14123.8      24786.2      51957.4     -1.00000
      362.000      982.000      186.588      224.491      1469.74      4461.18      12680.6      24249.7      51945.4     -1.00000
      544.000      257.000      30.9350      92.2611      196.774      364.845      583.328      803.394      51455.9     -1.00000
      527.000      645.000      137.187      472.357      1426.08      4539.67      14647.6      25210.4      51574.8     -1.00000
      342.000      993.000      185.683      418.906      1229.17      3976.51      13374.5      24103.3      51590.2     -1.00000
      553.000      667.000      134.195      466.668      1423.08      4311.47      13907.9      24243.9      51272.4     -1.00000
      828.000      435.000      60.9483      477.865      1430.82      4378.06      13836.4      24094.9      51120.9     -1.00000
      325.000      530.000      98.5215      434.876      1360.15      4289.20      13838.5      24331.9      51063.3     -1.00000
      658.000      835.000      169.584      453.374      1338.72      4412.59      14752.2      25552.1      51144.1     -1.00000
      440.000      155.000      24.6610      545.870      1639.13      4988.81      15328.5      25936.5      50760.7     -1.00000
      256.000      265.000      44.7122      483.347      1459.71      4588.18      14272.3      24638.8      50692.2     -1.00000
      219.000      272.000      27.0624      533.498      1674.04      5073.01      15670.9      26270.8      50635.9     -1.00000
      1022.00      681.000      108.266      466.495      1457.04      4845.03      15294.4      26145.8      50663.5     -1.00000
      301.000      102.000      12.9608      459.861      1408.57      4359.77      13678.2      23733.8      50319.8     -1.00000
      230.000      206.000      40.6082      456.667      1497.80      4546.71      14501.2      24973.4      50264.8     -1.00000
      302.000      331.000      37.3057      488.466      1457.74      4467.83      14216.1      24755.9      50211.9     -1.00000
      782.000      980.000      189.016      444.960      1376.87      4384.05      14536.4      24960.2      50512.2     -1.00000
      132.000      959.000      181.587      480.519      1441.00      4448.63      14227.5      24697.9      50377.0     -1.00000
      392.000      1015.00      189.624      414.581      1263.03      4079.66      13930.9      24558.6      50405.3     -1.00000
      58.0000      90.0000      16.8694      516.899      1608.16      4928.87      15130.2      25522.4      49876.4     -1.00000
      89.0000      698.000      122.600      441.962      1351.33      4184.87      13836.6      23938.5      50179.3     -1.00000
      154.000      877.000      163.926      420.808      1269.90      4108.61      13855.8      24279.9      50252.5     -1.00000
      834.000      758.000      118.755      397.886      1180.81      4079.54      13476.2      23964.8      50053.4     -1.00000
      650.000      393.000      45.2569      478.669      1423.37      4382.73      14147.8      24214.9      49839.7     -1.00000
      453.000      128.000      22.6918      487.902      1523.69      4741.53      14484.8      24705.0      49607.7     -1.00000
      648.000      840.000      166.265      435.124      1336.19      4339.89      14172.3      24663.6      49945.6     -1.00000
      753.000      91.0000      10.6505      461.170      1494.14      4564.69      14341.4      24464.5      49379.3     -1.00000
      825.000      825.000      169.118      517.409      1419.22      4425.62      14712.7      25103.0      49758.6     -1.00000
      691.000      97.0000      15.9120      460.504      1499.46      4536.03      14002.8      24083.7      49109.5     -1.00000
      685.000      433.000      60.8576      461.740      1455.13      4630.45      14809.1      25121.5      49275.5     -1.00000
      171.000      712.000      133.836      444.095      1435.89      4533.34      14708.7      25157.4      49370.5     -1.00000
      590.000      426.000      61.2724      471.537      1411.51      4353.99      13990.7      24591.3      49162.4     -1.00000
      532.000      774.000      141.872      408.247      1267.87      4215.08      13975.8      24390.9      49275.5     -1.00000
      330.000      675.000      123.044      451.715      1294.96      3903.15      12868.9      22742.9      48789.8     -1.00000
      862.000      207.000      29.1813      455.155      1359.12      4315.05      13634.7      23780.2      48458.8     -1.00000
      548.000      186.000      21.8366      502.536      1550.00      4707.21      14553.9      24669.4      48392.8     -1.00000
      836.000      126.000      23.1211      438.685      1376.42      4330.39      13681.0      23760.2      48286.0     -1.00000
      225.000      456.000      70.5521      411.769      1238.71      3733.70      12175.3      21614.3      48379.7     -1.00000
      659.000      1008.00      184.216      491.505      1429.50      4663.06      15135.7      25563.2      48645.9     -1.00000
      808.000      878.000      163.039      439.702      1316.74      4289.19      13926.7      24082.6      48360.0     -1.00000
      729.000      876.000      174.323      480.779      1386.33      4443.88      14296.6      25151.4      48263.0     -1.00000
      202.000      885.000      176.291      405.450      1212.77      3806.89      12666.3      22542.6      48169.9     -1.00000
      538.000      183.000      32.0785      526.038      1544.35      4603.54      14127.2      23895.3      47764.1     -1.00000
      642.000      131.000      20.9626      460.112      1452.78      4393.14      13754.2      23584.9      47637.2     -1.00000
      915.000      216.000      28.1812      468.918      1488.22      4551.00      14113.0      24078.2      47553.2     -1.00000
      752.000      273.000      28.4986      449.531      1399.02      4462.31      14185.2      24081.1      47556.8     -1.00000
      391.000      535.000      111.505      481.791      1438.14      4395.93      13771.6      23706.6      47657.4     -1.00000
      541.000      445.000      66.6955      412.980      1137.47      3424.71      10857.1      21638.1      46055.0     -1.00000
      689.000      808.000      157.647      198.274      358.539      648.621      1297.71      1775.13      47743.3     -1.00000
      678.000      265.000      35.0248      431.985      1491.92      4612.66      14325.9      24175.9      47359.7     -1.00000
      570.000      667.000      130.513      434.572      1243.26      3858.63      12611.4      22821.5      47520.7     -1.00000
      698.000      596.000      95.1206      419.181      1229.35      4021.25      13151.3      23015.7      47402.6     -1.00000
      718.000      886.000      174.699      389.467      1252.58      4017.14      13366.7      23258.2      47538.7     -1.00000
      910.000      744.000      173.166      418.090      1302.39      4208.70      13637.8      23594.9      47418.2     -1.00000
      448.000      705.000      129.831      410.569      1204.29      3785.51      12369.5      22088.5      47391.5     -1.00000
      531.000      270.000      36.7218      515.543      1588.28      4813.57      15257.2      24705.2      47113.9     -1.00000
      365.000      238.000      34.2399      357.240      1007.24      3187.11      13049.0      22733.8      46738.2     -1.00000
      642.000      631.000      123.465      405.257      1339.33      4099.31      13282.1      23050.3      46916.6     -1.00000
      113.000      811.000      146.540      420.355      1224.85      4117.65      13774.3      23696.1      46977.5     -1.00000
      561.000      19.0000      5.17829      406.328      1316.12      4088.46      12767.1      22116.9      46486.9     -1.00000
      831.000      291.000      31.2463      453.157      1372.77      4256.52      13435.6      22978.5      46571.3     -1.00000
      643.000      399.000      43.9496      424.275      1315.59      4257.01      13565.5      23078.2      46621.1     -1.00000
      375.000      676.000      124.970      427.670      1216.49      3605.84      12279.8      21585.8      46725.9     -1.00000
      831.000      533.000      101.186      509.998      1582.49      4754.37      15589.2      25519.4      46617.3     -1.00000
      206.000      351.000      46.3913      410.135      1297.92      3888.75      12675.3      21850.1      46455.1     -1.00000
      117.000      568.000      102.349      442.599      1281.48      3841.39      12602.9      22033.7      46346.3     -1.00000
      280.000      814.000      171.507      419.408      1155.52      3733.51      12684.9      22135.5      46383.8     -1.00000
      832.000      980.000      171.248      368.651      1059.34      3437.77      12073.5      21644.1      46459.8     -1.00000
      548.000      884.000      164.057      419.894      1280.59      4115.27      13375.0      22959.5      46235.5     -1.00000
      805.000      354.000      40.5475      439.383      1371.06      4141.78      13031.5      22382.8      45785.0     -1.00000
      673.000      846.000      170.410      373.005      1076.49      3485.89      11793.7      20884.9      46008.0     -1.00000
      672.000      170.000      31.0250      431.474      1349.60      4172.65      13056.6      22248.4      45643.9     -1.00000
      340.000      293.000      39.5564      481.774      1408.06      4162.43      12819.6      22164.4      45534.9     -1.00000
      437.000      817.000      162.012      442.418      1285.75      3926.50      12315.6      21432.7      45748.4     -1.00000
      135.000      527.000      89.4367      430.371      1345.82      4190.19      13174.3      22958.6      45515.1     -1.00000
      521.000      468.000      68.0060      457.010      1385.63      4156.61      13116.3      22545.0      45412.1     -1.00000
      160.000      332.000      32.3710      461.778      1330.24      4209.43      13138.0      22350.8      45334.4     -1.00000
      671.000      412.000      61.8792      434.735      1343.27      4198.43      13078.4      22504.6      45343.9     -1.00000
      771.000      234.000      37.8941      467.214      1423.61      4329.85      13230.4      22620.9      45224.2     -1.00000
      26.0000      620.000      98.6103      381.194      1120.07      3479.09      11680.8      20595.7      44666.9     -1.00000
      831.000      490.000      89.0992      421.955      1256.54      3971.92      12710.3      21963.7      45241.8     -1.00000
      806.000      581.000      97.2344      389.733      1168.04      3655.14      11965.4      20858.8      44931.1     -1.00000
      916.000      390.000      46.5965      402.403      1175.51      3830.52      12275.9      21470.0      45129.5     -1.00000
      364.000      287.000      40.8933      424.880      1282.12      3843.78      12183.2      21234.9      45075.9     -1.00000
      586.000      763.000      154.140      395.402      1184.12      3726.26      12297.8      21687.8      45299.8     -1.00000
      583.000      974.000      187.777      417.997      1232.11      3888.60      12867.4      22283.3      45370.9     -1.00000
      762.000      852.000      214.174      907.271      3091.34      9616.46      24141.0      32874.1      45213.6     -1.00000
      831.000      303.000      41.4224      434.540      1304.92      3968.01      12577.6      21484.7      44944.0     -1.00000
      162.000      446.000      59.9406      423.235      1296.91      4073.05      12885.4      22096.1      45004.2     -1.00000
      823.000      205.000      23.7955      383.155      1182.39      4103.50      12989.1      23035.7      44885.0     -1.00000
      722.000      70.0000      10.7407      458.827      1464.64      4632.46      14607.6      24210.5      44803.5     -1.00000
      727.000      344.000      38.0057      460.021      1403.71      4360.77      13696.9      23154.7      44911.2     -1.00000
      665.000      677.000      122.255      412.640      1211.50      3907.82      12583.2      21798.3      45005.8     -1.00000
      433.000      581.000      99.8023      468.939      1429.23      4303.50      13286.9      22836.4      44641.4     -1.00000
      634.000      234.000      47.5591      392.837      1247.31      3847.74      12315.2      21260.8      44188.5     -1.00000
      171.000      532.000      82.7318      432.666      1395.93      4331.95      13488.9      22772.2      44321.5     -1.00000
      25.0000      138.000      17.3901      476.682      1431.50      4365.77      13377.9      22723.5      44079.2     -1.00000
      771.000      550.000      95.4806      484.044      1450.12      4532.27      13765.7      23053.3      44229.7     -1.00000
      169.000      790.000      152.704      435.807      1282.68      3961.56      12644.3      21849.2      44335.7     -1.00000
      98.0000      86.0000      15.5323      68.4771      124.312      184.756      266.416      388.653      43960.2     -1.00000
      380.000      127.000      32.6381      414.781      1487.39      4182.34      13107.6      21550.4      43959.1     -1.00000
      983.000      709.000      137.259      399.056      1195.47      3922.20      12982.4      22219.8      44197.7     -1.00000
      754.000      434.000      52.4865      412.259      1309.41      4051.60      12788.5      21819.6      44038.1     -1.00000
      940.000      801.000      158.135      396.099      1225.31      3884.64      12769.6      21865.7      44156.8     -1.00000
      403.000      6.00000      17.2180      437.283      1335.33      4055.84      12617.5      21579.1      43740.8     -1.00000
      899.000      414.000      53.6966      309.985      1137.58      2984.56      8696.23      19578.6      41504.7     -1.00000
      740.000      488.000      93.1972      478.494      1401.27      4144.65      12966.2      22152.9      43865.7     -1.00000
      58.0000      589.000      108.835      533.501      1229.65      3857.69      16818.6      21363.4      43747.0     -1.00000
      263.000      177.000      24.8220      410.749      1260.19      3850.70      12088.0      21027.4      43522.5     -1.00000
      951.000      965.000      176.142      363.716      1198.97      3806.19      12677.1      21984.9      43846.1     -1.00000
      973.000      638.000      97.5252      343.496      1086.64      3507.73      11352.8      19914.0      43607.4     -1.00000
      582.000      787.000      121.074      390.053      1159.48      3720.11      11942.5      20949.4      43672.8     -1.00000
      662.000      1013.00      183.686      414.693      1182.88      3775.06      12642.0      22121.8      43745.1     -1.00000
      425.000      740.000      142.553      366.052      1081.72      3384.12      11368.3      20024.8      43613.6     -1.00000
      264.000      410.000      37.4880      401.102      1238.05      3846.53      12249.8      21281.8      43383.8     -1.00000
      430.000      50.0000      10.9848      51.4785      106.960      219.374      330.754      390.384      43033.0     -1.00000
      459.000      237.000      46.1337      415.129      1270.34      3771.54      12047.4      20729.1      43071.1     -1.00000
      1012.00      20.0000      7.59078      388.490      1239.43      3828.70      11980.9      20723.7      42925.5     -1.00000
      689.000      806.000      148.376      88.1225      134.635      223.643      331.522      368.338      43258.3     -1.00000
      549.000      47.0000      6.40110      406.836      1306.12      3998.44      12271.0      21038.3      42860.9     -1.00000
      758.000      526.000      77.9439      373.343      1074.49      3457.81      11390.0      19802.3      43032.2     -1.00000
      589.000      219.000      30.5840      440.397      1339.65      4040.52      12632.7      21556.5      42856.6     -1.00000
      421.000      545.000      78.1240      461.050      1454.80      4525.74      13676.9      22758.8      42934.6     -1.00000
      866.000      299.000      37.1778      396.287      1214.84      3704.61      11754.1      20451.6      42697.5     -1.00000
      666.000      487.000      73.0654      521.913      1487.12      4373.91      14589.9      24993.3      42705.2     -1.00000
      12.0000      288.000      14.2862      382.038      1231.92      3788.56      11973.1      20648.1      42555.8     -1.00000
      311.000      421.000      55.0104      390.429      1165.37      3681.17      11947.2      20797.7      42597.9     -1.00000
      873.000      400.000      27.4173      391.990      1154.16      3616.73      11879.1      20495.3      42548.6     -1.00000
      180.000      133.000      27.2075      357.067      1149.91      3461.24      10982.4      18764.1      39982.2     -1.00000
      1004.00      434.000      29.3677      423.937      1309.41      4008.03      12571.7      21370.8      42401.3     -1.00000
      221.000      117.000      22.0735      455.053      1380.94      4146.90      12803.0      21499.9      42255.9     -1.00000
      466.000      769.000      138.172      97.3760      146.841      228.677      366.971      414.342      42444.4     -1.00000
      309.000      728.000      118.113      389.685      1122.56      3562.54      12157.5      19540.8      42410.0     -1.00000
      251.000      208.000      31.9119      381.053      1161.98      3570.46      11358.1      19824.4      42142.1     -1.00000
      599.000      206.000      29.3107      426.649      1304.25      3968.05      12121.7      20827.1      42110.0     -1.00000
      51.0000      722.000      111.616      373.237      1094.04      3438.28      11532.1      20031.3      42329.3     -1.00000
      402.000      33.0000      17.1461      411.252      1258.82      3914.13      11956.3      20441.8      41969.3     -1.00000
      169.000      493.000      83.3833      463.848      1373.25      4158.04      12607.6      21341.3      42164.5     -1.00000
      506.000      432.000      56.3383      432.052      1229.68      3849.41      12083.3      20642.0      42115.0     -1.00000
      508.000      898.000      163.605      361.320      1053.20      3381.41      11276.6      20158.1      42309.4     -1.00000
      373.000      928.000      180.344      398.128      1217.78      3830.99      12478.5      21510.4      42275.8     -1.00000
      954.000      716.000      119.200      414.736      1241.65      3660.38      11735.5      20265.9      42167.1     -1.00000
      645.000      914.000      168.348      361.470      1103.72      3457.33      11284.5      20361.6      42173.4     -1.00000
      716.000      989.000      188.502      352.765      1071.60      3281.84      10984.9      19828.2      42133.3     -1.00000
      108.000      237.000      35.3697      416.848      1252.06      3740.51      11713.5      20222.8      41665.4     -1.00000
      281.000      66.0000      8.51092      428.152      1333.09      4085.86      12334.3      20899.2      41527.2     -1.00000
      419.000      672.000      124.153      416.253      1210.55      3780.79      12039.1      20750.2      41747.5     -1.00000
      512.000      796.000      141.062      393.796      1130.70      3619.02      11739.1      20577.9      41751.3     -1.00000
      202.000      776.000      131.582      389.324      1159.51      3606.73      11767.7      20407.4      41614.9     -1.00000
      825.000      317.000      30.5221      398.055      1274.38      3858.61      12054.9      20646.9      41405.2     -1.00000
      107.000      714.000      123.963      370.902      1125.97      3510.04      11273.3      19783.6      41538.4     -1.00000
      348.000      214.000      28.4412      439.522      1304.01      3890.48      12112.3      20577.0      41135.8     -1.00000
      718.000      715.000      120.264      364.394      1106.54      3643.51      11816.8      20474.7      41344.2     -1.00000
      542.000      824.000      163.518      351.589      1041.12      3367.03      11351.3      19832.1      41374.0     -1.00000
      581.000      382.000      50.0547      157.365      278.135      455.594      824.291      1108.30      41123.9     -1.00000
      783.000      617.000      87.9630      341.871      1027.28      3151.01      10700.9      19250.4      41140.9     -1.00000
      226.000      310.000      34.3974      407.516      1171.59      3683.54      11487.6      19940.6      40990.6     -1.00000
      658.000      48.0000      16.1334      388.033      1163.98      3621.56      11455.5      19683.9      40760.2     -1.00000
      667.000      344.000      46.8949      404.373      1282.25      3876.45      12097.5      20680.8      40885.9     -1.00000
      307.000      977.000      225.058      392.821      1100.47      3357.48      11300.2      19793.9      41135.1     -1.00000
      59.0000      301.000      30.6172      448.003      1359.63      3909.06      11982.1      20281.0      40758.0     -1.00000
      340.000      568.000      110.371      441.464      1329.53      4154.30      12664.8      21145.0      40804.6     -1.00000
      430.000      104.000      23.4511      386.582      1232.20      3556.37      10855.5      19759.6      40535.3     -1.00000
      376.000      439.000      55.8147      364.972      1061.77      3443.26      11008.5      19285.3      40678.3     -1.00000
      421.000      945.000      177.293      362.293      1077.49      3353.33      11126.9      19453.9      40791.9     -1.00000
      758.000      412.000      48.6054      386.560      1117.10      3585.87      11409.9      19778.2      40556.0     -1.00000
      232.000      805.000      136.274      404.519      1214.76      3814.06      11986.3      20618.0      40720.4     -1.00000
      938.000      751.000      120.755      362.992      1081.99      3468.88      11429.5      19670.6      40692.0     -1.00000
      934.000      646.000      93.7321      358.311      1056.27      3241.10      10484.6      18713.7      40462.5     -1.00000
      377.000      623.000      110.288      364.072      1130.12      3472.18      11085.4      19317.8      40434.2     -1.00000
      47.0000      551.000      98.5133      405.101      1143.82      3475.58      11185.2      19446.4      40294.1     -1.00000
      806.000      314.000      39.4391      369.418      1145.16      3511.16      11146.6      19272.8      40162.8     -1.00000
      640.000      616.000      92.3825      347.085      1035.19      3282.55      11020.3      19277.6      40273.9     -1.00000
      423.000      769.000      120.167      367.045      1060.15      3332.75      10934.5      19272.2      40303.6     -1.00000
      819.000      156.000      15.5311      343.865      1101.33      3477.83      10979.0      19186.2      40018.5     -1.00000
      871.000      177.000      19.3582      374.709      1131.28      3546.06      11171.9      19282.9      39955.6     -1.00000
      427.000      101.000      18.2126      445.691      1346.76      4000.41      12195.0      20382.6      39661.8     -1.00000
      790.000      531.000      91.2777      413.332      1234.37      3802.88      11976.9      20422.4      39800.5     -1.00000
      927.000      538.000      72.6736      404.025      1273.42      2309.61      12018.7      20822.8      39789.5     -1.00000
      313.000      591.000      98.0583      372.635      1154.98      3637.97      11573.7      19929.9      39803.8     -1.00000
      576.000      165.000      19.8323      366.591      1103.21      3424.07      10794.4      18797.6      39615.6     -1.00000
      462.000      563.000      117.908      364.945      1092.66      3475.12      11244.9      19282.2      39778.3     -1.00000
      950.000      928.000      162.145      329.926      1041.93      3391.57      11485.9      19955.3      39882.2     -1.00000
      894.000      182.000      24.2819      389.327      1179.20      3570.22      11316.2      19727.6      39563.9     -1.00000
      143.000      412.000      61.4465      383.371      1165.07      3541.79      11092.4      19221.7      39571.7     -1.00000
      830.000      543.000      76.2149      417.665      1214.80      3656.15      11460.5      19584.6      39541.8     -1.00000
      702.000      109.000      7.29471      378.772      1149.34      3565.92      11051.1      19012.5      39345.0     -1.00000
      193.000      369.000      26.6440      372.523      1154.94      3360.13      10720.6      18741.3      39385.7     -1.00000
      851.000      931.000      174.371      361.009      1068.72      3412.64      11009.6      19102.9      39608.1     -1.00000
      430.000      52.0000      14.5902      83.2269      151.703      264.423      422.200      4652.39      39107.8     -1.00000
      161.000      741.000      113.213      379.000      1128.80      3479.28      11115.4      19259.5      39376.7     -1.00000
      154.000      477.000      69.0205      380.364      1067.04      3250.99      10394.4      18233.9      39250.5     -1.00000
      607.000      135.000      17.3461      401.899      1239.84      3681.74      11441.2      19504.7      39080.2     -1.00000
      592.000      648.000      119.252      357.659      1070.44      3322.83      10293.7      18369.8      39156.1     -1.00000
      450.000      387.000      36.3761      393.561      1137.54      3560.66      11168.3      19124.9      38884.1     -1.00000
      578.000      276.000      42.0527      374.191      1208.34      3639.66      11271.0      19290.7      38837.0     -1.00000
      754.000      456.000      57.7111      382.988      1229.95      3739.97      11669.4      19767.1      38853.8     -1.00000
      16.0000      553.000      43.6227      339.805      1068.37      3473.30      11029.7      19043.9      38893.8     -1.00000
      139.000      275.000      37.1688      350.007      1116.11      3429.98      10770.0      18762.1      38760.7     -1.00000
      325.000      627.000      104.264      349.392      1034.33      3245.44      10041.8      17985.7      38519.6     -1.00000
      197.000      559.000      95.0353      390.135      1114.37      3418.95      10826.1      18949.7      38818.4     -1.00000
      527.000      916.000      196.307      358.643      1013.21      3265.41      10734.6      18727.7      38937.6     -1.00000
      419.000      5.00000      5.96630      399.135      1214.72      3622.31      11122.3      18957.3      38555.3     -1.00000
      226.000      345.000      36.7239      371.119      1153.25      3458.03      10814.2      18651.6      38663.3     -1.00000
      4.00000      766.000     -8.46565      212.978      826.016      2931.93      10035.9      17659.1      38514.9     -1.00000
      303.000      254.000      34.4168      397.477      1173.49      3603.15      11068.0      18796.5      38292.6     -1.00000
      56.0000      549.000      72.6107      367.154      1111.57      3309.24      10710.9      18629.6      38305.8     -1.00000
      761.000      313.000      39.5435      375.394      1182.71      3620.80      11084.9      18986.9      38193.3     -1.00000
      504.000      22.0000    -0.249044      334.708      1050.00      3185.80      10103.8      17463.2      37197.8     -1.00000
      408.000      378.000      62.0531      174.142      336.217      544.496      964.541      1386.52      38133.5     -1.00000
      443.000      545.000      90.9651      336.517      1002.17      3076.19      9805.03      17155.8      36350.4     -1.00000
      399.000      114.000      26.3060      358.633      1093.15      3319.18      10408.2      17969.8      37958.8     -1.00000
      235.000      586.000      105.763      333.056      1011.25      3087.14      10057.7      17646.4      38149.4     -1.00000
      1011.00      854.000      131.928      336.898      1004.04      3083.62      10338.4      18291.2      38243.7     -1.00000
      452.000      861.000      172.414      332.525      995.861      3053.74      10042.9      17714.5      38226.5     -1.00000
      578.000      934.000      243.593      292.943      730.414      1982.32      6483.45      12721.7      38248.1     -1.00000
      227.000      743.000      130.010      337.856      1036.12      3180.91      10172.2      17913.5      38126.8     -1.00000
      819.000      986.000      180.892      325.454      920.264      3110.64      10408.7      18291.8      38167.0     -1.00000
      616.000      284.000      37.4521      357.088      1133.45      3377.01      10785.9      18579.4      37876.1     -1.00000
      920.000      777.000      138.231      349.268      1035.88      3140.03      10232.1      18064.4      38020.2     -1.00000
      967.000      337.000      32.7005      133.716      231.325      445.654      740.480      957.591      24019.4     -1.00000
      819.000      249.000      28.3904      348.798      1037.65      3270.13      10467.0      18088.4      37702.9     -1.00000
      801.000      778.000      147.303      362.355      1056.98      3332.91      11035.4      19087.4      37775.3     -1.00000
      178.000      989.000      202.026      332.392      935.983      2888.98      9656.54      17424.6      37841.4     -1.00000
      468.000      160.000      21.7220      304.856      942.425      2877.04      8872.85      15156.4      37452.4     -1.00000
      86.0000      316.000      49.1698      414.216      1225.58      3542.42      10764.0      18395.1      37487.3     -1.00000
      529.000      436.000      53.5054      342.154      1180.58      3315.70      8252.41      18362.5      37510.4     -1.00000
      113.000      815.000      151.874      360.886      1080.24      3409.74      10626.7      18404.6      37652.5     -1.00000
      661.000      759.000      133.831      350.397      1088.08      3422.66      10800.8      18609.4      37590.5     -1.00000
      777.000      947.000      176.902      322.180      937.147      2917.92      10235.1      18262.2      37647.6     -1.00000
      885.000      589.000      121.676      326.198      1010.48      3309.26      10502.3      18151.2      37452.6     -1.00000
      546.000      6.00000      4.37698      369.849      1138.12      3501.45      10664.7      18348.2      37111.9     -1.00000
      341.000      105.000      13.8763      366.481      1035.67      3246.05      10236.2      17710.4      37100.7     -1.00000
      206.000      628.000      117.101      319.627      945.931      2959.19      9685.20      17131.2      36976.4     -1.00000
      944.000      946.000      179.279      361.064      1031.72      3155.98      10177.6      17751.3      37405.8     -1.00000
      107.000      866.000      168.001      346.033      998.528      3080.27      9968.00      17551.6      37370.8     -1.00000
      231.000      456.000      67.9148      335.470      982.935      3098.07      9869.25      17288.9      37133.2     -1.00000
      362.000      515.000      80.1343      309.993      1088.30      3339.20      8362.45      18426.9      36988.7     -1.00000
      398.000      347.000      51.6406      378.302      1063.90      3152.79      10010.6      17535.1      36920.5     -1.00000
