PDS_VERSION_ID         = PDS3
RECORD_TYPE            = STREAM
OBJECT                 = TEXT
  PUBLICATION_DATE     = 2014-02-19
  INTERCHANGE_FORMAT   = ASCII
  NOTE                 = "NAC hot pixel file for epoch 2011.5."
END_OBJECT             = TEXT
END

NAC hot pixel list. Lines 1 and 2 are column headings giving exposure time 
(sec) and gain state (e-/DN), respectively, of source dark images. Starting 
on line 3, first two columns indicate x and y value of hot pixel; columns 3 
through N-1 give median electron counts for each exposure bin, and last (Nth) 
column contains either the index of the exposure bin where saturation first 
occurs, or -1 if no saturation.

\begindata
      0.00000      0.00000      0.00000      10.0000      32.0000      100.000      320.000      560.000      1200.00
      0.00000      0.00000      12.8410      12.8410      30.2700      30.2700      30.2700      30.2700      30.2700
      964.000      361.000      313.782      28683.9      78173.9      123448.      123434.      123424.      123419.      3.00000
      845.000      326.000      157.810      16017.4      48606.3      117674.      123427.      123419.      123428.      4.00000
      213.000      482.000      182.588      11457.1      36767.2      101941.      123420.      123448.      123424.      4.00000
      699.000      675.000      215.240      10668.8      34924.3      98113.1      123446.      123444.      123437.      4.00000
      996.000      931.000      217.496      10743.1      35024.0      97864.0      123446.      123433.      123437.      4.00000
      62.0000      49.0000      137.562      11733.1      35494.8      95589.7      123425.      123439.      123433.      4.00000
      268.000      74.0000      155.246      12784.9      37374.1      93019.6      123452.      123444.      123440.      4.00000
      98.0000      87.0000      125.900      9776.38      30367.8      81713.9      123419.      123439.      123432.      4.00000
      430.000      51.0000      116.326      10868.4      32135.7      81319.1      123419.      123435.      123434.      4.00000
      899.000      52.0000      113.002      10075.6      29941.0      75094.0      123418.      123434.      123429.      4.00000
      573.000      212.000      118.596      9013.33      29231.7      73401.9      123434.      123449.      123434.      4.00000
      37.0000      647.000      156.181      7707.03      24345.1      67576.7      123434.      123442.      123436.      4.00000
      859.000      357.000      83.6386      3817.89      12383.4      53679.6      123421.      123425.      123428.      4.00000
      599.000      452.000      104.152      6731.13      21129.0      60386.7      123422.      123445.      123429.      4.00000
      408.000      377.000      82.7971      5529.96      15570.6      52655.0      123406.      123441.      123439.      4.00000
      449.000      264.000      63.6734      5614.82      18051.5      52059.3      123438.      123432.      123426.      4.00000
      967.000      351.000      68.9419      4203.94      13571.1      42822.8      123423.      123444.      123425.      4.00000
      25.0000      684.000      145.512      4870.85      16192.1      48455.0      120456.      123441.      123428.      5.00000
      117.000      230.000      74.0856      5765.29      17799.9      49946.1      118450.      123423.      123421.      5.00000
      776.000      573.000      134.311      4293.41      13969.3      42449.6      111770.      123442.      123432.      5.00000
      967.000      336.000      74.8213      5010.24      16032.3      46326.3      113856.      123428.      123427.      5.00000
      936.000      998.000      203.776      5820.03      18965.9      53988.3      119617.      123431.      123441.      5.00000
      149.000      356.000      65.8200      4985.76      16477.8      47660.6      113968.      123432.      123427.      5.00000
      984.000      295.000      48.3256      4147.72      14159.1      42024.6      107650.      123423.      123436.      5.00000
      843.000      421.000      74.9546      3813.41      12842.2      39206.4      104841.      123428.      123430.      5.00000
      632.000      885.000      184.562      3542.71      12283.5      38496.7      103598.      123427.      123429.      5.00000
      544.000      256.000      55.3479      3111.36      9821.39      30754.9      96709.7      123419.      123426.      5.00000
      549.000      905.000      202.078      3783.93      13092.1      40488.8      104339.      123445.      123438.      5.00000
      910.000      336.000      68.5136      3245.55      10704.2      32996.3      97630.1      123428.      123427.      5.00000
      345.000      213.000      62.1548      5128.59      16062.7      44830.3      106194.      123450.      123433.      5.00000
      401.000      634.000      127.970      3546.20      11603.6      36554.9      99170.4      123437.      123437.      5.00000
      689.000      807.000      179.919      2643.09      9045.56      30213.3      93209.6      123443.      123437.      5.00000
      123.000      79.0000      53.9953      4607.49      13878.3      38829.8      99345.6      123444.      123440.      5.00000
      242.000      621.000      162.910      2883.55      9894.27      31705.9      93813.0      123429.      123425.      5.00000
      842.000      1000.00      202.333      3726.90      12363.3      37672.9      95739.4      123435.      123443.      5.00000
      578.000      312.000      78.2201      4651.01      14549.1      41665.6      98139.2      123437.      123425.      5.00000
      634.000      10.0000      46.4268      3802.98      11838.0      34830.1      91594.5      123442.      123435.      5.00000
      239.000      141.000      54.8952      3475.25      11186.7      33237.5      90267.2      123440.      123441.      5.00000
      581.000      381.000      62.1346      2567.34      8600.97      27404.2      85426.3      123439.      123429.      5.00000
      157.000      741.000      159.544      3138.90      10876.9      33511.4      90182.2      123443.      123430.      5.00000
      202.000      885.000      180.061      2309.97      8097.00      26661.7      84426.7      123427.      123429.      5.00000
      711.000      498.000      107.853      4837.84      15446.4      42850.9      96992.1      123426.      123426.      5.00000
      530.000      805.000      169.049      3149.22      10380.4      32074.5      88465.9      123440.      123437.      5.00000
      774.000      785.000      167.328      3068.28      10566.3      32692.8      89520.4      123428.      123426.      5.00000
      466.000      982.000      192.942      2766.70      9739.54      30824.0      86682.5      123434.      123429.      5.00000
      745.000      319.000      59.7214      2978.11      9579.62      29969.2      83071.0      123255.      123435.      5.00000
      964.000      360.000      33.5923      75.5684      155.571      228.741      44427.4      109312.      123423.      6.00000
      729.000      475.000      73.6644      3175.91      10526.9      32888.7      81434.6      123438.      123429.      5.00000
      874.000      134.000      29.5403      2285.76      7445.80      23319.5      73256.7      123433.      123431.      5.00000
      380.000      2.00000      29.8640      2116.68      6775.39      21355.7      69020.3      118937.      123433.      6.00000
      380.000      1.00000      32.7159      2253.06      6925.00      21478.0      68793.6      118571.      123433.      6.00000
      147.000      68.0000      27.3717      2746.60      8790.61      26552.7      76344.8      120498.      123438.      6.00000
      3.00000      473.000     -62.9068      1613.28      5960.75      20118.2      65481.2      112807.      123428.      6.00000
      181.000      823.000      165.880      1604.62      5662.26      18533.2      61250.0      107413.      123433.      6.00000
      523.000      169.000      49.2274      3185.85      9960.64      29274.5      80344.3      120661.      123436.      6.00000
      900.000      403.000      47.2893      2868.02      9514.74      28829.6      62309.8      106759.      123432.      6.00000
      285.000      111.000      35.7823      3481.55      10707.9      31454.0      82801.5      121420.      123440.      6.00000
      18.0000      679.000      144.994      2628.99      8956.20      27700.4      78106.3      117492.      123419.      6.00000
      1008.00      692.000      138.964      2250.96      7667.00      24247.6      72545.7      112823.      123422.      6.00000
      305.000      696.000      123.214      2318.02      7000.97      24334.2      69557.4      109664.      123436.      6.00000
      92.0000      413.000      54.5830      2397.62      7799.27      24616.7      70405.1      110078.      123434.      6.00000
      16.0000      444.000      85.8179      3364.12      11211.9      33120.6      84516.6      119994.      123429.      6.00000
      462.000      84.0000      31.2334      2690.51      8570.96      25931.5      72873.5      111061.      123426.      6.00000
      744.000      647.000      126.800      2531.96      8302.24      25927.6      72619.1      111160.      123436.      6.00000
      552.000      694.000      133.032      2015.23      6813.13      21843.5      64403.2      105207.      123428.      6.00000
      444.000      692.000      144.096      2186.61      7474.28      23701.2      69430.6      108531.      123422.      6.00000
      120.000      68.0000      17.1570      2464.22      7578.90      23339.2      67502.6      105391.      123438.      6.00000
      1000.00      337.000      43.3399      2467.40      7954.43      24514.6      69051.6      106498.      123425.      6.00000
      762.000      386.000      55.0692      2271.10      7712.28      24085.7      68746.5      106212.      123422.      6.00000
      647.000      265.000      27.5196      2649.18      8363.05      25383.6      69118.1      106288.      123428.      6.00000
      542.000      824.000      149.697      1738.66      6160.15      20403.9      63387.9      101959.      123435.      6.00000
      402.000      382.000      55.3274      2598.45      8421.34      25896.3      71627.6      107453.      123426.      6.00000
      681.000      578.000      109.523      2355.05      7887.21      24503.4      69416.5      105822.      123425.      6.00000
      411.000      683.000      149.211      1798.29      6126.13      19519.3      60961.3      99522.9      123425.      6.00000
      956.000      727.000      146.704      2024.06      6972.82      22343.7      65307.0      102509.      123433.      6.00000
      487.000      880.000      188.335      2207.02      7901.98      24803.7      69888.5      105552.      123428.      6.00000
      758.000      44.0000      33.0701      2440.16      7739.77      23303.3      65684.4      101618.      123441.      6.00000
      391.000      888.000      199.003      3225.63      10800.3      32030.8      80106.8      112495.      123435.      6.00000
      3.00000      884.000      8.90988      1456.28      5530.71      18873.3      59252.3      96520.2      123426.      6.00000
      738.000      875.000      183.508      2041.30      6928.49      22590.5      66506.6      101684.      123438.      6.00000
      817.000      592.000      135.066      2194.46      7542.31      23793.0      66070.3      100333.      123425.      6.00000
      919.000      199.000      29.9217      2218.56      7166.47      21941.0      62777.5      97606.3      123440.      6.00000
      236.000      340.000      65.3813      3086.85      10354.7      27848.6      76318.5      106917.      123437.      6.00000
      708.000      520.000      95.8892      1696.60      5450.69      17834.0      55665.4      91455.3      123423.      6.00000
      847.000      345.000      48.7381      2032.67      6826.23      21375.1      61737.5      95730.6      123434.      6.00000
      795.000      80.0000      34.2718      1893.76      6113.26      19077.0      57430.5      92440.0      123436.      6.00000
      76.0000      1017.00      169.348      1764.39      6331.76      21324.9      63518.1      97267.6      123429.      6.00000
      242.000      194.000      51.5104      2143.64      6920.31      21199.2      60911.9      94839.2      123432.      6.00000
      19.0000      1018.00      177.658      1558.40      5603.28      18618.2      57834.5      92970.1      123430.      6.00000
      996.000      930.000      123.392      117.161      186.251      286.788      5272.27      54693.7      123436.      6.00000
      491.000      588.000      124.724      1977.94      6660.85      20782.4      60528.3      94518.3      123434.      6.00000
      223.000      273.000      30.8372      1717.50      5451.57      16954.6      54071.4      89575.2      123441.      6.00000
      844.000      950.000      165.169      2248.14      8196.72      26075.2      69663.8      101042.      123431.      6.00000
      940.000      335.000      40.5484      1999.47      6567.75      20819.7      60002.2      93271.4      123431.      6.00000
      771.000      412.000      49.6885      1649.87      5404.09      17733.3      53125.4      87926.0      123431.      6.00000
      507.000      210.000      42.6535      1703.69      5600.94      17359.6      50123.5      85792.4      123439.      6.00000
      813.000      953.000      185.384      1952.55      6776.36      21895.2      62251.9      94375.9      123434.      6.00000
      484.000      945.000      154.411      1518.05      5233.92      17477.5      54352.1      88439.9      123429.      6.00000
      588.000      243.000      34.4586      1828.02      6052.10      18691.5      55280.0      88736.1      123441.      6.00000
      62.0000      48.0000      14.4889      62.3727      108.113      181.104      317.461      48187.2      123430.      6.00000
      335.000      245.000      37.7790      2123.52      6985.95      22049.1      61054.4      91953.0      123445.      6.00000
      277.000      703.000      145.434      1557.64      5182.45      16957.5      53438.0      86558.6      123434.      6.00000
      307.000      107.000      35.9804      2031.29      6349.00      19420.5      55316.3      87035.7      123430.      6.00000
      580.000      531.000      108.183      1915.51      6381.41      19902.9      57479.6      88728.4      123431.      6.00000
      166.000      840.000      174.533      1287.34      4580.87      15409.3      48381.2      82256.3      123425.      6.00000
      945.000      197.000      32.2535      2224.04      7153.23      21413.4      58683.2      88773.1      123436.      6.00000
      858.000      355.000      38.6371      1609.46      5507.88      17522.4      53277.8      84862.5      123427.      6.00000
      232.000      45.0000      24.1809      1920.89      6096.12      18493.2      53108.0      83999.9      123439.      6.00000
      197.000      16.0000      50.4473      3696.73      11265.6      31029.6      71651.0      97466.9      123438.      6.00000
      303.000      118.000      28.1340      1912.71      5954.40      18283.0      52560.9      83468.0      123425.      6.00000
      109.000      497.000      89.8347      1387.24      4510.06      14514.7      46401.9      78760.7      123419.      6.00000
      3.00000      19.0000     -152.744      1672.28      5550.54      17347.6      51505.4      81751.9      123424.      6.00000
      814.000      545.000      111.695      1561.45      5207.69      16663.2      50736.4      81238.3      123423.      6.00000
      615.000      474.000      124.011      3949.73      12955.7      39601.0      99395.1      116535.      123426.      6.00000
      703.000      632.000      102.606      1439.49      4912.16      15828.8      48669.8      78967.1      123440.      6.00000
      417.000      152.000      39.5708      1908.93      6064.90      18353.6      51815.9      80205.0      123425.      6.00000
      963.000      850.000      149.021      1215.91      4165.73      13568.2      44110.7      74642.0      123430.      6.00000
      505.000      470.000      74.5431      2697.93      8509.76      24952.0      62636.5      87860.9      123412.      6.00000
      359.000      241.000      44.6448      2129.14      6965.78      19760.1      54190.0      81303.8      123437.      6.00000
      264.000      101.000      26.9454      1491.20      4947.15      15049.8      46036.4      75258.6      123431.      6.00000
      719.000      958.000      190.051      1470.45      5102.10      16902.1      49743.9      78317.6      123437.      6.00000
      757.000      317.000      48.2605      1826.92      5911.84      18034.2      51258.4      78944.0      123429.      6.00000
      96.0000      767.000      141.076      1529.44      5015.07      15751.9      47351.0      75926.6      123432.      6.00000
      701.000      305.000      41.9102      1452.69      4845.25      15079.7      46181.5      74796.9      123433.      6.00000
      87.0000      156.000      38.3080      1488.10      4732.32      14697.9      44175.4      73169.7      123427.      6.00000
      210.000      160.000      42.8705      2162.46      6757.79      19786.7      53295.2      79739.8      123436.      6.00000
      798.000      803.000      154.577      1307.94      4585.68      14940.9      45986.5      74637.7      123434.      6.00000
      93.0000      236.000      50.0272      1375.26      4409.33      13727.0      43049.1      72091.8      123436.      6.00000
      617.000      756.000      131.587      1354.18      4375.77      14342.4      44859.4      73495.6      123435.      6.00000
      435.000      576.000      89.6002      1445.29      4813.25      15134.4      45734.3      73712.6      123436.      6.00000
      144.000      141.000      20.3613      1865.26      5811.18      17396.7      48810.2      75733.8      123441.      6.00000
      774.000      911.000      160.894      1530.79      5098.85      16104.2      47268.0      74730.8      123428.      6.00000
      977.000      227.000      21.5742      1173.05      3777.92      12187.1      39176.8      68256.8      123426.      6.00000
      667.000      246.000      50.0885      1436.98      4743.52      14947.5      44628.0      71543.2      123444.      6.00000
      428.000      800.000      161.860      1273.63      4277.52      13995.4      43542.1      70769.8      123436.      6.00000
      730.000      65.0000      14.8997      1378.22      4549.13      14152.7      42800.2      69818.8      123436.      6.00000
      624.000      893.000      179.258      1296.88      4367.79      14221.0      43465.0      70333.4      123411.      6.00000
      0.00000      233.000     -286.391      1140.14      4340.36      13694.2      41631.1      68616.3      123430.      6.00000
      329.000      799.000      156.512      1024.82      3363.71      11189.2      37582.9      65743.9      123439.      6.00000
      578.000      933.000      190.272      1016.08      3426.04      11400.7      37483.7      65456.7      123430.      6.00000
      699.000      676.000      118.554      320.474      568.206      1048.06      5770.21      40889.1      123431.      6.00000
      90.0000      431.000      48.3293      1000.90      3250.01      10525.4      34034.4      59599.7      123437.      6.00000
      173.000      263.000      23.7317      1234.13      3868.32      12469.3      36942.2      59854.8      122306.     -1.00000
      857.000      398.000      50.9502      1690.93      5372.39      16561.3      47820.0      74151.8      121625.     -1.00000
      168.000      851.000      184.864      1602.10      5790.66      18026.7      50713.8      76579.7      122008.     -1.00000
      606.000      56.0000      23.9455      1083.53      3458.93      10840.0      34185.4      59035.4      120941.     -1.00000
      204.000      956.000      187.431      1508.52      4914.34      15687.5      46320.8      72827.7      121233.     -1.00000
      191.000      582.000      106.106      1367.08      4563.93      14501.4      43479.6      69636.7      120488.     -1.00000
      804.000      684.000      126.357      1648.13      5297.45      16520.2      47991.8      74616.0      120346.     -1.00000
      325.000      995.000      187.646      986.673      3402.77      11491.6      37575.5      63853.6      120540.     -1.00000
      333.000      40.0000      25.9164      1076.96      3422.70      10555.5      33020.8      57297.9      118597.     -1.00000
      685.000      522.000      81.1072      899.596      3092.67      10219.4      33672.5      58265.7      119176.     -1.00000
      173.000      726.000      149.279      1325.56      4613.65      14693.7      43722.1      69690.5      118547.     -1.00000
      901.000      885.000      167.220      988.169      3254.56      11205.8      36980.6      62885.6      118300.     -1.00000
      500.000      704.000      149.908      1068.55      3612.53      11819.2      37185.8      62296.3      117960.     -1.00000
      454.000      817.000      154.799      1165.71      4035.56      13069.4      40407.4      65938.7      117782.     -1.00000
      947.000      376.000      39.5565      1336.90      4427.69      13831.8      41495.9      66422.6      117032.     -1.00000
      604.000      65.0000      18.6380      1288.33      4125.95      12294.4      37827.7      62742.0      115955.     -1.00000
      949.000      926.000      154.789      951.051      3273.71      10708.1      34814.5      60063.0      116400.     -1.00000
      873.000      878.000      171.724      944.743      3399.92      11819.4      37778.7      61732.5      116169.     -1.00000
      553.000      635.000      116.105      926.830      3010.17      9929.86      32390.7      56137.9      115703.     -1.00000
      586.000      516.000      77.5385      1183.08      3675.06      12207.2      37173.2      61625.4      114899.     -1.00000
      394.000      206.000      36.5501      1101.93      3492.69      10689.5      33811.8      57395.3      113100.     -1.00000
      686.000      238.000      29.6348      1629.02      5315.20      16150.1      47286.9      73465.8      112816.     -1.00000
      964.000      362.000      87.5875      305.647      558.680      956.842      20273.8      42697.2      112734.     -1.00000
      996.000      932.000      186.796      354.911      642.613      1185.49      7282.67      29213.2      113281.     -1.00000
      1019.00      474.000      57.6442      993.818      3359.19      10884.9      34600.1      58809.2      112715.     -1.00000
      117.000      577.000      108.668      982.476      3133.39      10101.5      32692.5      56164.5      111973.     -1.00000
      807.000      287.000      30.7634      1083.85      3578.10      11384.5      35651.3      59283.2      111155.     -1.00000
      425.000      546.000      89.4548      971.081      3356.46      10832.8      34361.8      58189.3      111148.     -1.00000
      802.000      40.0000      24.3754      1368.49      4384.01      13711.8      40118.5      63593.8      110122.     -1.00000
      939.000      375.000      34.0618      1120.60      3843.40      12134.2      37877.6      62244.6      110334.     -1.00000
      566.000      332.000      37.8664      1127.28      3761.86      11850.8      36064.1      59251.6      109160.     -1.00000
      793.000      30.0000      13.3806      928.873      3014.06      9389.39      29758.1      51771.5      107703.     -1.00000
      198.000      686.000      110.424      1076.03      3565.05      11517.2      35171.6      58356.0      108055.     -1.00000
      483.000      824.000      131.632      985.574      3404.67      11356.1      38024.1      62365.1      108182.     -1.00000
      624.000      334.000      30.4558      1225.42      3952.99      12202.3      36835.3      60189.9      107270.     -1.00000
      5.00000      322.000     -72.5468      925.258      3374.66      10727.8      33393.8      55957.4      107223.     -1.00000
      946.000      960.000      164.464      717.932      2617.36      9126.75      29210.1      50935.7      28323.0     -1.00000
      97.0000      327.000      46.0161      1118.98      3659.27      11218.8      34633.9      57513.2      107053.     -1.00000
      968.000      320.000      38.6553      1054.37      3539.78      10970.8      34145.9      56839.3      106939.     -1.00000
      290.000      246.000      49.2305      1350.39      4282.35      13204.5      39065.5      62877.7      106107.     -1.00000
      985.000      997.000      166.555      965.304      3319.84      11025.1      34493.5      57350.2      106958.     -1.00000
      378.000      749.000      128.461      867.541      2789.97      7663.55      29374.8      49176.5      105097.     -1.00000
      270.000      921.000      158.774      746.847      2498.75      8677.17      28896.0      50835.1      105202.     -1.00000
      845.000      863.000      335.612      879.155      2770.84      9148.60      30261.3      52633.6      104901.     -1.00000
      584.000      74.0000      19.3201      1204.14      5075.73      15634.1      35739.0      61819.2      103806.     -1.00000
      299.000      38.0000      30.9257      1299.86      4073.74      12241.0      35969.9      58169.9      103487.     -1.00000
      38.0000      667.000      94.0906      1056.36      3528.66      11712.9      36471.5      58825.3      104141.     -1.00000
      707.000      781.000      123.629      841.611      2801.06      9239.97      30391.1      52129.5      103951.     -1.00000
      268.000      491.000      220.728      867.237      2751.89      9068.98      28952.2      50381.0      103218.     -1.00000
      225.000      457.000      46.2723      891.926      2847.12      8907.20      28489.0      49284.8      102476.     -1.00000
      743.000      756.000      159.159      963.112      3225.82      10703.7      33884.2      55982.0      102009.     -1.00000
      771.000      492.000      98.7693      1247.15      3971.17      12204.2      36583.1      58548.4      101711.     -1.00000
      974.000      1018.00      172.308      749.241      2573.36      8882.32      29889.6      51806.4      102271.     -1.00000
      393.000      351.000      56.1008      1254.46      3962.68      12189.1      36137.2      60268.9      101072.     -1.00000
      823.000      46.0000      21.1981      1107.25      3589.33      11245.4      34309.1      56212.6      100613.     -1.00000
      480.000      948.000      167.126      1103.27      3891.67      12920.4      39149.2      61475.6      101569.     -1.00000
      445.000      920.000      160.820      1043.43      3696.57      12471.1      37771.3      59337.2      101446.     -1.00000
      47.0000      948.000      165.937      1090.87      3555.98      11672.7      36047.0      55626.3      101319.     -1.00000
      555.000      944.000      152.777      860.521      2916.98      9761.21      31569.3      53143.9      101121.     -1.00000
      417.000      843.000      174.923      824.428      2809.88      9762.71      31516.7      53444.2      100420.     -1.00000
      561.000      1015.00      205.100      820.074      2674.22      9236.74      30158.4      50968.8      100356.     -1.00000
      797.000      311.000      48.7469      1148.70      3750.89      11757.6      35251.7      57043.8      99542.8     -1.00000
      755.000      324.000      27.7050      926.344      2931.45      9429.72      29960.9      50884.0      99513.3     -1.00000
      247.000      466.000      52.0826      868.484      2764.73      8750.34      28159.9      48381.1      99609.3     -1.00000
      527.000      84.0000      18.3923      1245.66      3936.79      11808.2      34379.3      55485.4      99058.3     -1.00000
      496.000      951.000      208.485      1017.26      3317.94      10809.6      33512.1      54793.5      99666.4     -1.00000
      230.000      761.000      132.671      1040.99      3434.84      11112.4      34540.9      56298.1      99136.7     -1.00000
      737.000      32.0000      22.5798      1037.79      3365.93      10162.8      31094.7      52096.4      98091.1     -1.00000
      523.000      626.000      175.689      1058.26      3411.55      10829.4      33223.2      54280.7      97044.8     -1.00000
      1020.00      98.0000      17.4925      1006.03      3245.66      9949.06      31015.0      51582.4      96472.6     -1.00000
      973.000      430.000      41.4069      1012.38      3270.36      10308.8      31613.8      52074.1      96293.8     -1.00000
      372.000      83.0000     0.152010      892.441      2815.27      8628.77      27228.5      46867.4      95160.6     -1.00000
      826.000      781.000      132.142      843.653      2778.90      9028.26      29127.6      49737.5      95437.7     -1.00000
      544.000      255.000      40.2441      267.046      784.752      2271.14      6849.95      11998.3      94295.1     -1.00000
      715.000      202.000      30.9714      1063.24      3499.58      10588.8      31822.9      51780.6      94174.7     -1.00000
      228.000      238.000      29.6348      875.144      2684.55      8342.52      26648.8      45666.8      93442.3     -1.00000
      960.000      153.000      26.0525      970.805      3158.65      9954.62      30242.0      50110.8      93292.4     -1.00000
      62.0000      50.0000      38.7314      65.9420      140.343      239.422      4846.43      24664.4      93049.6     -1.00000
      342.000      36.0000      38.9274      1058.91      3246.44      9845.12      29669.5      49516.2      92896.9     -1.00000
      672.000      486.000      70.5842      750.553      2466.09      8067.34      26486.9      46102.1      93238.0     -1.00000
      471.000      142.000      28.4497      1179.21      3766.16      11590.5      34039.0      54223.7      92343.1     -1.00000
      956.000      9.00000      11.8398      964.761      3018.51      9155.97      28915.3      48538.0      92143.5     -1.00000
      948.000      551.000      77.6689      1037.60      3487.52      10411.4      31757.9      54591.6      92503.5     -1.00000
      387.000      837.000      179.979      835.875      2743.23      8828.22      27888.4      47541.5      92771.5     -1.00000
      1000.00      800.000      136.321      893.680      2893.37      9388.33      29777.0      49761.3      92684.6     -1.00000
      607.000      174.000      25.1567      1149.80      3603.13      11415.5      27888.6      47270.8      91896.6     -1.00000
      259.000      207.000      37.6454      1135.86      3711.39      11166.0      32963.6      52756.4      91925.9     -1.00000
      213.000      483.000      83.8946      246.313      440.811      811.696      4665.53      31175.9      91831.8     -1.00000
      127.000      368.000      48.0616      683.073      2150.56      6577.27      20433.7      49672.5      91631.2     -1.00000
      312.000      158.000      31.4404      927.602      2988.36      9327.29      28919.8      48642.8      90997.7     -1.00000
      1.00000      244.000     -237.856      636.821      2566.45      8548.31      27063.6      46016.5      90238.2     -1.00000
      380.000      16.0000      24.7653      988.938      3091.32      9384.73      28509.3      47501.2      89747.5     -1.00000
      707.000      40.0000      25.9164      909.860      2939.29      9027.05      27868.8      46676.9      89664.1     -1.00000
      365.000      275.000      32.6081      751.345      2531.35      8177.60      26168.0      44837.6      89706.6     -1.00000
      463.000      459.000      78.8864      814.119      2526.05      8183.98      26213.0      45367.5      89796.8     -1.00000
      604.000      508.000      60.9371      872.740      2855.68      9131.31      28344.2      47449.7      89802.0     -1.00000
      397.000      447.000      46.8311      943.016      3077.10      9658.28      29388.9      48260.7      88725.1     -1.00000
      553.000      979.000      181.498      738.247      2377.64      8078.40      26460.1      45258.2      88943.3     -1.00000
      576.000      320.000      35.9185      1064.50      3206.51      9946.68      30066.3      49169.4      88292.1     -1.00000
      424.000      78.0000      25.2604      952.074      2918.45      9031.41      27492.2      46175.4      87608.2     -1.00000
      855.000      422.000      37.6793      844.089      2279.61      8346.59      28127.0      45386.0      87385.8     -1.00000
      975.000      575.000      74.9351      949.933      3018.83      9605.91      29674.5      48346.1      87332.8     -1.00000
      43.0000      630.000      112.787      673.361      2105.87      7279.10      23357.6      41070.1      87150.7     -1.00000
      466.000      294.000      39.6326      883.513      2902.15      8892.87      27377.9      45498.6      86835.1     -1.00000
      747.000      167.000      27.1214      857.339      2810.44      8766.02      27160.4      45370.8      86634.1     -1.00000
      255.000      8.00000      17.5537      842.321      2624.46      8040.50      25032.0      42656.4      86072.8     -1.00000
      235.000      72.0000      23.6712      987.012      3060.28      9418.56      28381.2      46947.6      85964.5     -1.00000
      135.000      527.000      85.4579      810.894      2665.56      8427.72      26617.6      45045.3      85725.7     -1.00000
      705.000      164.000      24.4253      816.221      2734.77      8417.94      26220.2      44383.0      85358.6     -1.00000
      830.000      978.000      175.026      981.022      3089.23      9832.44      30309.2      49035.7      85632.8     -1.00000
      971.000      70.0000     -2.13032      965.926      3184.93      9691.16      29026.9      47143.9      84455.4     -1.00000
      387.000      799.000      147.694      884.528      2779.01      8818.87      27649.8      45833.1      85077.1     -1.00000
      592.000      399.000      39.7751      711.190      2213.94      7052.38      23031.4      40523.1      84658.7     -1.00000
      941.000      993.000      162.064      647.609      2005.29      6734.29      22566.6      40299.9      84851.7     -1.00000
      326.000      567.000      81.6695      890.544      2934.13      9223.02      28005.0      46374.6      84294.7     -1.00000
      88.0000      291.000      37.2138      1186.79      3789.63      10712.7      30412.1      47841.8      83835.1     -1.00000
      476.000      340.000      52.3522      903.996      2894.61      9073.35      27793.8      45711.6      83784.4     -1.00000
      148.000      39.0000      16.2200      864.089      2759.62      8554.30      26057.2      43622.0      83512.3     -1.00000
      691.000      97.0000      24.5196      835.701      2692.62      8094.66      25080.7      42579.6      83437.1     -1.00000
      144.000      995.000      196.358      869.027      2888.78      9201.17      28803.0      46932.0      84187.2     -1.00000
      828.000      434.000      59.1236      658.612      2080.08      6716.62      22034.1      38537.6      83525.0     -1.00000
      58.0000      589.000      85.4373      909.822      2919.68      9314.87      28552.6      46656.1      83266.5     -1.00000
      205.000      308.000      37.2152      781.531      2532.29      7775.59      24549.7      41949.4      82668.3     -1.00000
      345.000      537.000      83.4156      1048.53      3379.88      10580.5      31641.6      49595.7      82498.3     -1.00000
      453.000      511.000      69.8009      749.319      2404.89      7805.22      24780.1      42304.0      82360.8     -1.00000
      641.000      294.000      26.7916      447.924      2497.69      4237.68      18898.2      40112.0      81240.9     -1.00000
      816.000      880.000      175.494      706.618      2272.06      7489.26      24704.9      41924.5      80945.2     -1.00000
      394.000      500.000      81.2416      770.262      2486.97      7822.67      24465.9      40611.0      80274.0     -1.00000
      757.000      376.000      48.1469      852.521      2739.92      8382.85      25632.9      42473.6      79938.9     -1.00000
      940.000      122.000      10.7829      624.038      3736.05      6663.62      20150.3      34862.5      79620.6     -1.00000
      985.000      56.0000      16.4914      732.394      2407.93      7426.00      23700.8      40298.0      79554.4     -1.00000
      937.000      998.000      178.093      809.925      2619.78      8494.66      26270.0      43336.6      80003.7     -1.00000
      880.000      745.000      147.657      603.417      1876.27      6256.34      20988.7      37142.8      79607.7     -1.00000
      701.000      371.000      34.2828      847.921      2664.99      8348.03      25669.5      42316.7      79092.8     -1.00000
      207.000      732.000      135.992      743.963      2331.52      7610.08      24219.8      40891.9      78063.3     -1.00000
      760.000      486.000      51.7159      705.692      2310.33      7661.02      24634.4      41477.5      77770.0     -1.00000
      103.000      813.000      153.603      709.401      2275.34      7494.89      22736.6      37949.3      77711.7     -1.00000
      267.000      34.0000      13.1783      813.808      2538.56      7716.92      23647.3      39503.2      77053.3     -1.00000
      59.0000      749.000      112.656      605.693      1895.00      6192.79      20455.1      36075.6      77584.0     -1.00000
      116.000      913.000      179.500      842.453      2715.76      8817.23      26998.2      43904.8      77715.6     -1.00000
      608.000      453.000      67.9573      799.832      2468.53      7852.95      24323.9      40531.1      76617.5     -1.00000
      324.000      402.000      70.6881      802.580      2520.09      7762.14      23945.1      40012.9      76414.4     -1.00000
      704.000      185.000      25.1468      708.158      2197.36      6894.58      21598.4      37385.0      76040.2     -1.00000
      78.0000      174.000      15.6999      889.242      2865.74      8917.06      26379.7      42440.0      75701.2     -1.00000
      919.000      948.000      179.751      613.810      1954.69      6644.11      21927.1      38087.1      76242.2     -1.00000
      460.000      705.000      106.991      608.760      2035.42      6519.62      21930.3      37823.3      76024.4     -1.00000
      342.000      993.000      199.945      596.060      1761.70      5978.26      20069.1      35653.6      76236.7     -1.00000
      501.000      448.000      59.9585      738.397      2349.41      7607.97      24013.0      40268.5      75733.0     -1.00000
      377.000      986.000      181.964      771.918      2451.64      8073.81      25291.5      41838.5      76026.5     -1.00000
      488.000      921.000      169.782      710.216      2260.15      7302.38      23369.5      39727.9      75898.1     -1.00000
      232.000      737.000      173.078      720.759      2285.73      7263.36      23478.7      39388.2      75742.6     -1.00000
      497.000      161.000      19.7869      756.592      2285.02      7174.76      22239.2      38029.7      75275.0     -1.00000
      4.00000      985.000      23.9224      614.194      2359.55      8158.17      25687.1      42172.1      75837.9     -1.00000
      268.000      73.0000      1.70111      43.7271      108.725      219.942      295.817      18314.6      74889.5     -1.00000
      540.000      708.000      148.630      649.236      2142.41      6830.48      22136.8      37904.8      74619.8     -1.00000
      816.000      369.000      28.9239      579.716      1732.71      5570.96      18311.0      36538.8      74007.7     -1.00000
      831.000      59.0000      20.2285      887.035      2787.49      8572.12      25737.6      41414.0      73565.0     -1.00000
      301.000      21.0000     0.709225      901.185      2944.34      8447.35      24945.3      40185.7      73486.9     -1.00000
      64.0000      477.000      72.6583      668.377      2020.35      6256.88      20399.9      35262.3      73573.8     -1.00000
      785.000      572.000      86.9340      804.348      2460.28      8070.66      24744.3      40514.1      73209.5     -1.00000
      419.000      259.000      44.7032      818.863      2427.68      7512.61      22619.6      37862.2      72960.5     -1.00000
      198.000      518.000      73.4845      652.527      2014.34      6472.15      20352.2      35312.7      73005.7     -1.00000
      678.000      34.0000      22.7537      1119.07      3496.05      8262.99      24189.8      42800.8      72543.0     -1.00000
      824.000      260.000      27.9251      614.235      2010.11      6031.11      19496.2      33942.9      72350.1     -1.00000
      66.0000      64.0000      13.1462      651.281      2004.37      6273.07      19790.5      34158.9      72111.3     -1.00000
      694.000      17.0000      16.3812      755.290      2426.42      7227.13      22161.5      37220.0      71975.0     -1.00000
      680.000      284.000      38.6841      686.206      2090.39      6718.62      21155.4      36197.0      71954.1     -1.00000
      725.000      349.000      33.6837      630.037      2046.56      6444.47      20642.3      35566.0      71804.0     -1.00000
      254.000      617.000      104.329      847.778      2546.16      8037.30      24315.2      40055.9      71991.7     -1.00000
      319.000      267.000      25.1808      649.550      2162.78      6866.59      22406.8      36985.9      71083.8     -1.00000
      353.000      615.000      116.873      680.070      2148.17      6677.07      20814.5      35667.5      71085.3     -1.00000
      155.000      102.000      30.9915      809.157      2531.73      7787.76      23366.8      38337.2      70617.7     -1.00000
      373.000      655.000      131.625      745.996      2362.86      7528.63      23219.7      38443.4      70747.2     -1.00000
      764.000      394.000      36.1500      752.246      2384.04      7482.93      22817.4      37873.4      70318.2     -1.00000
      748.000      369.000      41.7650      678.453      2308.61      7636.19      23578.2      38167.3      70192.5     -1.00000
      280.000      381.000      47.9930      678.107      2128.92      6846.50      21323.4      35706.5      69627.2     -1.00000
      248.000      547.000      78.2458      589.255      1722.77      5445.29      18065.2      31666.7      68135.2     -1.00000
      331.000      756.000      157.269      744.814      2408.53      7672.46      23515.1      38394.5      69732.6     -1.00000
      177.000      830.000      125.073      639.763      2054.31      6662.87      21489.2      36110.5      69595.9     -1.00000
      582.000      634.000      89.4472      727.650      2349.96      7590.75      23166.7      38015.9      69418.1     -1.00000
      419.000      672.000      106.131      648.974      2088.88      6720.59      21476.9      36291.3      69376.5     -1.00000
      343.000      917.000      172.988      615.359      1997.58      6425.50      20957.6      35774.2      69539.4     -1.00000
      247.000      467.000      67.8424      597.285      1780.60      5322.21      17301.3      30897.8      69051.3     -1.00000
      32.0000      73.0000      14.5422      879.731      2819.70      8544.50      24784.5      39352.8      68736.6     -1.00000
      268.000      75.0000      40.7519      70.9708      156.621      311.663      891.890      15712.1      68533.6     -1.00000
      805.000      72.0000      15.3955      665.074      2106.39      6624.79      20458.7      34507.8      68509.1     -1.00000
      363.000      225.000      28.2769      593.633      1913.02      5902.73      18582.5      32456.1      68539.7     -1.00000
      566.000      215.000      29.2125      698.078      2205.02      6999.49      21141.0      35491.4      68206.8     -1.00000
      304.000      917.000      190.844      627.320      1911.02      6531.43      21164.2      35851.0      68710.5     -1.00000
      533.000      367.000      49.9708      653.978      2006.92      6334.47      20126.6      34406.6      68173.5     -1.00000
      227.000      664.000      119.073      731.726      2311.49      7518.37      20655.5      35680.9      68059.3     -1.00000
      280.000      559.000      102.439      677.870      2124.84      6971.99      21776.3      36021.2      67949.1     -1.00000
      460.000      592.000      112.482      615.122      1893.86      6054.65      19634.8      33605.8      67924.2     -1.00000
      731.000      536.000      88.0310      684.110      2200.98      7128.00      22013.8      36685.1      67852.6     -1.00000
      906.000      47.0000      5.63320      665.719      2076.74      6492.90      20641.4      34603.6      67363.5     -1.00000
      762.000      852.000      176.100      1724.70      5866.20      18492.6      43840.1      55182.7      67802.5     -1.00000
      725.000      239.000      22.2885      642.322      2135.37      6602.91      20700.3      34934.5      67275.8     -1.00000
      618.000      917.000      174.075      550.274      1699.13      5501.04      18323.2      32186.5      67269.0     -1.00000
      577.000      843.000      139.001      642.828      2048.12      6751.76      21196.8      35798.0      67156.6     -1.00000
      633.000      283.000      35.6922      560.196      1771.64      5659.47      18176.2      31848.4      66655.3     -1.00000
      707.000      553.000      88.1317      583.474      1845.65      5710.45      18683.0      32523.5      66505.7     -1.00000
      433.000      140.000      28.1441      602.801      1954.60      5824.73      18377.4      31968.7      66107.7     -1.00000
      1002.00      579.000      78.3514      536.032      1659.69      5355.12      17606.5      31074.2      66287.8     -1.00000
      712.000      768.000      133.688      606.787      1873.74      6007.20      19428.9      33547.3      66406.7     -1.00000
      341.000      573.000      122.811      609.137      1922.10      6368.58      20687.6      33356.3      66265.2     -1.00000
      149.000      961.000      259.502      554.809      1621.54      5470.82      18425.6      32618.2      66398.0     -1.00000
      724.000      209.000      26.3165      744.896      2468.85      7450.24      22308.6      36223.7      65637.6     -1.00000
      240.000      881.000      135.431      616.776      1920.96      6423.99      19920.4      33870.2      65943.2     -1.00000
      370.000      180.000      18.9356      704.315      2223.70      7003.56      21075.3      35060.2      65398.9     -1.00000
      300.000      692.000      128.812      620.149      1882.48      6036.36      19366.4      33283.9      65723.8     -1.00000
      784.000      648.000      104.885      568.492      1746.40      5754.11      19049.8      32748.3      65411.3     -1.00000
      939.000      311.000      37.0054      532.333      1749.27      5564.66      17860.7      31071.2      64967.3     -1.00000
      604.000      465.000      63.1617      623.407      1917.16      6133.46      19581.8      33351.1      64977.9     -1.00000
      55.0000      839.000      122.003      606.092      1905.86      6158.50      19873.2      34024.8      65155.7     -1.00000
      8.00000      1008.00      105.572      488.038      1716.16      5950.76      20109.8      33344.1      65171.9     -1.00000
      929.000      814.000      134.625      671.470      2182.21      7063.97      21895.4      35730.1      64822.8     -1.00000
      504.000      159.000      26.3152      607.476      2012.54      6142.76      16572.0      27889.2      64017.1     -1.00000
      967.000      352.000      46.0103      153.717      226.392      476.353      773.366      7999.71      64088.5     -1.00000
      238.000      860.000      142.990      561.345      1687.69      5394.86      17753.1      31043.8      64393.7     -1.00000
      31.0000      122.000      16.8102      573.186      1910.79      5815.16      18230.9      31229.4      63834.3     -1.00000
      288.000      310.000      37.2516      685.441      2133.95      6570.96      19891.6      32736.0      63924.9     -1.00000
      76.0000      699.000      120.127      588.944      1790.61      5866.32      18650.7      32050.5      64139.6     -1.00000
      213.000      481.000      68.7312      83.2381      140.617      215.968      400.348      19295.2      63739.7     -1.00000
      648.000      586.000      87.0650      520.849      1653.29      5161.49      17145.5      29652.6      63717.0     -1.00000
      208.000      503.000      83.2881      622.963      1905.59      5891.13      18235.7      31486.9      63480.8     -1.00000
      617.000      739.000      117.438      539.781      1769.90      5588.23      18385.8      31550.8      63482.6     -1.00000
      1000.00      375.000      34.0618      631.898      1941.92      6041.45      18954.3      32186.3      63195.2     -1.00000
      895.000      34.0000      26.0194      597.904      1950.03      5933.42      18516.1      31383.3      62876.3     -1.00000
      210.000      220.000      39.7669      706.069      2136.86      6465.02      19694.2      32995.1      62961.6     -1.00000
      942.000      96.0000      23.3426      706.979      2302.65      7156.28      21533.4      35076.3      62567.2     -1.00000
      548.000      884.000      173.717      563.561      1798.42      5709.70      18565.0      31830.9      63005.3     -1.00000
      158.000      65.0000      25.2964      560.351      1755.64      5077.36      21277.1      34512.3      62382.6     -1.00000
      825.000      317.000      27.8274      733.917      2158.25      6665.02      20354.6      33173.3      62538.4     -1.00000
      705.000      214.000      28.1786      528.235      1698.84      5241.80      16740.5      29366.2      62221.6     -1.00000
      533.000      446.000      55.3830      569.238      1739.71      5518.62      17509.9      30526.2      62142.4     -1.00000
      860.000      647.000      91.9754      568.474      1780.52      5886.18      18882.4      32060.1      61956.3     -1.00000
      715.000      894.000      181.285      525.317      1708.10      5720.62      18471.0      31517.3      61993.8     -1.00000
      18.0000      1007.00      151.976      533.245      1616.03      5122.76      16707.1      29153.2      20835.1     -1.00000
      777.000      92.0000      14.8351      620.452      1982.19      6206.27      18917.1      31818.1      61051.6     -1.00000
      365.000      875.000      175.148      521.750      1655.45      5509.40      18180.7      30998.5      61235.1     -1.00000
      652.000      646.000      101.652      566.832      1736.57      5705.05      17239.8      30340.7      60949.5     -1.00000
      699.000      674.000      108.594      70.7057      110.089      244.957      346.634      20349.5      60960.2     -1.00000
      803.000      749.000      138.338      598.441      1821.33      5947.72      18597.2      31270.0      60902.8     -1.00000
      531.000      500.000      51.7577      573.854      1712.65      5433.76      17291.3      29723.4      60689.0     -1.00000
      674.000      433.000      36.8086      459.456      1519.50      5087.47      16251.5      28410.4      60638.0     -1.00000
      566.000      807.000      162.403      600.718      1841.00      6066.19      19019.7      32057.4      60849.2     -1.00000
      265.000      973.000      163.630      511.860      1438.44      4828.32      16339.8      29064.2      60784.1     -1.00000
      815.000      457.000      53.8068      506.021      1629.63      5346.35      17056.4      29707.0      60405.7     -1.00000
      587.000      458.000      73.2577      519.921      1723.37      5427.66      17580.7      29793.5      60279.9     -1.00000
      985.000      14.0000      24.3667      558.333      1764.37      5375.90      16964.9      29095.2      59932.2     -1.00000
      986.000      410.000      59.3664      473.198      1480.00      4997.27      15928.5      27830.6      59909.5     -1.00000
      580.000      608.000      96.1191      605.173      1750.64      5463.33      17388.6      29584.5      60168.5     -1.00000
      1000.00      228.000      27.3085      598.610      1934.47      6004.96      18586.8      31413.9      59891.8     -1.00000
      166.000      826.000      155.140      537.956      1816.73      5876.05      18637.4      31282.0      60085.8     -1.00000
      13.0000      316.000      30.7181      492.581      1673.50      5167.85      16274.9      28423.1      59568.4     -1.00000
      720.000      263.000      33.7891      569.845      1670.76      5218.40      16398.1      28466.9      59521.0     -1.00000
      726.000      603.000      89.4830      596.596      1882.42      5962.04      18325.4      30878.5      59693.7     -1.00000
      355.000      891.000      173.125      536.090      1693.98      5337.91      17387.0      30019.8      59876.3     -1.00000
      873.000      466.000      60.0888      507.867      1648.04      5281.96      17116.4      29376.6      59604.8     -1.00000
      836.000      68.0000      10.2673      538.581      1715.51      5395.21      16741.9      28777.6      59340.7     -1.00000
      855.000      840.000      166.933      478.026      1428.50      4692.54      15467.3      27700.0      59798.2     -1.00000
      806.000      201.000      32.5547      701.818      2195.05      6858.34      19886.4      32961.1      59334.4     -1.00000
      369.000      243.000      34.4586      527.335      1595.77      5068.75      16172.3      28165.2      59350.9     -1.00000
      265.000      541.000      84.0254      596.774      1705.11      5422.97      17325.3      29839.2      59384.1     -1.00000
      641.000      90.0000      16.4450      509.700      1614.58      4878.24      15523.9      26794.8      57234.9     -1.00000
      317.000      537.000      79.7135      602.923      1903.52      6096.11      18865.2      31662.4      59182.9     -1.00000
      995.000      163.000      22.8764      573.692      1837.01      5690.61      17787.1      30128.3      58936.0     -1.00000
      741.000      807.000      162.403      520.061      1533.65      4907.62      16294.7      28399.5      59234.0     -1.00000
      530.000      183.000      35.1224      639.001      2005.38      6012.09      18295.0      30658.1      58768.2     -1.00000
      169.000      475.000      58.9969      530.788      1559.21      4966.92      15862.3      27755.4      58833.4     -1.00000
      166.000      511.000      83.9298      543.862      1813.56      6053.48      18492.5      30958.7      58680.6     -1.00000
      163.000      752.000      154.963      536.905      1671.29      5415.02      17449.1      29720.5      58695.7     -1.00000
      63.0000      21.0000      17.3802      647.281      1975.70      6007.32      18188.4      30357.7      58143.3     -1.00000
      698.000      968.000      181.073      535.240      1685.69      5515.53      17977.7      30605.2      58693.8     -1.00000
      37.0000      648.000      115.341      246.503      414.519      654.814      1192.06      4571.29      58279.7     -1.00000
      202.000      884.000      167.919      82.2886      118.340      215.592      328.110      369.507      58384.6     -1.00000
      500.000      143.000      17.1586      529.151      1662.89      5047.62      15830.1      27579.7      57847.5     -1.00000
      160.000      332.000      37.8664      573.399      1786.01      5517.32      17262.0      29496.4      57879.1     -1.00000
      239.000      362.000      23.3823      514.261      1604.17      5142.93      16483.6      29097.8      57822.8     -1.00000
      900.000      287.000      37.2907      591.772      1864.47      5744.88      17731.5      29868.4      57760.0     -1.00000
      630.000      606.000      120.475      512.048      1651.74      5145.56      16750.0      28791.4      57912.1     -1.00000
      403.000      6.00000      26.0319      563.315      1807.59      5642.77      17374.2      29325.3      57455.2     -1.00000
      798.000      984.000      178.041      485.907      1549.20      5121.19      16633.8      29095.6      57979.5     -1.00000
      100.000      807.000      124.958      453.298      1413.45      4582.96      15328.8      26977.1      57839.7     -1.00000
      132.000      518.000      63.9190      524.479      1560.20      4843.09      15695.9      27332.9      57659.1     -1.00000
      794.000      275.000      22.6431      597.652      1968.77      6289.09      18921.0      31098.9      57226.9     -1.00000
      420.000      202.000      18.7098      600.962      1865.45      5579.74      17375.8      29472.2      57124.5     -1.00000
      42.0000      261.000      39.4892      510.967      1496.30      4672.01      15291.5      26725.6      57097.3     -1.00000
      45.0000      536.000      85.2766      614.319      1835.81      5734.98      17624.0      29556.3      57155.2     -1.00000
      521.000      69.0000      14.0942      625.536      1948.58      5844.75      17893.4      29798.1      56576.7     -1.00000
      147.000      776.000      164.905      641.127      1925.64      6139.01      19959.3      33488.1      56905.7     -1.00000
      163.000      271.000      39.3196      577.119      1803.91      5609.74      17454.8      29487.6      56566.4     -1.00000
      452.000      407.000      43.8428      527.851      1638.18      5116.55      16348.4      28001.7      56597.4     -1.00000
      341.000      130.000      23.2010      592.238      1765.19      5538.53      17103.0      28925.0      56290.0     -1.00000
      142.000      570.000      84.7225      466.329      1472.59      4700.56      15327.5      26965.5      56492.4     -1.00000
      540.000      794.000      154.280      453.113      1412.45      4464.34      14710.7      25902.8      56601.0     -1.00000
      427.000      586.000      87.0650      460.501      1413.44      4495.25      15353.9      26834.6      56186.1     -1.00000
      191.000      207.000      14.4637      597.424      1827.97      5576.61      17101.8      29035.9      55931.8     -1.00000
      36.0000      611.000      108.740      486.119      1561.19      4772.10      15588.8      27276.8      56108.7     -1.00000
      213.000      193.000      37.2412      560.968      1631.11      5057.92      15988.7      27505.5      55724.9     -1.00000
      409.000      469.000      53.0433      658.823      1973.94      6130.70      18895.7      32025.3      55418.3     -1.00000
      766.000      378.000      33.5312      581.483      1749.76      5551.64      17278.8      28699.5      55358.8     -1.00000
      853.000      862.000      151.848      435.843      1411.48      4692.30      15639.8      27224.4      55558.3     -1.00000
      169.000      493.000      70.3224      605.601      1814.28      5665.88      17089.5      28791.8      55154.0     -1.00000
      486.000      402.000      45.0060      524.308      1677.48      5284.72      16580.3      28170.0      54983.5     -1.00000
      35.0000      358.000      34.5214      463.965      1453.85      4579.83      14800.6      25799.9      54856.2     -1.00000
      953.000      511.000      82.6420      488.439      1510.86      4811.80      15442.1      26777.2      54805.7     -1.00000
      679.000      373.000      41.9262      492.320      1570.43      5000.44      16027.0      27335.9      54695.2     -1.00000
      366.000      691.000      100.272      516.534      1585.32      5187.59      16398.5      27735.2      54813.1     -1.00000
      44.0000      957.000      177.755      504.179      1618.75      5252.93      16897.7      28604.7      54941.3     -1.00000
      871.000      177.000      17.0729      519.434      1577.12      4915.39      15250.1      26704.6      54467.3     -1.00000
      808.000      985.000      169.608      447.884      1410.12      4639.06      15570.5      26955.7      54780.3     -1.00000
      476.000      545.000      106.976      525.205      1570.24      4901.08      15781.3      27010.2      54519.7     -1.00000
      618.000      611.000      134.109      550.324      1577.04      4933.77      15742.3      27097.0      54375.4     -1.00000
      594.000      443.000      43.7240      506.152      1556.10      4937.31      15751.7      27160.2      54179.8     -1.00000
      37.0000      544.000      92.1581      524.307      1604.75      4961.83      14777.9      25860.7      54318.8     -1.00000
      417.000      297.000      42.4631      498.737      1596.45      4875.54      15371.0      26428.2      53855.0     -1.00000
      471.000      937.000      182.437      442.485      1348.25      4418.77      14379.1      25528.0      54123.4     -1.00000
      827.000      817.000      161.801      444.162      1344.68      4157.93      14061.0      24910.3      53940.1     -1.00000
      1023.00      24.0000      13.8370      565.042      1702.27      5085.36      15311.0      26481.0      53479.9     -1.00000
      960.000      233.000      32.3032      469.216      1574.16      4892.20      15652.5      26617.6      53381.0     -1.00000
      964.000      359.000      27.9245      67.6946      161.081      222.936      352.630      343.063      53374.3     -1.00000
      306.000      885.000      171.721      469.572      1418.08      4539.71      15005.8      26185.5      53566.2     -1.00000
      817.000      312.000      38.8913      546.279      1520.37      4703.59      14657.9      25472.2      53140.7     -1.00000
      301.000      102.000      8.76867      466.276      1502.79      4570.84      14423.4      25078.3      52760.9     -1.00000
      117.000      568.000      106.790      468.182      1424.39      4497.22      14703.5      25429.1      52947.4     -1.00000
      656.000      431.000      38.8502      533.736      1646.49      5161.53      15730.6      27556.3      52865.9     -1.00000
      364.000      287.000      30.7634      487.135      1490.68      4435.55      14007.4      24510.0      52219.4     -1.00000
      991.000      200.000      13.4428      481.729      1508.20      5064.66      15461.9      26426.4      52704.3     -1.00000
      674.000      317.000      30.6561      515.620      1552.96      5090.98      15691.8      26785.7      52607.5     -1.00000
      54.0000      947.000      171.780      447.383      1352.21      4554.57      15254.8      26298.4      52892.2     -1.00000
      219.000      272.000      21.1147      577.831      1720.02      5342.17      16390.7      27462.0      52402.7     -1.00000
      684.000      91.0000      18.5619      563.238      1695.19      5154.66      15797.8      26736.2      52278.9     -1.00000
      401.000      599.000      97.3293      497.257      1605.71      5085.12      15892.3      27025.5      52476.7     -1.00000
      994.000      518.000      45.9869      409.646      1321.80      4187.06      13847.5      24489.0      52131.0     -1.00000
      836.000      954.000      163.033      515.023      1491.76      4794.78      15437.2      26549.0      52211.6     -1.00000
      348.000      214.000      28.1786      585.389      1802.15      5455.48      16695.2      27502.0      51726.1     -1.00000
      904.000      7.00000      15.9380      521.562      1668.80      5108.62      15558.3      26281.2      51555.0     -1.00000
      527.000      645.000      135.780      474.188      1478.13      4561.08      14615.8      25401.5      51832.8     -1.00000
      437.000      816.000      134.184      445.109      1266.13      3976.92      13562.4      23954.0      51825.1     -1.00000
      544.000      257.000      32.3818      74.8353      182.228      333.843      579.814      763.304      51481.6     -1.00000
      107.000      714.000      134.572      471.799      1431.62      4475.13      14491.3      25175.2      51659.4     -1.00000
      12.0000      187.000      9.47918      446.833      1387.06      4422.26      14020.1      24235.9      51349.8     -1.00000
      828.000      435.000      56.8327      462.114      1436.06      4460.73      13881.6      24340.8      51479.5     -1.00000
      658.000      835.000      129.942      454.747      1359.49      4478.75      14856.3      25892.9      51559.7     -1.00000
      89.0000      698.000      129.646      485.647      1387.91      4278.17      14138.7      24586.0      51342.0     -1.00000
      1022.00      681.000      73.4945      473.341      1508.83      4805.84      15335.3      26149.5      51312.5     -1.00000
      154.000      477.000      83.5158      475.762      1354.41      4233.40      13629.6      23790.3      51113.4     -1.00000
      831.000      533.000      77.3394      575.753      1747.12      5725.92      17043.2      28546.5      51082.9     -1.00000
      531.000      270.000      30.8841      563.270      1781.64      5408.40      16205.6      26854.0      50790.4     -1.00000
      782.000      980.000      204.680      455.059      1396.88      4647.76      14916.8      25732.8      51166.8     -1.00000
      61.0000      145.000      10.6785      516.485      1567.94      4715.09      14822.7      25190.3      50584.4     -1.00000
      898.000      710.000      104.183      415.967      1318.07      4110.26      13735.9      21772.0      50889.5     -1.00000
      587.000      104.000      26.9376      553.261      1833.15      5703.28      14682.4      30428.0      50519.6     -1.00000
      154.000      877.000      124.858      429.326      1292.30      4269.36      14115.1      24495.5      50879.9     -1.00000
      392.000      1015.00      183.882      432.077      1304.65      4186.18      14157.0      24554.5      50855.2     -1.00000
      58.0000      90.0000      19.5470      523.718      1579.26      4971.59      15274.9      25715.5      50267.3     -1.00000
      302.000      331.000      37.5211      483.145      1533.40      4496.68      14332.0      24624.9      50315.7     -1.00000
      453.000      128.000      17.5015      494.899      1525.28      4799.47      14808.4      25077.1      50180.8     -1.00000
      648.000      840.000      154.092      439.503      1335.21      4338.16      14391.6      24959.8      50372.8     -1.00000
      309.000      728.000      114.313      453.075      1342.82      4056.90      13381.9      23531.4      50282.3     -1.00000
      269.000      311.000      37.0054      532.333      1585.95      4898.41      15182.1      25695.0      49773.2     -1.00000
      834.000      758.000      111.588      430.802      1227.08      4067.76      13590.1      23763.9      49914.1     -1.00000
      666.000      487.000      81.5286      753.259      2396.46      4669.04      14470.4      24098.4      49738.2     -1.00000
      171.000      712.000      137.514      469.240      1430.03      4653.15      14824.7      25526.5      49773.7     -1.00000
      367.000      595.000      85.0597      427.904      1258.07      3965.98      12698.3      22393.3      47728.6     -1.00000
      132.000      959.000      150.371      487.904      1402.87      4371.47      13953.0      24183.0      49520.2     -1.00000
      64.0000      357.000      30.0828      552.180      1577.30      4852.07      15204.5      25437.4      48986.5     -1.00000
      532.000      774.000      172.103      414.448      1319.36      4235.88      13913.6      24136.4      49081.7     -1.00000
      540.000      245.000      39.0848      527.836      1568.83      4835.79      14566.2      24854.0      48738.2     -1.00000
      76.0000      322.000      41.0921      462.119      1408.38      4261.26      13728.5      23523.3      48711.9     -1.00000
      570.000      667.000      102.141      434.952      1257.38      4011.76      13345.5      23742.3      48868.5     -1.00000
      745.000      379.000      35.5438      507.818      1624.69      4552.99      15456.4      25246.5      48708.2     -1.00000
      628.000      211.000      22.5937      428.362      1358.82      4188.08      13072.7      22781.1      48474.4     -1.00000
      875.000      570.000      72.6483      459.726      1359.27      4153.98      13312.9      23303.1      48612.4     -1.00000
      487.000      441.000      34.6653      462.225      1402.60      4451.25      14052.5      24191.1      48493.3     -1.00000
      319.000      681.000      109.386      460.500      1406.46      4539.87      14609.4      24772.2      48545.8     -1.00000
      915.000      216.000      29.9062      464.285      1480.05      4578.42      14242.6      24223.4      48195.7     -1.00000
      659.000      1008.00      206.834      485.976      1461.84      4769.63      15310.5      25735.9      48583.0     -1.00000
      538.000      183.000      22.9821      524.682      1533.04      4567.03      14207.6      24220.8      48083.5     -1.00000
      456.000      25.0000      21.9653      501.197      1556.17      4598.10      14204.0      24070.7      47861.7     -1.00000
      725.000      913.000      181.920      394.436      1171.99      3722.39      12568.5      22372.2      48262.8     -1.00000
      940.000      801.000      148.095      431.988      1341.14      4252.25      14087.0      24094.1      48189.7     -1.00000
      901.000      931.000      156.218      402.054      1233.69      3876.85      12697.3      22642.6      48187.2     -1.00000
      642.000      131.000      17.2435      479.668      1460.24      4463.73      13803.1      23639.4      47508.3     -1.00000
      851.000      931.000      161.581      456.375      1278.08      4252.53      13474.7      23523.8      47883.9     -1.00000
      910.000      744.000      150.733      428.746      1355.05      4250.26      13910.9      23656.9      47719.3     -1.00000
      113.000      811.000      125.062      434.419      1380.97      4279.61      14078.1      24299.9      47661.7     -1.00000
      808.000      878.000      147.479      443.942      1316.89      4282.43      14117.5      23819.6      47678.5     -1.00000
      689.000      808.000      174.911      186.463      326.074      611.713      1187.17      1620.14      47611.1     -1.00000
      678.000      265.000      35.8439      479.442      1408.16      4682.85      14383.1      24331.6      47317.6     -1.00000
      440.000      705.000      134.647      390.462      1273.77      4035.63      13324.9      23172.7      47477.9     -1.00000
      671.000      412.000      42.4434      455.785      1413.90      4278.12      13777.0      23601.6      47288.8     -1.00000
      52.0000      221.000      27.1577      425.607      1310.95      3921.62      12778.4      22355.7      47151.2     -1.00000
      616.000      284.000      34.6896      467.908      1441.56      4540.41      14111.6      23723.3      47169.3     -1.00000
      740.000      488.000      69.6814      484.250      1520.55      4575.04      14259.1      24099.8      47229.1     -1.00000
      586.000      763.000      139.647      426.360      1224.82      3848.94      12971.9      22710.0      47321.5     -1.00000
      832.000      980.000      166.156      384.534      1082.41      3537.40      12198.7      21979.7      47289.7     -1.00000
      256.000      265.000      35.8439      467.554      1407.04      4334.56      13353.3      23060.1      46921.6     -1.00000
      931.000      603.000      98.1859      409.847      1362.52      4219.79      13362.9      23232.1      47047.2     -1.00000
      340.000      293.000      37.0936      472.159      1464.29      4327.61      13383.4      22801.4      46881.2     -1.00000
      642.000      631.000      134.218      422.673      1342.20      4206.16      13313.9      23304.8      47022.3     -1.00000
      643.000      399.000      33.2749      447.232      1370.43      4328.08      13665.6      23419.2      46826.3     -1.00000
      107.000      495.000      52.1019      457.267      1368.17      4187.63      13346.8      23182.7      46831.4     -1.00000
      561.000      19.0000      4.22936      421.172      1367.29      4097.30      12709.3      22108.7      46558.7     -1.00000
      718.000      886.000      152.751      423.339      1280.57      3954.97      13177.6      22924.6      46901.3     -1.00000
      142.000      502.000      78.0523      431.168      1283.41      4128.60      13352.0      23188.3      46615.2     -1.00000
      430.000      50.0000      25.4420      53.1549      128.640      213.564      292.284      505.313      46382.9     -1.00000
      280.000      814.000      158.599      401.808      1147.64      3781.09      12875.0      22483.6      46690.7     -1.00000
      805.000      354.000      41.9819      438.600      1318.28      4224.90      13411.3      22796.7      46378.9     -1.00000
      841.000      477.000      64.2590      443.552      1352.22      4230.61      13351.8      22967.9      45943.4     -1.00000
      771.000      550.000      80.5481      521.850      1558.81      4784.99      14501.2      24005.4      45849.0     -1.00000
      691.000      369.000      29.5054      444.677      1365.77      4335.96      13527.4      22977.9      45725.8     -1.00000
      997.000      477.000      44.9927      373.033      1129.38      3619.49      12053.7      21013.2      45520.3     -1.00000
      672.000      170.000      5.51912      431.611      1375.07      4125.10      12923.3      22300.6      45335.7     -1.00000
      512.000      796.000      125.974      411.108      1246.53      3961.68      12818.4      22481.8      45588.4     -1.00000
      613.000      477.000      72.6583      443.552      1321.95      4109.22      13007.7      22436.8      45372.9     -1.00000
      831.000      490.000      85.0079      441.657      1302.65      4001.55      12825.3      22142.5      45374.3     -1.00000
      853.000      142.000      15.6086      389.194      1267.27      3871.94      12358.6      21319.9      45161.3     -1.00000
      433.000      581.000      106.761      501.411      1435.19      4391.24      13749.1      23157.1      45203.4     -1.00000
      944.000      946.000      186.152      443.716      1279.72      3914.14      12525.1      21822.8      45326.5     -1.00000
      665.000      677.000      96.0274      419.775      1228.79      3923.70      12738.7      21888.1      45196.8     -1.00000
      754.000      456.000      48.1850      477.328      1432.58      4518.34      13901.3      23505.6      45085.8     -1.00000
      581.000      382.000      49.9335      148.516      280.352      469.203      798.645      1096.89      45016.1     -1.00000
      831.000      303.000      33.7930      400.709      1255.37      3877.09      12350.5      21553.8      44968.0     -1.00000
      685.000      433.000      30.3025      413.013      1348.19      4299.24      13539.9      22949.0      44997.3     -1.00000
      973.000      638.000      71.7933      360.023      1162.11      3698.20      11752.5      20625.3      45048.2     -1.00000
      98.0000      86.0000      2.98625      65.3646      118.899      201.292      285.768      456.450      44770.3     -1.00000
      375.000      676.000      113.385      430.661      1143.34      3544.59      11836.9      20680.3      45046.2     -1.00000
      972.000      729.000      96.6393      340.918      966.904      2908.12      10012.2      21919.2      45013.9     -1.00000
      162.000      446.000      47.1884      422.103      1271.33      4045.42      12740.5      21984.1      44834.6     -1.00000
      26.0000      620.000      101.577      380.232      1079.07      3509.58      11586.8      20457.6      44119.1     -1.00000
      722.000      70.0000      19.8205      426.603      1430.79      4556.70      14141.0      23982.8      44538.1     -1.00000
      1015.00      571.000      67.0713      346.499      1021.51      3316.70      11272.0      20035.4      43646.2     -1.00000
      169.000      790.000      140.268      445.124      1317.51      4048.98      12771.1      22020.4      44593.4     -1.00000
      584.000      704.000      118.976      396.601      1185.08      3556.68      11962.4      20868.4      44539.1     -1.00000
      443.000      935.000      150.362      375.184      1092.71      3777.09      12294.6      21422.2      44593.7     -1.00000
      513.000      432.000      35.7543      479.165      1491.40      4468.55      14033.2      23234.0      44351.2     -1.00000
      669.000      201.000      16.2491      444.997      1377.76      4224.24      13194.9      22387.6      44230.5     -1.00000
      662.000      1013.00      178.528      431.186      1285.73      3940.78      13016.2      22549.1      44257.8     -1.00000
      264.000      410.000      43.4437      422.893      1274.17      3890.45      12415.7      21463.8      43957.5     -1.00000
      954.000      716.000      113.458      430.261      1276.64      3899.35      12364.2      21536.1      44098.3     -1.00000
      504.000      22.0000      8.83802      376.378      1142.94      3577.74      11324.0      19600.0      41718.3     -1.00000
      951.000      965.000      164.441      398.060      1181.60      3910.03      12741.4      22085.8      44196.6     -1.00000
      689.000      806.000      117.898      93.3209      133.473      215.060      317.763      395.521      44103.9     -1.00000
      836.000      126.000      25.4173      418.552      1277.74      3961.35      12376.6      21286.8      43722.9     -1.00000
      916.000      390.000      37.6961      371.924      1151.08      3724.99      11907.6      21098.1      43825.9     -1.00000
      549.000      47.0000      2.67837      447.421      1329.42      4071.00      12406.5      21253.8      43568.9     -1.00000
      758.000      526.000      95.8667      376.559      1108.07      3583.62      11721.3      20401.7      43583.5     -1.00000
      1012.00      20.0000      8.43982      398.828      1221.80      3847.69      12176.0      21000.7      43341.1     -1.00000
      538.000      429.000      61.1123      407.621      1217.40      3769.61      11972.4      20742.0      43389.2     -1.00000
      12.0000      288.000     -1.57984      392.998      1251.06      3855.87      12135.2      20760.4      43157.1     -1.00000
      225.000      456.000      54.3349      375.322      1129.88      3395.31      10972.7      19356.8      43142.9     -1.00000
      346.000      986.000      176.253      373.846      1163.25      3702.06      12028.4      21346.9      43359.5     -1.00000
      913.000      54.0000      9.78009      404.973      1261.40      3936.68      12254.1      20886.3      42780.0     -1.00000
      673.000      846.000      156.354      329.591      1052.38      3249.29      11106.9      19865.0      43112.6     -1.00000
      430.000      52.0000      27.0261      85.6706      153.011      244.841      430.922      6584.43      42729.8     -1.00000
      589.000      219.000      29.0045      424.375      1308.42      4011.22      12636.3      21639.2      42805.9     -1.00000
      383.000      660.000      112.767      421.250      1242.25      3793.48      12107.7      21117.0      42964.3     -1.00000
      645.000      914.000      182.964      398.350      1082.68      3571.70      11517.8      20305.9      43023.7     -1.00000
      866.000      299.000      21.2058      383.858      1222.72      3704.98      11738.8      20450.4      42650.3     -1.00000
      489.000      340.000      39.8904      422.642      1258.77      3911.69      12326.5      21083.0      42627.1     -1.00000
      51.0000      722.000      132.472      412.761      1132.73      3519.01      11803.4      20491.6      42790.3     -1.00000
      311.000      421.000      49.2725      392.565      1223.71      3710.95      11975.6      20714.5      42577.5     -1.00000
      109.000      581.000      83.9630      403.870      1247.64      3753.86      11969.5      20597.7      42643.6     -1.00000
      291.000      273.000      30.7472      407.841      1213.47      3676.64      11606.9      20197.3      42322.2     -1.00000
      380.000      127.000      29.0042      471.710      1369.22      3859.10      12233.1      20042.6      42202.6     -1.00000
      1004.00      434.000      38.9332      435.056      1302.67      4051.58      12619.0      21212.4      42215.7     -1.00000
      506.000      432.000      48.5953      425.956      1253.87      3893.11      12102.4      20869.7      42172.9     -1.00000
      402.000      33.0000      15.6169      440.749      1276.07      3938.87      12111.8      20479.9      41978.6     -1.00000
      76.0000      195.000      13.4624      368.920      1079.29      3302.28      10427.6      18116.5      38496.1     -1.00000
      221.000      117.000      20.1047      439.188      1341.13      4115.52      12578.1      21117.5      41705.2     -1.00000
      1015.00      50.0000      6.46745      412.704      1283.36      4003.44      12481.0      21160.4      41628.7     -1.00000
      450.000      387.000      31.8059      410.324      1257.40      3804.50      12112.6      20576.4      41660.0     -1.00000
      823.000      205.000      22.7677      403.301      1179.94      3967.84      12504.2      20458.5      41551.6     -1.00000
      819.000      986.000      189.260      373.149      1059.22      3411.63      11397.5      19990.0      41886.1     -1.00000
      421.000      545.000      98.8541      461.408      1352.11      4294.47      13148.4      21938.7      41633.4     -1.00000
      202.000      776.000      126.382      394.236      1138.51      3708.98      11730.2      20456.1      41685.1     -1.00000
      267.000      526.000      105.704      440.764      1305.52      4008.61      12448.1      21031.9      41434.3     -1.00000
      807.000      472.000      66.3762      419.714      1256.37      3946.63      12439.3      21029.8      41323.0     -1.00000
      47.0000      551.000      68.9186      441.436      1151.69      3556.00      11461.0      20034.6      41310.3     -1.00000
      658.000      48.0000      19.0994      391.965      1197.79      3724.90      11556.5      19855.8      41066.2     -1.00000
      408.000      749.000      130.956      456.628      1276.47      3921.94      12493.2      21091.7      41336.8     -1.00000
      650.000      393.000      38.3371      420.426      1203.48      3665.62      11666.8      20045.2      41071.3     -1.00000
      46.0000      42.0000      32.9260      427.767      1243.69      3753.09      11447.7      19107.8      14184.0     -1.00000
      582.000      787.000      141.951      365.415      1143.79      3486.79      11146.7      19477.3      41056.0     -1.00000
      376.000      439.000      54.1261      367.145      1081.68      3425.93      11054.6      19468.7      40883.2     -1.00000
      667.000      344.000      31.7025      401.095      1246.72      3847.50      12122.4      20657.4      40742.1     -1.00000
      421.000      945.000      145.318      380.417      1035.27      3441.06      11192.7      19554.6      41000.9     -1.00000
      232.000      805.000      130.526      426.386      1243.62      3826.38      12025.0      20551.5      40895.0     -1.00000
      938.000      751.000      117.004      381.544      1097.84      3461.16      11480.6      19711.4      40731.5     -1.00000
      423.000      769.000      170.011      364.413      1046.70      3385.74      11114.6      19316.7      40654.9     -1.00000
      377.000      623.000      102.202      376.367      1092.24      3424.14      11208.4      19338.8      40558.2     -1.00000
      819.000      156.000      23.9928      332.404      1099.92      3515.75      11016.9      19305.5      40306.1     -1.00000
      353.000      787.000      137.193      388.080      1174.06      3684.04      11943.0      20256.7      40572.7     -1.00000
      616.000      67.0000      11.8709      342.903      1073.21      3237.02      10173.3      17726.9      37529.9     -1.00000
      806.000      581.000      72.9050      364.979      1071.95      3301.52      10699.5      18762.3      40128.1     -1.00000
      716.000      989.000      201.651      342.295      1052.62      3283.57      10704.4      19012.3      40452.3     -1.00000
      640.000      616.000      107.587      370.975      1071.66      3370.30      11120.1      19330.4      40263.8     -1.00000
      226.000      310.000      45.1583      376.864      1183.68      3525.16      11257.1      19298.8      40128.3     -1.00000
      59.0000      301.000      22.7375      449.936      1226.20      3867.53      11718.0      20087.5      40117.5     -1.00000
      758.000      412.000      40.5903      388.925      1106.05      3521.42      11442.7      19543.3      40125.2     -1.00000
      397.000      257.000      19.5408      387.892      1130.24      3392.85      10863.2      18900.3      39987.6     -1.00000
      437.000      817.000      166.078      376.471      1156.78      3456.79      10761.6      18683.3      40189.5     -1.00000
      790.000      531.000      74.4268      424.261      1229.00      3707.86      12234.8      20670.0      39971.4     -1.00000
      983.000      709.000      101.668      352.999      1049.46      3472.55      11439.9      19775.5      39994.8     -1.00000
      518.000      80.0000      14.1569      379.157      1141.38      3579.35      11187.4      19243.2      39599.8     -1.00000
      313.000      591.000      108.270      407.701      1167.25      3660.30      11695.2      19809.4      39790.6     -1.00000
      413.000      833.000      140.513      375.220      1092.41      3567.91      11431.5      20043.8      39881.4     -1.00000
      964.000      690.000      148.767      410.986      1183.13      3508.69      11282.8      19536.1      39754.8     -1.00000
      340.000      568.000      109.138      460.946      1310.29      3936.66      12295.3      20521.0      39675.1     -1.00000
      18.0000      1006.00      140.270      327.892      934.376      3095.52      10567.6      18833.3      13353.9     -1.00000
      894.000      182.000      22.4897      408.217      1258.62      3700.52      11183.0      19738.1      39420.9     -1.00000
      97.0000      550.000      93.3891      354.917      1013.95      3083.56      9667.73      16600.0      35011.5     -1.00000
      16.0000      553.000      65.1637      378.017      1130.65      3428.08      11150.6      19178.5      39355.0     -1.00000
      143.000      412.000      42.4434      373.530      1141.47      3507.00      11140.9      19100.4      39270.0     -1.00000
      431.000      160.000      23.2339      467.440      1437.84      4299.68      12855.2      21047.6      39059.8     -1.00000
      527.000      916.000      170.999      344.987      1035.71      3365.26      10906.2      19056.2      39270.4     -1.00000
      226.000      345.000      30.4134      374.305      1175.70      3480.22      10877.0      18660.4      38976.9     -1.00000
      197.000      559.000      140.708      388.206      1074.03      3395.33      11043.5      19005.2      39002.0     -1.00000
      830.000      543.000      90.4566      419.231      1210.83      3691.00      11429.4      19491.2      38990.6     -1.00000
      727.000      344.000      28.6515      413.936      1240.53      3756.39      11615.4      19960.6      38774.6     -1.00000
      592.000      648.000      92.0435      372.398      1095.80      2983.18      10515.5      17641.0      38841.7     -1.00000
      171.000      532.000      75.5028      395.568      1168.43      3673.49      11622.5      19419.1      38632.5     -1.00000
      399.000      114.000      22.2319      377.956      1079.73      3386.60      10480.0      18194.5      38399.6     -1.00000
      56.0000      549.000      89.8472      374.205      1156.51      3393.44      10804.3      18685.4      38540.8     -1.00000
      572.000      761.000      125.431      413.164      1134.19      3470.46      10958.7      19320.2      38587.6     -1.00000
      660.000      679.000      128.863      409.510      1146.22      3514.65      10800.8      18809.9      38531.0     -1.00000
      227.000      743.000      95.2255      336.089      1025.16      3270.84      10361.9      18051.6      38399.0     -1.00000
      304.000      42.0000     -1.53643      308.050      979.205      3071.01      9670.72      16649.0      35311.5     -1.00000
      896.000      260.000      40.7662      435.232      1307.40      3913.12      11844.1      19773.0      38117.4     -1.00000
      823.000      380.000      34.6256      332.427      1012.66      3128.94      9990.06      17331.0      37015.6     -1.00000
      651.000      359.000      31.3483      331.683      1001.93      3250.34      10309.2      17926.8      38058.3     -1.00000
      235.000      586.000      85.0468      341.074      1017.62      3130.16      10245.4      17917.1      38144.5     -1.00000
      101.000      878.000      147.479      353.660      1033.58      3152.84      10529.1      18370.2      38231.6     -1.00000
      885.000      589.000      77.3389      334.387      1031.76      3282.94      10758.6      18683.3      38086.9     -1.00000
      594.000      408.000      29.4235      378.432      1065.10      3300.76      10711.0      18437.0      38012.4     -1.00000
      786.000      257.000      18.3911      357.338      1029.79      3146.83      9986.02      17532.9      37750.8     -1.00000
      793.000      917.000      178.003      332.856      1044.92      3217.48      10327.2      18104.3      37986.5     -1.00000
      708.000      126.000      14.9286      357.541      1071.58      3280.43      10294.0      17814.2      37560.8     -1.00000
      113.000      815.000      132.481      380.051      1151.19      3358.39      10690.1      18393.3      37817.9     -1.00000
      1011.00      854.000      120.826      349.547      993.341      3026.42      10165.8      17976.9      37822.1     -1.00000
      819.000      249.000      31.7527      335.084      1046.96      3268.71      10611.7      18070.7      37565.4     -1.00000
      949.000      72.0000      13.1783      378.154      1164.64      3612.22      11000.0      18857.3      37493.4     -1.00000
      452.000      861.000      181.921      339.237      932.692      3034.89      9932.35      17663.7      37805.9     -1.00000
      837.000      987.000      152.528      349.321      954.536      2960.86      10003.9      17713.6      37830.4     -1.00000
      612.000      50.0000      24.3189      374.127      1139.25      3501.02      10961.3      18325.5      37408.0     -1.00000
      108.000      237.000      18.7347      384.654      1159.08      3395.11      10546.9      18121.2      37443.7     -1.00000
      375.000      279.000      28.3954      374.878      1065.19      3363.09      10411.0      18142.2      37437.4     -1.00000
      574.000      718.000      117.942      342.557      980.618      2923.74      9817.34      17396.8      37583.1     -1.00000
      529.000      436.000      57.0389      283.445      713.564      1917.47      5880.12      18442.1      37465.1     -1.00000
      546.000      6.00000      21.9845      357.858      1111.38      3509.53      10687.0      18274.9      37232.8     -1.00000
      831.000      911.000      183.950      341.822      972.305      2997.93      9810.98      17217.8      37521.8     -1.00000
      659.000      886.000      138.981      363.872      1017.77      3156.57      10336.0      18025.5      37447.5     -1.00000
      869.000      191.000      22.2366      373.329      1118.27      3483.70      10909.3      18488.0      37148.4     -1.00000
      107.000      866.000      170.146      360.203      1011.77      3153.93      10035.7      17703.4      37387.0     -1.00000
      11.0000      427.000      7.49524      329.251      974.115      3221.45      10538.4      18196.3      37212.0     -1.00000
      103.000      251.000      34.0255      340.123      1068.41      3316.09      10282.5      17660.6      37125.9     -1.00000
      950.000      928.000      151.970      333.095      977.715      3219.20      10627.5      18275.8      37379.7     -1.00000
      630.000      92.0000      26.7623      353.029      1113.49      3512.84      10804.7      18406.9      37019.9     -1.00000
      416.000      784.000      156.257      369.499      1053.97      3138.44      10510.9      18235.9      37259.6     -1.00000
      325.000      627.000      115.719      330.929      996.469      3166.70      10117.3      17714.7      37177.7     -1.00000
      125.000      84.0000      9.54261      353.312      1081.92      3268.49      10153.8      17566.0      37236.8     -1.00000
      183.000      431.000      51.3964      386.169      1131.11      3404.37      10705.2      18369.9      37054.8     -1.00000
      985.000      161.000      12.7364      397.043      1134.76      3528.31      10888.3      18442.6      36942.7     -1.00000
      9.00000      306.000     -12.4623      305.811      1075.48      3480.37      10929.2      18645.1      36925.9     -1.00000
      408.000      378.000      56.2086      175.158      266.534      554.694      937.218      1305.19      36935.0     -1.00000
      421.000      478.000      82.5734      360.008      1035.35      3044.14      9478.61      16476.2      34728.4     -1.00000
      378.000      748.000      122.753      265.680      756.662      2030.36      7877.82      13796.4      32172.9     -1.00000
      240.000      370.000      44.6566      363.006      1016.22      3187.10      9987.15      17498.9      36875.7     -1.00000
      273.000      710.000      104.257      390.285      1170.61      3626.55      11268.3      18987.2      36997.0     -1.00000
      231.000      456.000      44.0144      337.871      982.676      3035.42      9792.52      17262.0      36882.6     -1.00000
      665.000      862.000      145.697      320.273      961.485      3040.16      9994.11      17485.1      36999.1     -1.00000
      920.000      777.000      99.2953      336.799      986.588      3139.94      10032.9      17475.1      36871.7     -1.00000
      599.000      451.000      45.2519      70.7749      119.683      214.895      341.676      375.237      36743.3     -1.00000
      885.000      392.000      44.5881      319.754      994.798      3171.14      10159.0      17529.2      36715.8     -1.00000
      777.000      947.000      187.158      325.867      937.413      2838.64      10215.9      17640.3      36787.0     -1.00000
      750.000      602.000      115.454      345.741      1064.05      3144.90      10349.8      17746.5      36646.0     -1.00000
      443.000      545.000      97.9556      345.430      991.988      3123.51      9937.42      17113.0      36577.7     -1.00000
      931.000      464.000      54.2088      335.650      1060.02      3175.45      10229.3      17537.9      36498.9     -1.00000
      773.000      154.000      27.6532      349.123      1064.35      3190.09      10093.8      17500.5      36333.1     -1.00000
      380.000      3.00000      20.5277      62.4552      143.081      216.062      331.616      358.876      36259.6     -1.00000
      206.000      628.000      96.1323      337.196      929.693      2956.81      9580.80      16880.9      36425.1     -1.00000
      112.000      429.000      53.3892      356.257      1060.33      3178.87      10026.5      17346.9      36272.5     -1.00000
      810.000      948.000      165.937      333.249      925.509      2864.19      9863.13      17151.7      36367.6     -1.00000
      457.000      908.000      181.144      366.992      966.470      3119.00      10295.5      17952.5      36339.0     -1.00000
      883.000      788.000      160.744      384.685      995.842      3095.75      10059.4      17683.7      36246.8     -1.00000
      889.000      179.000      22.8969      341.688      1007.69      3166.97      10055.6      17418.6      36003.7     -1.00000
      928.000      295.000      28.0942      305.979      972.159      3016.29      9755.95      16989.6      36037.7     -1.00000
      581.000      380.000      33.9631      75.6060      143.823      246.513      364.805      395.309      35996.0     -1.00000
      849.000      130.000      17.6946      327.693      1068.98      3232.28      10202.5      17614.1      35886.2     -1.00000
      766.000      906.000      155.650      354.443      1031.08      3365.10      10860.9      18353.0      36124.6     -1.00000
