PDS_VERSION_ID         = PDS3
RECORD_TYPE            = STREAM
OBJECT                 = TEXT
  PUBLICATION_DATE     = 2014-02-19
  INTERCHANGE_FORMAT   = ASCII
  NOTE                 = "NAC hot pixel file for epoch 2008.5."
END_OBJECT             = TEXT
END

NAC hot pixel list. Lines 1 and 2 are column headings giving exposure time 
(sec) and gain state (e-/DN), respectively, of source dark images. Starting 
on line 3, first two columns indicate x and y value of hot pixel; columns 3 
through N-1 give median electron counts for each exposure bin, and last (Nth) 
column contains either the index of the exposure bin where saturation first 
occurs, or -1 if no saturation.

\begindata
      0.00000      0.00000      0.00000      10.0000      32.0000      100.000      320.000      560.000      1200.00
      0.00000      0.00000      12.8410      12.8410      30.2700      30.2700      30.2700      30.2700      30.2700
      213.000      482.000      162.788      11252.6      36367.4      99957.9      123454.      123432.      123434.      4.00000
      62.0000      49.0000      134.766      11527.9      35000.5      95418.9      123436.      123443.      123430.      4.00000
      738.000      875.000      305.758      14372.5      42367.3      96914.2      123449.      123427.      123439.      4.00000
      430.000      51.0000      124.043      9436.35      30860.7      79398.5      123441.      123436.      123430.      4.00000
      98.0000      87.0000      95.6084      8145.68      25335.6      71934.0      123440.      123438.      123422.      4.00000
      573.000      212.000      95.9898      9872.83      28561.1      74767.2      123445.      123430.      123440.      4.00000
      123.000      79.0000      112.539      9473.79      28558.4      73812.2      123433.      123444.      123422.      4.00000
      37.0000      647.000      170.105      8115.10      25321.1      69719.2      123429.      123450.      123429.      4.00000
      466.000      982.000      230.372      6659.61      22482.2      65371.4      123454.      123429.      123439.      4.00000
      599.000      452.000      119.548      7150.16      21885.4      61549.6      123451.      123433.      123447.      4.00000
      1023.00      24.0000      66.3972      5901.63      18730.7      55845.9      123414.      123379.      123360.      4.00000
      242.000      621.000      170.643      3999.09      13594.1      42444.6      119341.      123437.      123435.      5.00000
      531.000      500.000      129.333      5034.51      15972.3      47562.3      121546.      123450.      123439.      5.00000
      936.000      998.000      195.611      6320.73      19915.8      55229.7      122281.      123447.      123426.      5.00000
      149.000      356.000      69.0600      5167.43      16461.5      47084.7      113231.      123432.      123446.      5.00000
      117.000      230.000      75.9546      5241.00      16222.8      46162.7      111527.      123442.      123431.      5.00000
      544.000      256.000      48.9399      3205.97      10063.2      31336.9      97883.5      123450.      123436.      5.00000
      843.000      421.000      82.9343      3576.58      11779.3      36238.7      100783.      123437.      123446.      5.00000
      874.000      134.000      39.5552      3048.22      9837.45      30470.8      94967.6      123431.      123443.      5.00000
      549.000      905.000      212.487      3783.34      12987.3      39353.0      102177.      123441.      123434.      5.00000
      444.000      692.000      177.412      3827.68      12401.2      37979.1      100908.      123435.      123427.      5.00000
      910.000      336.000      64.2336      3291.69      10643.9      32729.5      96534.4      123446.      123429.      5.00000
      689.000      807.000      159.302      2855.16      9467.02      30048.4      93236.8      123433.      123447.      5.00000
      18.0000      679.000      123.388      3503.54      11761.0      35393.5      96295.4      123453.      123435.      5.00000
      391.000      888.000      184.654      4544.09      14300.8      40711.0      95769.3      123438.      123449.      5.00000
      202.000      885.000      197.809      2371.56      8230.77      26681.1      84298.7      123426.      123447.      5.00000
      711.000      498.000      108.529      4976.15      15361.5      42495.7      96362.6      123445.      123446.      5.00000
      3.00000      19.0000     -129.308      3143.01      10313.7      31045.9      85610.5      123431.      123423.      5.00000
      806.000      201.000      59.6881      3271.81      10324.7      31129.5      85461.1      123430.      123428.      5.00000
      578.000      312.000      62.1709      4834.27      15014.9      41588.4      93050.5      123430.      123443.      5.00000
      239.000      141.000      42.1329      3376.22      10651.9      31351.2      83936.0      123435.      123453.      5.00000
      378.000      749.000      157.890      2242.37      7548.67      23813.7      75302.7      123433.      123442.      5.00000
      307.000      403.000      55.7894      2507.66      8126.37      25059.4      74070.2      118086.      123426.      6.00000
      305.000      696.000      120.292      2359.12      7887.37      22616.0      70510.1      115008.      123435.      6.00000
      462.000      84.0000      40.7991      2850.23      8970.56      27264.0      77242.0      118259.      123422.      6.00000
      762.000      386.000      66.3051      2682.27      8593.56      26212.5      73723.5      112999.      123444.      6.00000
      147.000      68.0000      32.4487      2511.66      7970.16      23782.2      68530.4      108488.      123448.      6.00000
      744.000      647.000      152.745      2657.40      8722.67      26510.2      74609.4      113230.      123429.      6.00000
      487.000      880.000      180.289      2603.64      9038.49      27962.2      76784.5      114567.      123448.      6.00000
      681.000      578.000      114.905      2006.22      6753.23      21051.0      64264.9      104468.      123430.      6.00000
      588.000      243.000      48.9094      2346.12      7588.35      23013.6      67203.4      105667.      123444.      6.00000
      956.000      727.000      122.064      2272.06      7535.48      23579.0      68412.3      106527.      123434.      6.00000
      758.000      44.0000      29.8913      2535.05      8028.93      24047.6      67704.9      104757.      123439.      6.00000
      919.000      199.000      31.2585      2468.85      7792.47      23566.7      66514.4      102745.      123427.      6.00000
      894.000      642.000      128.425      2258.16      7503.17      23859.4      69054.7      104811.      123435.      6.00000
      790.000      879.000      168.296      1853.15      6481.31      21304.5      65087.5      101837.      123449.      6.00000
      708.000      520.000      102.448      1854.21      6089.28      19086.3      58454.9      95476.0      123441.      6.00000
      847.000      345.000      47.2536      2228.37      7189.83      22214.2      63466.5      98265.2      123436.      6.00000
      817.000      592.000      129.432      2248.89      7305.50      23758.8      67423.0      100839.      123437.      6.00000
      844.000      950.000      200.632      2488.70      8768.19      28457.0      72379.7      104439.      123444.      6.00000
      771.000      412.000      50.2892      1797.35      5790.60      18117.4      56103.1      91914.9      123437.      6.00000
      409.000      469.000      93.4855      2596.18      8336.41      24818.0      67560.3      100179.      123425.      6.00000
      813.000      953.000      203.106      2268.14      7646.52      23723.2      65318.4      97953.3      123448.      6.00000
      542.000      622.000      115.803      1921.04      6528.48      20705.6      60317.0      93928.5      123436.      6.00000
      18.0000      441.000      53.4519      1653.65      5415.12      17122.1      52602.6      87815.4      123427.      6.00000
      19.0000      1018.00      160.935      1594.11      5509.27      17775.2      54891.9      89622.1      123443.      6.00000
      109.000      497.000      91.7814      1597.27      5079.48      16757.8      53079.5      88030.2      123449.      6.00000
      62.0000      48.0000      20.3611      63.9890      109.294      187.610      572.211      49186.4      123430.      6.00000
      496.000      951.000      177.573      1153.33      3730.95      21840.0      61253.1      93245.3      123446.      6.00000
      277.000      703.000      128.055      1678.16      5472.72      17587.3      54342.9      87917.9      123442.      6.00000
      242.000      194.000      38.6925      2091.23      6481.47      19836.5      57467.8      89794.5      123432.      6.00000
      505.000      470.000      89.4594      2448.24      7725.86      22862.6      59578.3      91459.4      123419.      6.00000
      387.000      799.000      162.599      1926.25      6151.55      19151.7      55828.4      88130.2      123440.      6.00000
      963.000      850.000      167.680      1472.53      4885.73      15710.0      49743.4      83713.1      123451.      6.00000
      745.000      319.000      46.9330      2042.92      6648.62      20578.3      59040.3      90116.3      123446.      6.00000
      307.000      107.000      36.0328      2033.85      6484.44      19517.2      55716.1      87572.2      123447.      6.00000
      580.000      531.000      104.794      1955.58      6460.45      20158.7      57598.0      88848.4      123448.      6.00000
      531.000      270.000      42.1623      2176.37      6752.86      20115.5      56776.8      88071.5      123431.      6.00000
      169.000      475.000      75.6042      1496.03      4721.21      14724.3      46998.7      80880.4      123414.      6.00000
      845.000      326.000      49.7430      1811.97      5872.28      18072.0      53951.7      84610.5      123431.      6.00000
      232.000      45.0000      27.0977      1912.99      6067.35      18418.6      52751.7      83586.2      123437.      6.00000
      981.000      23.0000      21.1838      2141.13      6855.83      20275.8      56221.4      85631.6      123370.      6.00000
      634.000      10.0000      24.2428      1742.74      5325.86      16400.0      47640.5      77435.2      123436.      6.00000
      417.000      152.000      50.7162      1909.17      6137.51      18369.7      51957.3      80384.8      123422.      6.00000
      784.000      52.0000      14.9021      2165.62      6745.79      20030.7      54396.9      81806.1      123430.      6.00000
      719.000      958.000      195.316      1576.64      5378.90      17345.8      50847.1      79394.1      123444.      6.00000
      757.000      317.000      49.4179      1852.10      6029.50      18336.4      51924.9      79824.6      123448.      6.00000
      798.000      803.000      167.188      1463.12      4925.14      15649.6      47241.5      76315.3      123437.      6.00000
      96.0000      767.000      165.404      1661.11      5317.74      16235.0      48170.2      76961.0      123442.      6.00000
      977.000      227.000      33.2867      1232.30      4063.31      12968.0      42009.4      72132.8      123426.      6.00000
      87.0000      156.000      38.8392      1538.70      4857.04      14924.6      44929.3      74190.4      123426.      6.00000
      303.000      118.000      17.9935      1691.04      5414.58      16379.1      47412.9      75829.1      123420.      6.00000
      617.000      756.000      126.861      1424.79      4549.26      14559.6      45037.9      73672.9      123427.      6.00000
      181.000      823.000      166.600      1115.84      3669.32      11622.6      39606.0      69155.0      123424.      6.00000
      393.000      351.000      47.9366      2030.14      6579.26      19335.8      52283.3      77836.4      123435.      6.00000
      701.000      305.000      33.6821      1587.59      5226.64      16245.0      53021.9      78260.2      123434.      6.00000
      774.000      911.000      158.971      1548.38      5081.22      15973.8      46919.5      74027.4      123412.      6.00000
      974.000      1018.00      196.019      1154.45      3919.74      12954.6      41473.4      69855.8      123443.      6.00000
      0.00000      233.000     -269.804      1174.59      4396.48      13872.4      42301.0      69688.2      123442.      6.00000
      624.000      893.000      190.305      1427.79      4618.05      14463.0      44093.3      70571.7      123433.      6.00000
      949.000      926.000      172.466      1127.07      3666.37      11835.6      37937.3      64384.5      123435.      6.00000
      365.000      275.000      42.6098      1125.26      3687.07      11858.5      37511.4      63618.1      123445.      6.00000
      380.000      1.00000      12.8186      1139.99      3496.57      10783.4      33924.1      58800.7      122838.      6.00000
      380.000      2.00000      8.93395      1049.15      3406.89      10470.2      33457.4      58439.0      123445.      6.00000
      795.000      80.0000      26.1566      1364.86      4347.01      13303.2      40676.0      67311.9      121326.     -1.00000
      685.000      522.000      94.0657      1025.79      3253.50      10720.1      34610.8      60182.2      121870.     -1.00000
      383.000      660.000      140.803      1482.13      4855.66      14705.3      38555.4      70844.7      121986.     -1.00000
      191.000      582.000      114.770      1394.97      4637.53      14669.3      43618.1      69927.5      120672.     -1.00000
      665.000      677.000      105.691      1350.28      4465.00      13932.1      41993.9      67969.7      120533.     -1.00000
      584.000      74.0000      18.0457      1667.07      5429.84      13320.4      44610.6      73301.4      119283.     -1.00000
      173.000      726.000      143.811      1371.06      4707.47      14725.4      43931.3      69832.1      119741.     -1.00000
      985.000      997.000      189.076      1241.21      4110.80      13312.2      40613.4      66244.8      119334.     -1.00000
      500.000      704.000      144.253      1089.48      3709.02      12153.3      37960.4      63429.8      118911.     -1.00000
      92.0000      413.000      50.0148      1441.96      4626.25      14508.1      42598.5      67757.4      117136.     -1.00000
      857.000      398.000      50.1391      1621.74      5316.66      16138.9      46086.0      71081.6      116774.     -1.00000
      604.000      65.0000      26.5196      1270.51      3868.05      12751.2      37620.8      62602.7      116204.     -1.00000
      59.0000      749.000      142.110      894.963      2963.63      9718.36      31524.3      55043.9      116194.     -1.00000
      210.000      160.000      25.8874      1731.80      5381.79      16161.7      45279.0      69720.0      115431.     -1.00000
      329.000      799.000      180.069      968.297      2925.46      9401.91      31145.3      54410.3      114314.     -1.00000
      671.000      412.000      61.0791      1066.06      3433.29      10947.6      34272.8      58128.8      113843.     -1.00000
      378.000      748.000      149.455      605.322      1962.98      6220.33      21893.0      40086.8      112608.     -1.00000
      52.0000      221.000      24.0126      977.436      3110.64      9687.17      31230.7      53735.2      110736.     -1.00000
      802.000      40.0000      21.8603      1452.23      4465.73      13817.9      40167.3      64332.7      110222.     -1.00000
      684.000      91.0000      16.6779      1344.82      4229.06      12812.1      38413.7      61969.2      110026.     -1.00000
      117.000      577.000      109.927      944.211      2992.78      9578.07      31122.9      53976.1      108133.     -1.00000
      566.000      332.000      40.6584      1171.27      3785.56      11854.4      35966.9      58724.5      107751.     -1.00000
      173.000      263.000      34.9878      960.780      3031.73      9526.77      33416.2      56221.3      107380.     -1.00000
      988.000      967.000      166.255      1325.22      4341.11      13784.3      40962.5      64542.4      107903.     -1.00000
      41.0000      854.000      164.314      518.029      1452.17      4611.29      15044.8      50795.9      22242.8     -1.00000
      729.000      778.000      151.224      1256.71      4032.63      12805.6      38892.4      61461.2      107314.     -1.00000
      449.000      264.000      43.5113      1428.96      4550.02      13725.4      40539.0      63040.4      106170.     -1.00000
      290.000      246.000      32.6593      1363.08      4265.17      13245.7      39077.6      62182.2      105585.     -1.00000
      530.000      183.000      33.3843      1470.63      4541.94      13733.7      39401.1      61878.3      105370.     -1.00000
      845.000      863.000      179.760      914.137      2817.17      9272.47      30558.6      52959.1      105062.     -1.00000
      793.000      30.0000      15.4857      892.673      2936.97      9079.05      28770.7      49980.1      103779.     -1.00000
      996.000      931.000      149.924      814.796      2797.19      9035.96      29636.8      51312.7      103545.     -1.00000
      397.000      447.000      62.4468      1179.24      3778.37      11662.9      34944.9      56795.1      102619.     -1.00000
      797.000      311.000      49.0305      1270.12      4166.10      12668.7      38050.5      60375.9      102111.     -1.00000
      561.000      1015.00      205.418      892.457      2893.00      9572.95      30665.3      52454.1      101480.     -1.00000
      855.000      422.000      49.9757      1005.78      3908.93      10773.3      33084.1      57457.9      100410.     -1.00000
      47.0000      948.000      164.086      1275.93      4249.81      13599.6      41392.8      63245.6      100810.     -1.00000
      747.000      167.000      41.2385      1072.02      3362.70      10481.0      32280.0      53412.3      99573.2     -1.00000
      230.000      761.000      132.367      1124.22      3591.05      11578.7      35630.7      57114.4      99967.8     -1.00000
      530.000      805.000      161.645      1030.27      3167.07      10411.5      31771.1      53570.4      99965.2     -1.00000
      755.000      324.000      34.5848      955.512      2991.91      9421.57      29834.0      50784.7      99245.3     -1.00000
      127.000      368.000      53.5757      1099.27      3576.88      11074.5      31468.1      51949.9      98730.5     -1.00000
      828.000      434.000      45.0188      724.234      2433.23      8011.18      26466.3      46396.3      97906.5     -1.00000
      523.000      626.000      124.070      1071.48      3550.37      11159.1      33986.6      54941.7      97814.1     -1.00000
      814.000      545.000      75.1943      992.237      3095.30      9939.89      31012.9      52315.7      96965.1     -1.00000
      939.000      375.000      35.9389      860.681      2775.93      8982.61      28765.2      49362.9      96703.4     -1.00000
      1020.00      98.0000      29.8895      989.531      3310.20      10072.6      31060.9      51469.3      96296.7     -1.00000
      672.000      486.000      66.3043      834.508      2741.45      8606.37      27803.8      48043.7      96471.8     -1.00000
      143.000      412.000      48.2381      974.242      3050.08      9581.65      29631.2      49959.7      96388.9     -1.00000
      586.000      516.000      89.0683      988.239      3135.19      9673.78      30372.5      50181.4      95320.4     -1.00000
      1019.00      474.000      47.6803      866.631      2832.71      8945.42      28562.3      48133.0      94960.6     -1.00000
      730.000      65.0000      25.4917      940.955      3055.51      9571.35      29507.2      49536.6      94119.3     -1.00000
      420.000      202.000      30.7527      1020.50      3252.26      10091.0      30798.4      50987.6      94067.7     -1.00000
      777.000      92.0000      22.5187      1187.38      3807.10      11515.4      33783.0      54009.3      93890.6     -1.00000
      62.0000      50.0000      22.8414      70.9817      141.191      218.494      5407.67      25237.3      93799.5     -1.00000
      201.000      1004.00      185.157      976.614      3337.14      10659.2      32884.2      53249.7      94623.5     -1.00000
      325.000      995.000      193.022      784.123      2643.05      8578.18      27928.8      48197.7      93813.1     -1.00000
      608.000      453.000      49.6266      949.014      2965.80      9215.39      31622.1      50904.8      93087.1     -1.00000
      604.000      508.000      86.0286      971.434      3221.35      10190.7      30835.1      50683.7      92592.5     -1.00000
      675.000      951.000      171.201      870.127      2775.26      8874.53      28156.5      47498.4      92291.5     -1.00000
      394.000      500.000      77.2855      882.779      2925.60      9093.11      28121.5      48078.0      91416.8     -1.00000
      312.000      158.000      18.4158      941.329      3040.41      9392.76      28843.6      48527.9      90688.4     -1.00000
      701.000      371.000      42.4292      1042.39      3160.23      9745.34      29961.2      49282.7      90727.3     -1.00000
      1.00000      244.000     -236.817      665.255      2622.17      8501.99      27029.2      45834.4      89815.1     -1.00000
      76.0000      1017.00      182.360      811.197      2590.12      8760.30      28675.6      48274.5      90152.9     -1.00000
      144.000      995.000      197.362      1040.99      3386.78      10344.3      31501.0      50730.4      89570.2     -1.00000
      576.000      320.000      52.6451      1086.13      3255.71      9980.40      30188.9      49194.3      88602.5     -1.00000
      424.000      78.0000      10.3701      911.964      2986.39      9048.98      27624.0      46150.9      87977.3     -1.00000
      326.000      567.000      105.132      1010.12      3223.50      10263.6      29376.1      48608.8      88279.6     -1.00000
      205.000      308.000      36.2516      834.830      2685.47      8444.48      26681.1      45272.3      87939.2     -1.00000
      213.000      483.000      102.491      216.672      376.281      649.370      3172.78      28552.6      88051.8     -1.00000
      975.000      575.000      94.3411      1034.78      3231.71      9848.60      30044.1      48507.8      86730.0     -1.00000
      255.000      8.00000      31.3895      840.657      2608.69      7996.68      24895.7      42357.8      85823.4     -1.00000
      771.000      492.000      78.5920      922.154      2994.32      9208.66      27921.4      46488.6      85829.3     -1.00000
      705.000      164.000      33.6076      843.077      2769.37      8478.47      26200.6      44268.1      85316.8     -1.00000
      648.000      586.000      88.0403      703.783      2270.97      7317.48      23803.3      40757.0      85697.2     -1.00000
      466.000      294.000      60.8108      900.902      2785.23      8719.45      26775.1      44697.2      85304.5     -1.00000
      941.000      993.000      155.417      664.569      2027.27      6856.09      22945.9      40594.9      85217.2     -1.00000
      592.000      399.000      40.0892      741.784      2286.59      7185.43      23169.9      40781.4      84582.9     -1.00000
      501.000      448.000      55.5280      850.533      2832.02      8875.88      27751.3      26887.1      84279.1     -1.00000
      559.000      974.000      209.139      1145.26      3704.16      11543.5      33253.6      51427.2      84717.4     -1.00000
      299.000      605.000      116.301      748.364      2389.68      7338.67      24024.6      41296.5      84290.8     -1.00000
      476.000      340.000      31.9013      912.721      2948.16      9182.99      28093.2      45689.0      83861.4     -1.00000
      572.000      602.000      102.366      750.870      2271.54      7373.85      23210.2      40649.4      83302.3     -1.00000
      704.000      185.000      32.6404      742.507      2403.30      7448.95      23899.4      40777.9      82525.6     -1.00000
      973.000      430.000      52.2322      876.912      2865.16      8875.75      27049.2      44591.2      82690.0     -1.00000
      985.000      56.0000      21.0433      786.704      2481.92      7767.34      24223.6      41211.4      81844.6     -1.00000
      31.0000      122.000      13.3430      823.741      2507.20      7672.27      24072.8      41300.5      81879.5     -1.00000
      1023.00      23.0000      15.1136      73.7210      195.826      351.337      488.015      8934.68      81582.1     -1.00000
      900.000      287.000      31.7058      887.688      2832.18      8639.58      26499.0      43477.3      81274.5     -1.00000
      793.000      917.000      167.512      736.041      2533.28      8170.29      25834.3      43066.6      81613.1     -1.00000
      267.000      34.0000      16.0318      849.404      2702.84      8130.79      24882.2      41616.0      80557.0     -1.00000
      880.000      745.000      140.035      642.408      2002.15      6636.75      21664.8      37909.2      80741.2     -1.00000
      777.000      67.0000      21.5276      711.419      2281.35      7026.12      22188.5      38540.1      80034.0     -1.00000
      191.000      207.000      25.2895      965.237      2987.03      9230.85      27446.3      44733.4      80005.5     -1.00000
      202.000      776.000      170.680      809.761      2591.36      8263.23      25716.5      42857.6      80288.1     -1.00000
      947.000      376.000      27.2973      795.854      2554.94      7861.35      24564.1      41469.7      79898.3     -1.00000
      630.000      55.0000      19.9441      821.333      2619.37      7896.74      24674.5      41262.1      79333.8     -1.00000
      898.000      710.000      131.898      676.059      2131.00      6772.90      22386.8      39408.8      79872.7     -1.00000
      324.000      402.000      58.3708      884.542      2655.22      8157.01      24944.0      41669.2      78835.8     -1.00000
      207.000      732.000      138.140      773.670      2464.27      7916.35      24759.4      41636.7      79057.0     -1.00000
      55.0000      839.000      119.299      819.197      2468.01      7997.45      25310.2      41959.3      78523.8     -1.00000
      544.000      255.000      10.6692      52.7928      140.440      228.084      423.323      801.216      77979.8     -1.00000
      830.000      978.000      209.822      876.013      2750.29      8833.40      27079.3      44163.8      78500.5     -1.00000
      227.000      664.000      114.349      841.274      2823.06      8725.48      26635.1      43218.4      78046.1     -1.00000
      198.000      518.000      68.2887      705.783      2173.09      6836.09      21921.7      37991.5      77609.0     -1.00000
      952.000      758.000      106.352      640.800      2065.09      6526.18      21367.9      37459.0      77722.5     -1.00000
      760.000      486.000      73.4235      718.939      2347.80      7688.00      24420.2      40962.8      77070.7     -1.00000
      460.000      705.000      130.532      709.572      2234.20      7049.98      22339.4      38547.4      76904.6     -1.00000
      319.000      267.000      47.6967      829.624      2584.50      8281.49      25276.9      40751.1      76000.9     -1.00000
      919.000      948.000      191.147      669.057      2107.03      6917.77      22376.3      38877.7      76442.0     -1.00000
      336.000      141.000      19.9917      740.693      2237.10      6919.82      21852.2      37543.1      75454.9     -1.00000
      831.000      59.0000      18.6380      910.642      2892.82      8852.57      26114.3      42169.6      74554.2     -1.00000
      488.000      921.000      171.544      736.519      2295.94      7382.55      23160.2      39081.6      75182.6     -1.00000
      540.000      708.000      142.416      686.597      2195.60      6930.02      22259.0      38113.4      74882.1     -1.00000
      898.000      150.000      28.2723      816.394      2667.30      8078.46      24246.6      40050.0      74256.7     -1.00000
      785.000      572.000      94.3431      874.351      2725.00      8561.75      25683.3      41656.2      74428.9     -1.00000
      203.000      486.000      85.5380      806.209      2441.59      7305.51      22693.9      38130.1      74223.3     -1.00000
      163.000      271.000      34.0317      867.862      2772.11      8594.48      25414.9      41355.8      74039.0     -1.00000
      694.000      17.0000      19.6924      807.753      2422.90      7524.61      22797.6      38168.8      73494.7     -1.00000
      587.000      104.000      24.6849      730.192      2285.40      7308.25      22590.8      37994.4      73394.2     -1.00000
      443.000      545.000      72.1162      650.502      2077.87      6541.35      21210.8      36300.0      73687.8     -1.00000
      1023.00      25.0000      27.1872      98.9341      213.012      394.083      562.767      3004.75      73069.5     -1.00000
      8.00000      1008.00      133.578      641.773      2109.73      7240.62      22953.7      38454.0      73669.2     -1.00000
      417.000      843.000      202.483      648.659      1995.17      6741.60      22134.7      37739.9      73517.0     -1.00000
      64.0000      477.000      66.7612      653.387      2016.69      6294.84      20241.8      35298.4      73227.8     -1.00000
      641.000      294.000      42.3855      849.538      2194.57      6790.24      20876.1      35893.7      73047.9     -1.00000
      724.000      209.000      33.6471      811.588      2623.16      8061.04      24184.8      39697.4      72819.9     -1.00000
      780.000      905.000      175.597      916.717      2816.90      9281.24      28611.5      45042.3      73300.4     -1.00000
      680.000      284.000      19.1907      712.696      2188.17      6818.53      21446.0      36066.5      71631.5     -1.00000
      1008.00      692.000      104.947      653.525      2140.00      6732.97      21576.7      36528.1      71601.3     -1.00000
      433.000      140.000      14.6301      663.395      2031.17      6290.34      19832.1      34367.7      71002.5     -1.00000
      373.000      655.000      92.8355      784.658      2471.48      7840.80      23742.1      38664.6      71146.8     -1.00000
      155.000      102.000      24.8067      817.972      2579.09      7818.25      23323.9      38356.2      70609.4     -1.00000
      985.000      14.0000      22.6289      673.441      2128.23      6482.22      20010.2      34465.7      70243.8     -1.00000
      180.000      457.000      31.7969      778.997      2400.62      7208.84      21951.8      36890.1      70569.3     -1.00000
      666.000      487.000      76.0523      767.903      2251.23      7250.34      22373.2      35342.0      70532.0     -1.00000
      247.000      466.000      54.6362      651.579      2000.45      6156.02      19371.7      33713.6      70208.0     -1.00000
      725.000      349.000      26.4767      645.816      1996.19      6262.86      20011.4      34667.2      70087.9     -1.00000
      978.000      763.000      131.727      656.308      2148.89      6773.27      21453.5      36307.0      70028.4     -1.00000
      666.000      137.000     -1.75993      828.914      2573.24      7720.89      23153.4      38073.2      69442.4     -1.00000
      991.000      200.000      35.2127      677.994      2158.05      6827.23      21829.2      36430.4      69356.1     -1.00000
      248.000      547.000      97.2768      630.334      1873.60      5630.94      18310.0      32575.9      69573.6     -1.00000
      453.000      511.000      59.6921      634.974      2016.29      6316.79      20275.7      34655.7      69451.1     -1.00000
      460.000      592.000      106.389      681.484      2078.39      6456.72      20414.4      34788.2      69510.1     -1.00000
      1002.00      579.000      76.8725      576.575      1762.48      5749.14      18634.6      32624.3      69452.8     -1.00000
      345.000      537.000      86.7287      794.177      2403.17      7588.01      23145.6      38355.8      69247.1     -1.00000
      35.0000      358.000      43.6756      578.328      1855.36      5752.66      18593.5      32396.9      68541.4     -1.00000
      731.000      536.000      84.4647      745.542      2325.52      7376.99      22389.0      36973.8      68147.6     -1.00000
      108.000      237.000      31.3452      610.950      1836.64      5669.31      17591.3      30007.8      65784.5     -1.00000
      577.000      843.000      159.241      705.390      2202.31      6914.88      21733.7      36158.0      67937.8     -1.00000
      831.000      914.000      190.285      559.333      1719.35      5404.70      17958.8      31666.3      67817.3     -1.00000
      88.0000      291.000      32.3140      893.959      2894.65      8812.52      25611.4      40086.4      67302.5     -1.00000
      149.000      961.000      252.177      561.646      1774.54      5666.95      18875.4      33045.0      67196.1     -1.00000
      98.0000      86.0000      17.1606      58.5982      123.121      188.276      295.154      2065.07      66520.9     -1.00000
      490.000      616.000      117.960      668.062      2119.90      6798.54      21282.4      35533.0      66719.4     -1.00000
      100.000      807.000      137.468      541.845      1696.78      5495.87      17985.3      31503.5      66851.1     -1.00000
      720.000      263.000      29.0423      643.660      1889.68      5824.37      18280.9      31211.5      65726.7     -1.00000
      784.000      648.000      168.246      606.089      1911.09      6000.47      19223.8      32945.3      65837.0     -1.00000
      78.0000      174.000      27.8065      728.349      2375.76      7158.02      21463.5      35265.8      65336.9     -1.00000
      762.000      852.000      203.230      1293.89      4280.25      13368.2      36117.4      49339.8      65574.4     -1.00000
      363.000      225.000      32.6474      581.847      1804.70      5519.58      17223.7      30459.9      64458.3     -1.00000
      612.000      484.000      50.5722      666.169      2012.92      6360.25      19908.6      33511.7      64391.3     -1.00000
      617.000      739.000      147.918      596.614      1845.96      5782.22      18544.4      32452.8      64395.2     -1.00000
      603.000      839.000      126.647      742.151      2167.19      6702.49      21076.6      35307.6      64056.2     -1.00000
      566.000      807.000      146.461      691.827      2051.96      6495.77      20269.3      33963.1      63724.6     -1.00000
      895.000      34.0000      3.19074      616.037      1976.51      6026.87      18452.5      31575.2      62969.5     -1.00000
      288.000      310.000      23.0274      723.206      2275.43      7084.56      21273.5      34669.8      63121.9     -1.00000
      367.000      595.000      94.7839      558.032      1695.89      5409.80      17138.1      29804.8      62945.2     -1.00000
      452.000      407.000      36.6197      589.784      1916.60      5865.73      18562.7      31654.9      62773.1     -1.00000
      698.000      968.000      172.285      590.795      1922.35      6224.36      19469.3      32775.0      62917.3     -1.00000
      816.000      880.000      180.423      575.658      1769.45      5583.45      18202.3      31292.9      62857.6     -1.00000
      466.000      983.000      207.182      292.133      507.137      933.572      1615.23      13807.8      62495.2     -1.00000
      684.000      959.000      199.167      577.826      1815.67      5633.66      18216.6      31821.1      62464.9     -1.00000
      815.000      457.000      55.9050      547.858      1719.92      5523.84      17593.0      30417.1      61706.2     -1.00000
      427.000      586.000      87.2256      513.840      1572.76      5300.13      17114.8      29717.6      61413.3     -1.00000
      213.000      481.000      71.3518      83.9849      140.216      230.374      377.986      18057.1      61230.2     -1.00000
      824.000      260.000      32.1698      538.479      1648.62      5106.34      16283.2      28632.5      60837.6     -1.00000
      37.0000      648.000      124.392      216.467      340.295      588.676      1018.27      5408.79      61052.6     -1.00000
      874.000      135.000      14.9813      78.9177      152.965      280.989      473.275      621.869      60697.3     -1.00000
      483.000      824.000      143.488      517.697      1633.94      5335.97      17397.4      30018.0      61093.8     -1.00000
      166.000      826.000      162.058      583.388      1868.23      6125.40      19096.8      32078.5      61065.8     -1.00000
      580.000      608.000      98.3540      597.883      1798.29      5593.72      17502.5      30127.3      60781.8     -1.00000
      147.000      776.000      159.709      861.125      2679.57      8465.73      26150.0      41791.5      60827.6     -1.00000
      828.000      435.000      61.3887      531.733      1698.06      5130.22      16285.5      28640.3      60370.4     -1.00000
      748.000      369.000      45.4981      627.471      2129.26      6613.52      19485.3      32757.3      60215.6     -1.00000
      1014.00      466.000      41.7951      539.839      1740.43      5565.48      17921.1      30676.2      60095.5     -1.00000
      726.000      603.000      82.2258      647.423      1926.61      5965.48      18685.2      31383.2      59966.9     -1.00000
      403.000      6.00000      10.7330      596.069      1905.88      5869.57      18264.6      30368.3      59427.8     -1.00000
      369.000      243.000      23.2274      549.179      1689.71      5153.11      16364.9      28448.7      59577.3     -1.00000
      231.000      456.000      62.7975      499.775      1582.84      4959.79      16079.3      27933.6      59540.9     -1.00000
      341.000      573.000      95.9991      525.922      1627.13      5335.45      17478.0      29641.4      59593.7     -1.00000
      500.000      143.000      11.9542      572.709      1691.75      5123.31      16351.0      28161.6      59238.6     -1.00000
      770.000      690.000      106.243      590.525      1902.28      5979.27      18911.2      30400.7      59401.4     -1.00000
      246.000      581.000      100.987      531.741      1615.00      5096.47      16189.4      28161.6      59311.8     -1.00000
      44.0000      957.000      190.934      582.325      1836.87      5850.35      18531.4      31057.3      59530.6     -1.00000
      836.000      68.0000      21.9485      560.204      1726.73      5340.37      16487.5      28452.4      58943.6     -1.00000
      238.000      860.000      166.676      530.371      1644.03      5051.18      16507.7      28473.4      59033.7     -1.00000
      63.0000      21.0000      21.2229      653.605      2044.80      6082.70      18367.0      30593.1      58453.0     -1.00000
      448.000      545.000      88.0087      633.177      1893.97      5688.23      17880.4      30291.6      58761.4     -1.00000
      798.000      984.000      194.768      513.482      1604.56      5298.00      16979.4      29501.6      58997.1     -1.00000
      521.000      69.0000      15.7061      650.559      2040.47      6096.17      18484.1      30838.8      58424.1     -1.00000
      317.000      537.000      83.9919      563.038      1802.07      5626.57      17733.5      30111.0      58196.7     -1.00000
      734.000      809.000      157.984      520.787      1546.83      5057.74      16456.4      28676.3      58114.9     -1.00000
      221.000      117.000      19.3061      665.213      1979.14      5914.30      18055.7      30121.2      57665.9     -1.00000
      132.000      518.000      80.4258      528.049      1567.69      4964.32      15989.4      27652.7      57867.2     -1.00000
      533.000      367.000      35.0397      549.306      1698.86      5305.71      16850.7      28679.3      57773.4     -1.00000
      940.000      801.000      134.914      578.991      1749.89      5490.08      17781.4      29960.9      57836.3     -1.00000
      677.000      129.000      15.0435      591.648      1850.35      5680.16      17466.4      29341.0      57352.0     -1.00000
      325.000      627.000      125.570      505.946      1522.46      4768.00      15425.6      27413.1      57596.4     -1.00000
      729.000      475.000      75.6042      618.226      1790.18      5556.13      17456.9      29360.3      57493.0     -1.00000
      630.000      606.000      106.531      521.959      1613.62      5232.70      16775.0      28827.3      57557.8     -1.00000
      901.000      948.000      152.624      534.092      1616.32      5021.08      16503.3      28522.4      57346.7     -1.00000
      169.000      136.000      24.9661      567.523      1666.57      5014.41      15607.9      27088.8      56802.3     -1.00000
      641.000      90.0000      11.1804      514.965      1602.05      4914.98      15386.6      26796.2      56669.4     -1.00000
      16.0000      553.000      66.3864      547.134      1629.26      5168.78      16593.3      28656.5      56943.7     -1.00000
      819.000      249.000      25.0223      532.614      1560.15      5128.83      16240.3      28052.8      56249.4     -1.00000
      618.000      917.000      142.205      527.590      1474.73      4746.85      15603.3      27236.9      56579.2     -1.00000
      105.000      380.000      67.4457      626.359      1946.66      5983.89      18114.4      29932.6      56240.4     -1.00000
      36.0000      611.000      106.048      532.796      1558.69      4929.13      15890.0      27479.9      56303.9     -1.00000
      476.000      545.000      88.0353      568.972      1675.15      5149.79      16669.1      28371.9      56252.2     -1.00000
      390.000      790.000      156.250      773.985      2402.35      7250.09      21044.2      32979.1      56352.1     -1.00000
      355.000      891.000      175.278      526.154      1647.60      5136.91      16374.8      28126.0      56305.2     -1.00000
      208.000      503.000      74.1947      556.301      1641.39      5081.87      15905.0      27425.9      55828.7     -1.00000
      577.000      376.000      36.7257      498.911      1586.40      4946.86      15997.4      27402.1      55694.5     -1.00000
      202.000      884.000      166.819      93.2342      139.800      221.446      307.319      369.697      55598.4     -1.00000
      294.000      140.000      34.7450      620.147      1907.49      5702.99      17752.1      29610.0      55135.4     -1.00000
      280.000      559.000      97.9019      536.535      1644.90      5189.90      16421.5      28093.1      55363.7     -1.00000
      741.000      807.000      146.461      517.957      1515.16      4789.59      15925.5      27485.9      55500.8     -1.00000
      64.0000      357.000      38.0911      588.955      1792.13      5536.68      17240.5      28900.9      55106.6     -1.00000
      228.000      238.000      53.7793      1423.04      4443.14      13695.5      43028.6      46292.9      123421.      6.00000
      300.000      692.000      130.629      533.949      1540.49      5038.60      15764.8      27326.1      54887.6     -1.00000
      58.0000      90.0000      15.3791      592.011      1804.64      5412.06      16769.8      28066.9      54217.0     -1.00000
      906.000      47.0000      19.0786      554.037      1677.24      5215.29      16093.0      27195.0      54143.7     -1.00000
      471.000      937.000      173.980      473.240      1462.28      4528.09      14683.8      25842.7      54487.8     -1.00000
      172.000      398.000      43.6715      581.620      1738.45      5299.36      16295.4      27461.6      53947.1     -1.00000
      561.000      362.000      36.5386      494.846      1505.70      4676.68      14901.5      26070.4      53895.5     -1.00000
      674.000      317.000      26.0343      526.981      1732.37      5273.77      16330.5      27397.6      53830.9     -1.00000
      37.0000      544.000      60.5706      541.255      1590.65      5084.90      14125.4      26643.4      53950.1     -1.00000
      594.000      443.000      67.8577      536.023      1555.65      4955.43      15740.7      26856.4      53743.7     -1.00000
      827.000      817.000      157.572      475.225      1411.11      4319.26      14222.3      25023.6      53755.8     -1.00000
      54.0000      947.000      163.099      469.197      1465.09      4737.93      15679.9      26769.9      53603.1     -1.00000
      719.000      900.000      171.378      602.674      1853.23      5636.71      17686.9      29253.0      53378.4     -1.00000
      392.000      1015.00      192.577      507.226      1469.26      4608.78      15111.5      26103.6      53138.7     -1.00000
      366.000      691.000      113.732      539.057      1624.00      5104.54      16073.1      26899.6      52921.3     -1.00000
      417.000      297.000      41.5025      517.200      1629.30      4770.10      15028.8      25851.0      52588.4     -1.00000
      727.000      344.000      35.9263      522.468      1712.46      5349.42      16347.4      27410.6      52585.1     -1.00000
      365.000      875.000      182.306      489.387      1497.79      4776.79      15408.0      26502.8      52825.8     -1.00000
      301.000      102.000      1.99288      475.901      1504.69      4594.10      14231.6      24813.9      52358.1     -1.00000
      1015.00      571.000      76.4042      439.044      1277.43      4081.65      13566.9      23990.1      52513.3     -1.00000
      401.000      599.000      122.831      537.862      1711.24      5186.88      16110.1      27128.2      52397.3     -1.00000
      527.000      645.000      123.816      514.366      1510.91      4693.01      14967.5      25896.3      52421.0     -1.00000
      642.000      131.000      20.5285      513.533      1633.20      4923.54      15542.7      25910.7      52130.7     -1.00000
      430.000      50.0000      10.0004      68.0163      118.979      209.980      330.203      1783.43      51990.4     -1.00000
      107.000      714.000      132.644      507.723      1478.25      4597.33      14708.0      25586.5      52302.6     -1.00000
      56.0000      775.000      138.869      497.697      1427.83      4552.73      14911.4      25787.5      52317.9     -1.00000
      486.000      402.000      53.6728      532.236      1595.78      5002.18      15741.9      26762.1      52097.6     -1.00000
      658.000      835.000      163.030      467.014      1449.00      4750.58      15227.3      26342.6      52256.9     -1.00000
      513.000      432.000      56.7762      561.484      1776.77      5452.88      16610.3      27503.5      51819.9     -1.00000
      453.000      128.000      29.4604      517.328      1578.11      4864.45      15086.2      25706.9      51501.8     -1.00000
      855.000      840.000      159.077      432.509      1322.73      4118.37      13570.5      23875.2      51679.2     -1.00000
      89.0000      698.000      122.246      475.006      1434.28      4333.12      14310.1      24803.6      51577.2     -1.00000
      142.000      570.000      88.9870      476.447      1373.32      4326.06      14050.8      24283.0      51187.0     -1.00000
      302.000      331.000      25.0665      506.794      1471.22      4570.89      14366.3      24785.3      50833.3     -1.00000
      954.000      716.000      121.234      473.932      1473.67      4533.11      14341.2      24928.8      50909.8     -1.00000
      492.000      870.000      161.285      482.775      1311.93      4070.32      13800.1      24177.0      50930.4     -1.00000
      836.000      954.000      198.348      533.389      1477.65      4795.49      15337.5      26081.2      50889.9     -1.00000
      834.000      758.000      140.822      441.594      1338.61      4254.71      13899.7      24512.2      50686.9     -1.00000
      120.000      68.0000      6.07456      540.637      1648.15      4815.19      14820.2      25313.0      50313.7     -1.00000
      154.000      877.000      145.521      469.950      1345.49      4317.53      13936.7      24378.2      50526.8     -1.00000
      430.000      52.0000      27.2905      76.8044      148.599      252.656      455.807      7979.71      49907.4     -1.00000
      544.000      257.000      30.6536      82.8643      166.138      321.567      556.627      742.541      50011.7     -1.00000
      817.000      529.000      84.6250      461.777      1399.05      4427.33      14116.9      24373.2      50119.4     -1.00000
      953.000      511.000      46.8510      490.439      1370.18      4392.46      14009.5      24010.7      49358.1     -1.00000
      866.000      299.000      26.2083      452.086      1393.89      4275.30      13597.6      23732.5      49199.1     -1.00000
      12.0000      187.000     -4.73425      442.820      1405.77      4250.73      13273.1      23196.1      49096.2     -1.00000
      269.000      311.000      31.4098      517.404      1563.19      5006.82      14730.8      24767.0      49107.1     -1.00000
      527.000      84.0000      14.7046      546.069      1645.22      4864.51      14775.9      25011.3      48958.0     -1.00000
      874.000      133.000      10.9732      72.2648      171.409      255.322      450.116      548.212      48828.4     -1.00000
      674.000      433.000      57.1781      454.234      1325.05      4043.45      13209.3      23265.7      48916.0     -1.00000
      162.000      446.000      49.1458      472.574      1497.13      4615.78      14215.4      24227.8      48673.9     -1.00000
      124.000      699.000      128.770      445.825      1316.44      4131.35      13399.7      23287.9      48482.9     -1.00000
      951.000      965.000      162.225      471.924      1433.36      4488.47      14378.4      24527.8      48507.3     -1.00000
      643.000      399.000      42.0844      454.870      1452.11      4507.34      14188.8      24160.0      48172.1     -1.00000
      171.000      712.000      128.154      480.765      1495.72      4638.49      14545.9      24857.3      48297.8     -1.00000
      11.0000      315.000     0.517297      401.117      1293.78      4098.40      13294.7      22824.9      48014.7     -1.00000
      931.000      464.000      35.0518      420.006      1372.28      4249.49      13597.7      23445.1      48077.9     -1.00000
      76.0000      322.000      30.4110      430.653      1357.68      4130.79      13034.5      22358.0      47192.1     -1.00000
      678.000      265.000      33.6923      484.450      1524.04      4610.12      14298.3      23836.7      46719.0     -1.00000
      808.000      878.000      156.757      463.654      1323.00      4286.79      13730.8      23374.7      47015.8     -1.00000
      762.000      392.000      41.3679      480.480      1444.22      4484.27      13810.0      23520.3      46598.2     -1.00000
      203.000      371.000      28.5763      516.328      1524.58      4636.52      14209.5      23549.6      46462.0     -1.00000
      805.000      354.000      42.4890      468.829      1436.28      4285.39      13271.1      22932.2      46353.7     -1.00000
      247.000      467.000      69.2668      423.587      1216.36      3749.68      11810.1      20869.3      46179.8     -1.00000
      875.000      570.000      99.4644      468.667      1308.09      4147.00      12718.3      22085.5      46177.2     -1.00000
      242.000      622.000      126.734      205.398      350.984      570.748      1008.16      1414.60      45911.2     -1.00000
      660.000      679.000      122.986      460.597      1345.68      4036.88      13052.6      22469.7      45899.5     -1.00000
      831.000      490.000      83.3655      439.080      1366.94      4137.83      13027.3      22444.8      45639.5     -1.00000
      529.000      436.000      32.9286      513.791      1481.97      4349.92      13484.5      19520.3      46253.9     -1.00000
      689.000      808.000      156.175      184.757      302.100      518.351      1038.30      1371.24      45691.6     -1.00000
      375.000      676.000      112.441      441.501      1229.01      3751.73      12062.6      21329.2      45561.8     -1.00000
      672.000      170.000      23.9920      428.088      1366.92      4145.45      12873.4      22143.1      45310.4     -1.00000
      538.000      183.000      41.6663      494.709      1504.15      4373.70      13370.1      22770.3      45234.9     -1.00000
      423.000      769.000      159.170      431.416      1259.59      3914.09      12694.6      21984.2      45425.0     -1.00000
      662.000      1013.00      161.655      479.959      1348.90      4186.06      13416.8      22970.3      45474.1     -1.00000
      364.000      287.000      24.5154      425.410      1231.43      3685.61      11571.0      19866.1      42223.2     -1.00000
      915.000      216.000      12.6852      465.132      1390.69      4156.48      12911.6      22034.0      44738.2     -1.00000
      853.000      923.000      166.324      385.871      1120.45      3701.32      11949.1      21196.6      45070.3     -1.00000
      659.000      1008.00      197.783      478.777      1413.52      4502.63      14094.7      23627.1      44670.8     -1.00000
      264.000      410.000      41.2719      429.195      1332.67      3990.42      12462.2      21504.4      44375.5     -1.00000
      549.000      47.0000      3.73865      438.782      1348.88      4180.98      12752.0      21806.7      44124.6     -1.00000
      306.000      251.000      50.7733      456.128      1345.88      4183.25      13049.3      21838.9      44061.5     -1.00000
      642.000      412.000      49.7843      398.322      1284.72      3921.39      12151.4      21110.2      43810.8     -1.00000
      402.000      569.000      99.5784      391.075      1196.12      3673.01      11787.2      20649.3      43784.7     -1.00000
      169.000      790.000      167.320      453.997      1334.15      4052.79      12742.9      21658.7      43865.9     -1.00000
      537.000      546.000      77.5252      442.893      1285.60      3845.59      12254.9      21080.6      43505.3     -1.00000
      51.0000      722.000      95.8080      416.697      1196.19      3694.88      12175.6      21142.8      43456.6     -1.00000
      757.000      376.000      40.1383      452.662      1381.64      4212.66      12990.5      21876.6      43222.7     -1.00000
      645.000      914.000      164.603      407.044      1193.66      3656.22      11885.1      20751.1      43414.0     -1.00000
      754.000      434.000      45.0188      417.599      1297.68      4027.84      12656.3      21303.0      43167.2     -1.00000
      674.000      10.0000      4.33122      398.123      1257.11      3843.02      11924.0      20493.2      42929.8     -1.00000
      589.000      219.000      28.3706      431.775      1368.09      4157.10      12759.3      21648.1      43014.5     -1.00000
      12.0000      288.000      3.21077      384.214      1244.28      3924.02      12297.8      20938.5      42946.1     -1.00000
      775.000      154.000      29.8142      406.574      1251.23      3829.91      11854.9      20471.4      42753.6     -1.00000
      651.000      359.000      16.6988      386.986      1179.26      3732.94      11668.4      20384.3      42635.7     -1.00000
      340.000      568.000      118.047      475.384      1393.57      4321.10      13334.2      22152.0      42658.7     -1.00000
      810.000      948.000      176.603      405.682      1119.40      3562.58      11509.1      20686.3      42816.9     -1.00000
      421.000      945.000      189.903      392.386      1172.74      2896.82      9154.18      16026.5      42639.9     -1.00000
      593.000      663.000      114.667      401.112      1141.73      3506.41      11101.9      20025.2      42376.9     -1.00000
      912.000      31.0000      11.6535      363.125      1147.49      3668.11      11481.9      19883.0      42087.8     -1.00000
      50.0000      665.000      105.827      399.727      1172.68      3648.61      11591.6      20155.0      42347.8     -1.00000
      402.000      33.0000      9.16890      425.946      1319.62      3885.10      12093.6      20520.1      42026.6     -1.00000
      471.000      142.000      25.7255      467.678      1308.50      4260.29      12508.2      20622.4      41788.2     -1.00000
      689.000      806.000      144.794      88.2298      124.366      214.409      333.246      394.167      42062.2     -1.00000
      193.000      369.000      40.7793      404.482      1260.66      3491.25      11437.0      19938.4      41770.5     -1.00000
      722.000      70.0000      12.5876      422.803      1336.88      4200.29      12797.7      21750.4      41623.6     -1.00000
      910.000      744.000      183.521      404.759      1181.58      3808.59      12127.8      20706.8      41703.6     -1.00000
      377.000      623.000      118.837      391.886      1171.48      3601.39      11459.1      19901.1      41471.4     -1.00000
      411.000      683.000      130.265      411.278      1189.06      3648.19      11527.2      19972.1      41444.6     -1.00000
      421.000      545.000      88.0353      491.925      1436.38      4430.94      13210.1      21995.8      41217.4     -1.00000
      232.000      805.000      139.117      434.529      1246.52      3807.49      12273.8      20826.9      41273.4     -1.00000
      813.000      836.000      152.470      418.921      1139.86      3338.46      11003.2      19529.8      41146.5     -1.00000
      112.000      429.000      48.7653      394.917      1147.07      3657.13      11519.2      19845.2      40951.0     -1.00000
      712.000      197.000      16.4775      397.457      1247.94      3731.92      11588.1      19075.8      41234.5     -1.00000
      658.000      48.0000      13.9122      388.744      1235.15      3711.60      11451.9      19799.2      40702.3     -1.00000
      1012.00      20.0000      9.47089      369.229      1167.60      3633.29      11262.1      19614.1      40346.3     -1.00000
      929.000      814.000      149.630      432.524      1311.54      4102.52      12569.7      21234.8      40605.5     -1.00000
      380.000      127.000      12.4874      398.685      1246.14      3810.80      12465.7      19588.3      40274.8     -1.00000
      545.000      466.000      64.5229      372.721      1101.06      3286.07      10598.5      18637.9      39700.9     -1.00000
      568.000      738.000      153.843      414.239      1299.66      3696.87      11772.7      20106.1      40408.4     -1.00000
      302.000      17.0000      8.07088      398.959      1272.06      3839.15      11610.2      19984.3      40037.9     -1.00000
      487.000      441.000      53.4519      395.551      1221.29      3792.45      11749.7      20236.0      40145.8     -1.00000
      433.000      581.000      116.783      453.783      1292.07      3922.99      11777.9      20312.8      40182.9     -1.00000
      750.000      602.000      102.366      404.162      1158.65      3583.45      11483.2      19696.0      40016.5     -1.00000
      231.000      183.000      16.9389      392.192      1201.45      3642.43      11434.1      19640.1      39756.9     -1.00000
      8.00000      565.000      15.7708      303.653      1049.43      3218.96      10459.0      18493.2      39544.2     -1.00000
      527.000      916.000      180.265      386.575      1100.97      3510.66      11240.3      19332.0      39990.2     -1.00000
      518.000      80.0000      8.40238      386.661      1173.35      3617.34      11107.7      19151.4      39602.0     -1.00000
      708.000      985.000      203.817      397.409      1007.74      3175.20      10358.5      18333.5      39698.3     -1.00000
      504.000      22.0000      25.3374      355.041      1157.69      3394.75      10676.8      18449.8      39220.8     -1.00000
      57.0000      943.000      143.272      363.707      1040.69      3130.28      10457.3      18194.2      39511.6     -1.00000
      582.000      787.000      155.715      383.383      1105.67      3395.66      10904.4      18751.9      39416.2     -1.00000
      273.000      710.000      113.145      440.873      1283.44      3922.57      12087.2      20351.1      39118.7     -1.00000
      553.000      979.000      169.883      385.221      1017.31      3332.77      10899.4      18844.4      39214.2     -1.00000
      904.000      7.00000      18.6092      387.523      1190.35      3675.84      11286.1      19201.6      38810.6     -1.00000
      743.000      175.000      11.6230      373.969      1105.53      3290.85      10584.4      18319.2      39213.4     -1.00000
      160.000      90.0000      24.3802      397.252      1199.24      3525.90      10904.5      18748.6      38731.7     -1.00000
      823.000      205.000      26.0432      397.034      1198.21      3709.01      11419.7      19178.9      38409.1     -1.00000
      104.000      974.000      161.256      398.251      1039.10      3358.48      10739.3      18710.8      38620.1     -1.00000
      227.000      743.000      138.819      386.782      1089.28      3276.41      10444.4      18135.2      38419.2     -1.00000
      467.000      748.000      110.932      342.551      910.973      3272.05      10166.3      18595.6      38071.2     -1.00000
      599.000      451.000      49.1884      79.2161      143.754      212.368      336.178      399.786      37792.8     -1.00000
      436.000      526.000      82.8072      369.769      1080.38      3166.00      10089.5      17627.9      37606.1     -1.00000
      280.000      340.000      30.5967      377.088      1135.34      3521.44      11031.4      18671.9      37665.9     -1.00000
      173.000      739.000      162.300      436.273      1203.22      3602.35      11100.1      18907.4      37788.1     -1.00000
      107.000      866.000      167.111      386.650      1073.28      3234.50      10282.3      18067.1      37786.8     -1.00000
      514.000      851.000      152.913      349.375      1008.09      3105.19      10090.1      17827.3      37725.2     -1.00000
      767.000      3.00000      20.0292      335.463      1054.58      3223.61      9646.80      17165.7      35893.6     -1.00000
      280.000      814.000      162.471      363.658      1009.42      3065.10      10199.4      17790.6      37453.4     -1.00000
      546.000      6.00000      3.69339      377.984      1163.26      3494.95      10776.4      18472.3      36984.6     -1.00000
      331.000      274.000      25.1864      377.309      1105.74      3347.59      10506.1      18659.6      37081.7     -1.00000
      197.000      559.000      77.4158      382.697      1078.40      3283.86      10475.8      18266.4      37193.6     -1.00000
      949.000      72.0000     0.439162      404.154      1126.58      3473.71      10617.9      18258.7      36991.2     -1.00000
      985.000      161.000      22.2825      403.939      1199.92      3604.32      10920.2      18596.0      37007.9     -1.00000
      218.000      1002.00      193.960      342.210      915.852      3082.72      9697.11      17416.9      37332.4     -1.00000
      885.000      589.000      79.6156      327.718      1023.78      3298.31      10455.8      18086.1      37159.8     -1.00000
      557.000      171.000      22.0644      393.316      1133.39      3349.70      10449.7      18052.3      36956.5     -1.00000
      304.000      216.000      28.4727      438.255      1262.84      3769.15      11336.4      18865.7      36971.4     -1.00000
      242.000      620.000      137.581      106.938      170.963      248.381      375.547      453.840      37070.2     -1.00000
      457.000      908.000      171.874      405.492      1052.64      3272.66      10588.6      18326.4      37168.5     -1.00000
      397.000      341.000      49.3308      377.919      1130.73      3400.19      10785.6      18459.4      36884.6     -1.00000
      363.000      721.000      138.372      379.232      1061.32      3241.19      10268.0      17868.5      36947.2     -1.00000
      183.000      431.000      64.6099      381.388      1112.67      3451.21      10686.9      18142.6      36797.9     -1.00000
      729.000      876.000      155.286      392.240      1110.23      3256.70      10550.2      18241.9      36926.8     -1.00000
      287.000      216.000      33.8021      399.732      1112.30      3376.01      10400.9      17826.4      36656.3     -1.00000
      561.000      19.0000      9.06915      341.972      1103.21      3274.74      10145.9      17364.0      36533.9     -1.00000
      1012.00      148.000      12.0843      353.259      1073.10      3239.43      10186.2      17612.0      36528.7     -1.00000
      678.000      34.0000      5.57432      389.625      1829.07      3135.43      10103.3      17068.8      36460.1     -1.00000
      830.000      543.000      86.3936      366.181      1165.85      3397.19      10674.0      18293.5      36477.8     -1.00000
      640.000      561.000      75.5677      359.106      1029.57      3256.39      10273.7      18037.5      36453.8     -1.00000
      889.000      179.000      11.8569      352.621      1072.68      3208.27      10148.5      17586.0      36250.6     -1.00000
      849.000      130.000      23.7262      339.973      1122.02      3338.93      10303.8      17780.5      36176.2     -1.00000
      589.000      757.000      148.172      372.352      1009.54      3053.20      9716.54      17066.1      36400.1     -1.00000
      3.00000      866.000    -0.162539      173.427      805.368      2723.51      9454.33      16760.6      36370.6     -1.00000
      340.000      601.000      102.856      404.920      1131.59      3377.92      10641.4      18195.0      36264.7     -1.00000
      346.000      986.000      188.884      356.940      1025.60      3056.14      9894.24      17472.7      36301.5     -1.00000
      225.000      426.000      67.4044      383.949      1094.09      3330.00      10044.1      17620.3      37055.1     -1.00000
      685.000      209.000      34.1761      346.915      1115.12      3371.51      10698.9      17906.0      35922.6     -1.00000
      849.000      174.000      23.7034      363.037      1073.88      3583.67      9972.97      17136.6      36305.0     -1.00000
      240.000      370.000      46.2294      359.836      1076.08      3134.88      9793.39      16977.7      35726.1     -1.00000
      667.000      19.0000      10.9587      363.347      1050.77      3115.62      9923.02      17120.3      35541.8     -1.00000
      726.000      660.000      124.542      390.638      1072.21      3304.77      10440.1      17265.1      35758.8     -1.00000
      252.000      240.000      26.5284      359.866      1108.21      3275.72      10083.3      17367.9      35586.8     -1.00000
      160.000      91.0000      16.9245      402.141      1146.39      3401.78      10445.3      17827.4      35521.9     -1.00000
      888.000      966.000      169.823      339.283      949.655      2975.35      9406.90      16514.5      35827.5     -1.00000
      152.000      79.0000      8.86481      346.472      1105.00      3302.93      9931.38      17242.6      35488.0     -1.00000
      881.000      92.0000      9.67761      365.554      1027.95      3165.27      9783.38      16889.6      35244.4     -1.00000
      777.000      947.000      175.940      347.702      926.582      2852.63      9610.81      17174.9      35542.2     -1.00000
      202.000      458.000      54.8511      330.077      919.323      2666.88      8783.00      14912.1      31933.8     -1.00000
      331.000      674.000      126.267      367.908      1037.28      3128.71      10070.5      17248.3      35280.7     -1.00000
      387.000      837.000      169.928      504.223      1440.27      4298.21      8628.88      14747.7      35321.4     -1.00000
      29.0000      725.000      115.527      354.875      1042.17      3135.97      10014.8      17156.7      35242.9     -1.00000
      470.000      757.000      131.951      332.643      962.017      2901.52      9382.05      16611.5      35219.6     -1.00000
      798.000      505.000      62.3621      341.734      1030.56      3141.56      10009.1      17096.7      35056.8     -1.00000
      98.0000      88.0000      33.5299      84.5675      149.873      252.908      464.234      8392.47      34852.9     -1.00000
      14.0000      482.000      45.3964      391.774      1218.99      3504.62      10648.5      18014.3      34924.2     -1.00000
      324.000      118.000      16.8402      382.637      1163.74      3391.36      10370.2      17489.0      34785.1     -1.00000
      226.000      345.000      53.4223      371.324      1066.51      3112.75      9706.38      16724.9      34847.4     -1.00000
      753.000      974.000      186.938      336.271      910.147      2840.20      9513.04      16737.5      35054.1     -1.00000
      1019.00      93.0000      8.04984      365.732      1086.44      3219.60      9897.76      16989.2      34679.5     -1.00000
      366.000      738.000      141.002      396.446      1118.04      3308.06      10077.6      17087.5      34719.1     -1.00000
      187.000      340.000      43.4378      347.212      1049.30      3019.54      9219.83      16187.6      34440.4     -1.00000
      360.000      674.000      126.267      322.405      943.977      2796.03      9373.98      16057.3      34523.0     -1.00000
      962.000      436.000      48.8878      361.912      1042.85      3202.97      10156.3      17209.3      34427.5     -1.00000
      787.000      499.000      71.2224      324.934      957.927      2952.96      9341.92      16234.0      34431.7     -1.00000
      897.000      577.000      97.0855      360.613      1022.95      3191.79      9911.72      16937.1      34339.6     -1.00000
      825.000      593.000      81.9573      348.400      963.033      2889.03      9229.32      16204.3      34281.0     -1.00000
      105.000      152.000      12.1930      317.800      1007.04      2918.29      8947.05      15666.3      32911.1     -1.00000
      358.000      622.000      126.734      341.587      942.792      2763.02      9157.77      15990.1      34250.5     -1.00000
      472.000      143.000      16.7772      368.614      1038.27      3199.65      9776.93      16629.0      34059.7     -1.00000
      108.000      721.000      126.984      373.933      1075.60      3186.82      9840.52      16931.7      34233.6     -1.00000
      292.000      337.000      28.1600      345.395      979.979      2971.10      9448.06      16355.4      34028.6     -1.00000
      99.0000      209.000      34.1761      347.182      1037.41      3176.67      9857.83      16722.2      33978.1     -1.00000
      790.000      531.000      98.0400      380.927      1039.34      3083.46      9802.53      16851.2      34076.2     -1.00000
      831.000      303.000      29.1327      329.970      976.748      2921.77      8897.61      15604.6      32738.9     -1.00000
      193.000      867.000      141.938      338.757      928.105      2851.98      9063.59      16073.7      34093.0     -1.00000
      218.000      322.000      30.4110      315.084      985.522      3004.86      9418.22      16262.9      33885.7     -1.00000
      853.000      990.000      172.885      307.129      926.151      2811.03      9041.13      15942.9      34032.7     -1.00000
      779.000      765.000      134.622      352.635      964.598      3126.12      9678.82      16570.1      33846.1     -1.00000
      342.000      743.000      131.473      350.836      1007.28      2930.46      9687.93      16356.0      33812.5     -1.00000
      816.000      369.000      32.6571      325.754      957.962      2900.57      8864.01      15836.7      33667.1     -1.00000
      466.000      981.000      183.802      109.003      164.759      225.560      331.534      5063.97      33864.8     -1.00000
      484.000      500.000      67.1439      372.946      1009.83      3049.18      9553.84      16384.7      33682.1     -1.00000
      361.000      884.000      179.814      343.118      1019.73      2970.39      9659.84      14778.8      33809.8     -1.00000
      248.000      578.000      81.3918      356.294      1027.26      3055.93      9631.88      16380.9      33641.0     -1.00000
      505.000      984.000      194.677      328.825      908.346      2747.60      8862.84      15662.9      33782.8     -1.00000
      942.000      96.0000      14.7264      347.109      1078.58      3290.85      10049.6      16952.6      33384.0     -1.00000
      304.000      917.000      170.327      347.025      978.494      3082.31      9666.98      16429.0      33574.0     -1.00000
      871.000      177.000      26.9219      332.500      989.062      3012.77      9279.18      16043.8      33297.5     -1.00000
      892.000      513.000      63.8981      370.875      1082.50      3324.55      10113.7      17038.8      33405.3     -1.00000
      397.000      177.000      17.3653      332.500      989.062      3032.83      9439.96      15683.9      33649.5     -1.00000
      563.000      903.000      192.473      324.590      914.930      2783.57      8942.28      15659.6      33462.4     -1.00000
      441.000      476.000      74.6038      382.360      1052.09      3175.51      9866.30      16656.0      33183.5     -1.00000
      9.00000      306.000     -16.6594      296.816      976.413      3170.94      9675.22      16569.6      33089.4     -1.00000
      563.000      372.000      43.6283      328.969      968.495      2942.77      9172.64      15834.9      33049.4     -1.00000
      236.000      164.000      33.6076      354.513      973.594      2985.23      9204.55      15904.5      32857.1     -1.00000
      11.0000      316.000      10.9209      303.164      919.216      2759.05      8673.98      15181.8      32855.1     -1.00000
      325.000      7.00000      28.7541      340.995      1014.18      3623.88      9196.52      15840.0      33274.0     -1.00000
      131.000      238.000      20.7501      393.797      1107.62      3345.12      9934.44      16780.2      32587.0     -1.00000
      375.000      279.000      20.1026      349.403      996.256      2892.07      9080.70      15612.8      32539.9     -1.00000
      19.0000      246.000      27.4072      343.539      996.618      3038.24      9315.13      15900.6      32307.8     -1.00000
      597.000      899.000      145.850      332.879      875.859      2657.52      8938.38      15157.1      32456.5     -1.00000
      806.000      581.000      91.1011      308.731      887.986      2712.64      8593.10      14996.5      32094.6     -1.00000
      884.000      995.000      193.022      386.102      1099.28      3413.81      10924.5      17776.3      32328.8     -1.00000
      766.000      378.000      36.0522      346.076      1039.08      3062.78      9340.91      15926.3      32072.5     -1.00000
      298.000      770.000      128.388      329.673      913.341      2903.45      9113.98      15751.3      32185.0     -1.00000
      641.000      855.000      167.630      340.454      949.311      2881.10      9065.70      15681.8      32206.8     -1.00000
      505.000      399.000      34.1405      341.465      1018.17      2863.34      9004.37      15638.7      32044.6     -1.00000
      313.000      591.000      92.4935      331.332      962.563      2986.60      9372.53      15932.0      32069.2     -1.00000
      830.000      681.000      131.531      355.260      989.297      3052.13      9451.88      16052.3      32031.7     -1.00000
      591.000      57.0000      3.51216      331.780      954.551      3044.41      9299.93      15771.8      31754.7     -1.00000
      470.000      291.000      28.7981      331.382      983.331      2922.89      9035.22      15445.4      31825.4     -1.00000
      119.000      826.000      118.740      326.568      909.789      2781.50      8895.21      15269.9      31969.9     -1.00000
      640.000      616.000      110.344      307.667      891.092      2774.26      8782.08      15254.5      31793.3     -1.00000
      724.000      762.000      161.223      329.137      904.140      2666.53      8607.23      15026.9      31840.9     -1.00000
      36.0000      891.000      169.400      515.627      1543.58      4445.22      12591.1      19321.3      31693.5     -1.00000
      998.000      420.000      44.1275      326.030      904.574      2653.80      8618.53      14831.1      31513.0     -1.00000
      210.000      220.000      23.3163      347.697      1009.22      2998.89      9244.42      15593.4      31421.3     -1.00000
      993.000      992.000      162.401      307.128      852.851      2651.22      8638.58      14800.3      31503.6     -1.00000
      867.000      246.000      27.4072      305.016      964.700      2778.58      8837.90      15203.2      31209.5     -1.00000
      775.000      976.000      184.696      316.446      845.165      2529.21      8346.11      15017.4      31446.1     -1.00000
      10.0000      732.000      89.4771      283.936      876.649      2556.83      8517.68      14745.5      31280.6     -1.00000
      581.000      381.000      40.0869      323.681      890.685      2717.23      8362.53      14554.4      31049.5     -1.00000
      239.000      265.000      21.9063      317.516      892.366      2707.35      8656.44      14862.0      30983.9     -1.00000
      323.000      369.000      27.8437      306.445      900.169      2679.32      8554.35      14802.2      31007.2     -1.00000
      661.000      643.000      131.976      222.118      589.090      1825.55      7818.63      10391.9      30965.0     -1.00000
      769.000      904.000      133.400      302.484      857.196      2453.97      8186.67      14382.4      31050.4     -1.00000
      247.000      108.000      23.9982      329.855      975.695      2666.03      8455.75      14532.1      30942.5     -1.00000
      47.0000      77.0000      14.8596      262.270      773.268      2196.34      6718.06      11443.1      23928.1     -1.00000
      621.000      303.000      21.5850      357.945      959.352      2888.42      8794.38      15044.3      30772.8     -1.00000
      568.000      711.000      110.440      335.592      950.142      2797.82      8700.70      15016.1      30895.2     -1.00000
      792.000      609.000      101.777      322.999      920.974      2789.71      8666.40      15126.1      30810.2     -1.00000
      65.0000      795.000      128.478      329.562      916.568      2716.83      8545.15      14892.5      30709.0     -1.00000
      466.000      785.000      146.566      286.706      812.605      2550.32      8183.40      14451.3      30699.2     -1.00000
      329.000      308.000      39.5667      352.102      986.870      2882.75      8788.76      14991.9      30453.7     -1.00000
      873.000      466.000      66.5951      321.542      892.867      2682.26      8423.33      14554.9      30493.3     -1.00000
      916.000      390.000      44.2987      299.250      910.563      2682.36      8346.47      14460.6      30444.1     -1.00000
      711.000      370.000      43.3501      315.678      887.227      2628.73      8382.90      14494.0      30268.1     -1.00000
      824.000      268.000      42.2513      328.833      933.586      2854.23      8527.44      14585.5      30144.6     -1.00000
      641.000      1008.00      150.873      289.520      771.607      2278.05      7675.67      12580.9      29625.8     -1.00000
      651.000      854.000      180.588      312.572      846.768      2596.68      8252.50      14496.7      30296.7     -1.00000
      969.000      305.000      17.6523      320.850      922.050      2754.96      8524.05      14683.5      30066.5     -1.00000
      939.000      835.000      134.299      274.398      778.817      2479.62      8004.76      14326.6      30221.3     -1.00000
      323.000      483.000      66.7873      306.560      890.871      2643.27      8339.50      14319.8      30296.5     -1.00000
      284.000      396.000      46.5611      322.915      987.733      2826.62      8757.16      14848.7      29994.4     -1.00000
      143.000      223.000      24.7926      363.964      2139.61      2985.47      8946.51      15159.7      29856.0     -1.00000
      403.000      870.000      148.444      335.057      904.725      2653.16      8414.91      14472.2      30053.0     -1.00000
      641.000      293.000      27.4491      271.749      713.536      2126.46      6782.83      12308.7      29826.0     -1.00000
      842.000      931.000      173.735      326.836      835.900      2581.30      8114.19      14235.3      29936.9     -1.00000
      477.000      108.000      11.1571      300.787      968.132      2830.20      8728.78      14597.8      29671.2     -1.00000
      209.000      621.000      93.5963      348.659      926.529      2819.70      8641.67      14887.4      29833.1     -1.00000
      821.000      611.000      106.048      330.058      801.941      2637.56      8036.51      13960.2      29775.5     -1.00000
      906.000      306.000      35.4242      283.975      855.333      2610.98      8187.02      14329.0      29660.8     -1.00000
