PDS_VERSION_ID         = PDS3
RECORD_TYPE            = STREAM
OBJECT                 = TEXT
  PUBLICATION_DATE     = 2014-02-19
  INTERCHANGE_FORMAT   = ASCII
  NOTE                 = "NAC hot pixel file for epoch 2006.9."
END_OBJECT             = TEXT
END

NAC hot pixel list. Lines 1 and 2 are column headings giving exposure time 
(sec) and gain state (e-/DN), respectively, of source dark images. Starting 
on line 3, first two columns indicate x and y value of hot pixel; columns 3 
through N-1 give median electron counts for each exposure bin, and last (Nth) 
column contains either the index of the exposure bin where saturation first 
occurs, or -1 if no saturation.

\begindata
      0.00000      0.00000      0.00000      10.0000      32.0000      100.000      560.000      1200.00
      0.00000      0.00000      12.8410      12.8410      30.2700      30.2700      30.2700      30.2700
      213.000      482.000      189.614      12990.4      40637.0      110559.      123456.      123459.      4.00000
      98.0000      87.0000      99.0105      8179.26      25626.9      72210.8      123472.      123459.      4.00000
      37.0000      647.000      191.056      8456.93      26091.1      71734.7      123469.      123462.      4.00000
      123.000      79.0000      118.216      9451.43      28406.3      73821.7      123465.      123453.      4.00000
      936.000      998.000      242.973      7716.48      24279.7      64828.3      123473.      123453.      4.00000
      573.000      212.000      83.2694      7758.79      22037.5      60674.1      123456.      123460.      4.00000
      599.000      452.000      122.243      7152.71      21922.4      60478.7      123457.      123462.      4.00000
      549.000      905.000      207.453      5591.33      18602.4      55407.3      123460.      123461.      4.00000
      149.000      356.000      85.0281      5466.47      17486.4      49143.3      123467.      123449.      4.00000
      227.000      664.000      175.900      5151.38      16267.6      46990.9      123456.      123464.      4.00000
      711.000      498.000      127.146      5057.32      15626.7      42977.9      123451.      123447.      4.00000
      578.000      312.000      59.5603      4540.28      13969.3      39036.1      123472.      123461.      4.00000
      444.000      692.000      156.156      3904.64      12651.9      38096.4      123473.      123464.      4.00000
      391.000      888.000      183.861      4219.75      13524.8      38556.6      123462.      123466.      4.00000
      552.000      694.000      148.624      3836.92      12322.1      37007.2      123471.      123457.      4.00000
      617.000      756.000      156.857      3562.63      11668.8      35942.0      123461.      123464.      4.00000
      758.000      44.0000      44.3631      3644.72      11232.8      32654.1      123465.      123465.      4.00000
      18.0000      679.000      120.809      3154.36      10487.4      32021.2      123460.      123464.      4.00000
      689.000      807.000      167.814      2887.83      9597.71      30691.1      123472.      123458.      4.00000
      239.000      141.000      42.6894      3309.37      10403.8      30957.2      123452.      123460.      4.00000
      555.000      944.000      223.884      2525.76      8631.93      27690.0      123461.      123464.      4.00000
      1023.00      496.000      176.150      3143.53      10089.6      29843.0      118579.      123435.      5.00000
      462.000      84.0000      32.9307      2811.50      8905.09      26830.0      116240.      123460.      5.00000
      487.000      880.000      192.745      2956.84      9723.54      29325.5      117835.      123467.      5.00000
      762.000      386.000      68.0750      2638.00      8577.55      26035.0      112312.      123457.      5.00000
      634.000      10.0000      38.4394      3085.77      9344.66      28863.3      112866.      123463.      5.00000
      981.000      23.0000      32.4986      3191.27      9930.22      28977.9      110972.      123457.      5.00000
      305.000      696.000      161.902      2376.97      7798.69      23568.9      108399.      123449.      5.00000
      430.000      51.0000      46.4432      3228.86      10160.3      29429.2      110659.      123459.      5.00000
      147.000      68.0000      35.4631      2542.16      7952.81      23836.8      108903.      123460.      5.00000
      604.000      65.0000      31.0418      2712.24      8478.99      25150.0      106781.      123458.      5.00000
      844.000      950.000      201.886      2792.57      9494.76      29265.5      107956.      123455.      5.00000
      169.000      475.000      90.1288      1892.11      6019.96      18800.6      100734.      123458.      5.00000
      919.000      199.000      34.5121      2567.16      8048.05      24307.6      103664.      123459.      5.00000
      817.000      592.000      126.156      2457.19      7755.37      23442.8      100611.      123473.      5.00000
      109.000      497.000      86.6195      1793.32      5825.34      18205.5      96397.8      123439.      5.00000
      847.000      345.000      63.1405      2220.79      7212.65      22300.1      98194.9      123467.      5.00000
      588.000      243.000      56.2877      2238.77      7247.62      21968.6      96000.9      123457.      5.00000
      691.000      97.0000      28.4814      2196.80      6906.64      21055.6      97152.2      123463.      5.00000
      542.000      622.000      135.643      2031.31      6660.66      21091.1      95456.1      123463.      5.00000
      744.000      647.000      155.091      2007.52      6637.23      20517.7      93375.4      123462.      5.00000
      795.000      80.0000      36.2602      1944.34      6256.84      19198.0      93249.8      123455.      5.00000
      242.000      194.000      55.2526      2072.21      6488.47      19848.5      89216.6      123466.      5.00000
      963.000      850.000      158.990      1555.31      5152.66      16570.1      87575.5      123454.      5.00000
      277.000      703.000      139.511      1654.55      5450.74      17567.1      87724.9      123467.      5.00000
      531.000      270.000      53.3191      2061.10      6576.00      19622.7      86831.5      123458.      5.00000
      307.000      107.000      37.7287      2092.36      6501.56      19677.0      87825.6      123456.      5.00000
      9.00000      306.000      2.87757      2335.36      7590.17      22306.9      86616.1      123455.      5.00000
      530.000      805.000      162.000      1796.98      5849.94      18018.3      83075.1      123459.      5.00000
      232.000      45.0000      31.2687      1931.12      6069.92      18357.6      83519.8      123465.      5.00000
      813.000      953.000      185.436      1896.94      6206.61      19349.1      82459.5      123465.      5.00000
      894.000      642.000      137.539      1603.50      5270.54      16667.0      80388.8      123454.      5.00000
      719.000      958.000      181.092      1740.81      5692.50      18104.2      81263.0      123456.      5.00000
      580.000      531.000      90.0493      1783.97      5676.87      17576.7      80316.8      123462.      5.00000
      417.000      152.000      42.1325      1946.28      6149.31      18477.1      79989.3      123460.      5.00000
      757.000      317.000      26.3374      1919.08      6101.80      18390.3      79821.0      123457.      5.00000
      210.000      160.000      46.0539      2112.87      6648.60      19423.3      78777.8      123459.      5.00000
      202.000      885.000      213.830      1245.11      4239.49      13826.7      75885.0      123452.      5.00000
      798.000      803.000      159.469      1464.67      4992.00      15802.7      76789.1      123461.      5.00000
      624.000      893.000      183.940      1526.70      5039.64      16126.3      76796.8      123464.      5.00000
      87.0000      156.000      40.1404      1645.76      5155.22      15735.6      76999.9      123460.      5.00000
      977.000      227.000      29.0074      1271.64      4135.97      13137.3      74164.6      123457.      5.00000
      173.000      726.000      142.619      1541.73      5165.52      16063.3      74830.8      123462.      5.00000
      774.000      911.000      173.747      1586.67      5179.26      16055.0      73990.2      123457.      5.00000
      675.000      951.000      192.273      1443.08      4703.18      14864.3      73209.1      123458.      5.00000
      329.000      799.000      171.413      1021.54      3196.59      10353.4      58922.5      122431.     -1.00000
      685.000      522.000      82.8981      1012.42      3363.25      10726.0      60027.8      121370.     -1.00000
      100.000      807.000      143.096      994.578      3181.56      10243.2      58353.0      121249.     -1.00000
      191.000      582.000      104.052      1436.75      4715.35      14783.3      69903.5      120877.     -1.00000
      665.000      677.000      117.827      1386.91      4511.23      14131.2      68290.6      120787.     -1.00000
      213.000      483.000      76.4154      207.092      367.990      643.204      42303.6      120396.     -1.00000
      144.000      995.000      218.173      1462.11      4745.11      14788.9      70441.6      120973.     -1.00000
      985.000      997.000      180.362      1306.03      4290.03      13575.7      66939.3      120032.     -1.00000
      380.000      2.00000      18.3580      998.409      3227.21      9999.09      56290.4      118706.     -1.00000
      155.000      102.000      30.7456      1815.37      5671.07      16997.1      72833.7      118477.     -1.00000
      500.000      704.000      144.267      1163.21      3846.80      12345.3      63604.0      119210.     -1.00000
      973.000      430.000      53.7369      1422.40      4597.70      14199.9      67805.7      118472.     -1.00000
      380.000      1.00000      15.6271      1082.95      3418.62      10347.0      56260.4      117881.     -1.00000
      92.0000      413.000      69.3539      1537.81      4960.29      15357.1      69580.3      118152.     -1.00000
      64.0000      477.000      59.4553      1076.46      3350.28      10604.4      57482.3      116473.     -1.00000
      96.0000      767.000      160.844      1343.47      4226.71      13078.3      64478.9      116809.     -1.00000
      1019.00      474.000      62.1363      1299.09      4131.45      12551.2      64250.4      116359.     -1.00000
      857.000      398.000      59.0691      2251.12      7203.38      20963.6      77856.0      115538.     -1.00000
      0.00000      233.000     -271.603      1117.74      4013.09      12690.7      63210.0      115068.     -1.00000
      1020.00      98.0000      13.1451      1484.71      4644.05      14173.2      64851.4      113022.     -1.00000
      988.000      967.000      201.206      1478.73      4749.80      14944.9      68028.1      113285.     -1.00000
      974.000      1018.00      150.777      995.469      3277.51      10863.6      59557.2      113294.     -1.00000
      802.000      40.0000      22.8008      1425.52      4604.30      14017.4      64227.2      110799.     -1.00000
      730.000      65.0000      17.1935      1197.87      3811.90      11905.7      59808.0      110499.     -1.00000
      566.000      332.000      56.4908      1201.02      3870.99      11900.5      59135.5      108194.     -1.00000
      996.000      931.000      147.366      926.167      3124.64      9837.21      54475.2      108359.     -1.00000
      530.000      183.000      32.9010      1485.86      4645.82      13850.3      62756.6      106858.     -1.00000
      290.000      246.000      38.8952      1406.58      4302.58      13250.2      62713.4      106036.     -1.00000
      747.000      167.000      18.8999      1168.57      3707.19      11374.5      57244.1      105806.     -1.00000
      814.000      545.000      105.232      1069.90      3466.45      10909.6      57159.9      104977.     -1.00000
      181.000      823.000      161.025      857.062      2726.70      8633.59      49813.1      105041.     -1.00000
      76.0000      1017.00      186.448      1006.18      3393.24      11091.7      58198.6      104430.     -1.00000
      845.000      863.000      188.536      928.443      2846.39      9278.77      52384.6      103933.     -1.00000
      43.0000      578.000      77.2854      960.463      3056.59      9752.94      52873.1      103411.     -1.00000
      173.000      263.000      30.6420      929.078      2929.29      8893.67      55635.9      102650.     -1.00000
      741.000      807.000      152.297      916.810      2908.25      9259.07      51622.6      102810.     -1.00000
      584.000      74.0000      20.5275      1187.24      3809.29      11566.2      56684.6      101387.     -1.00000
      443.000      545.000      102.599      892.880      2903.99      9206.99      50577.2      101254.     -1.00000
      771.000      412.000      41.4961      1159.85      3575.76      11329.8      55660.1      100472.     -1.00000
      793.000      30.0000      18.6540      881.685      2807.89      8759.21      47911.2      99903.4     -1.00000
      755.000      324.000      48.5112      994.051      3098.19      9659.67      51091.3      100113.     -1.00000
      1.00000      244.000     -237.703      788.017      2994.25      9582.42      50922.1      98947.2     -1.00000
      523.000      626.000      135.458      1128.18      3663.02      11400.0      55574.2      98712.8     -1.00000
      185.000      740.000      153.979      801.185      2543.05      8462.33      47924.3      98749.2     -1.00000
      303.000      118.000      31.1126      1174.77      3673.02      11271.8      53955.2      97143.5     -1.00000
      561.000      1015.00      207.581      840.258      2742.69      9203.28      49928.3      97338.7     -1.00000
      672.000      486.000      78.8425      834.105      2725.65      8707.96      48103.5      96462.2     -1.00000
      726.000      603.000      107.765      1210.33      3688.58      11456.0      54359.5      94749.6     -1.00000
      777.000      92.0000      20.6717      1188.76      3793.93      11637.2      54353.4      94237.3     -1.00000
      325.000      995.000      192.491      798.750      2657.93      8863.72      48152.4      94093.8     -1.00000
      476.000      340.000      30.9866      1055.01      3345.17      10374.6      50423.1      91472.1     -1.00000
      62.0000      49.0000      33.8056      1148.90      3474.63      10577.3      50581.0      90863.5     -1.00000
      985.000      56.0000      19.6154      902.742      2846.28      8667.29      45652.1      89773.1     -1.00000
      453.000      511.000      75.3539      853.596      2641.49      8432.96      45355.0      88283.8     -1.00000
      424.000      78.0000      16.8033      932.020      2981.79      9067.95      46381.5      87823.1     -1.00000
      831.000      59.0000      18.3990      908.923      2863.52      8787.63      45755.0      87749.0     -1.00000
      576.000      320.000      45.2227      1076.79      3273.68      10076.6      49079.7      87944.5     -1.00000
      987.000      627.000      114.424      888.901      2775.19      8803.81      46187.5      88199.2     -1.00000
      708.000      520.000      86.8270      912.554      2787.07      8815.76      46261.1      87353.0     -1.00000
      213.000      481.000      61.6664      88.6195      134.788      239.633      27495.8      86823.5     -1.00000
      941.000      993.000      179.220      720.865      2230.92      7244.48      41906.1      87032.6     -1.00000
      784.000      52.0000      24.7190      997.902      3131.13      9462.39      46682.5      86144.1     -1.00000
      230.000      761.000      163.477      988.111      3070.95      9785.28      48062.0      86445.2     -1.00000
      771.000      492.000      87.3685      928.192      2953.13      9172.61      46645.8      85992.5     -1.00000
      466.000      294.000      60.4272      907.644      2884.52      8765.84      44906.0      85509.0     -1.00000
      705.000      164.000      22.3161      877.042      2764.87      8502.63      44208.4      85212.0     -1.00000
      205.000      308.000      43.7782      815.163      2614.12      8223.30      43885.5      85341.7     -1.00000
      641.000      294.000      49.4111      828.295      2979.07      7825.29      42005.4      84961.4     -1.00000
      501.000      448.000      80.6838      938.844      2868.68      9170.18      46245.2      85030.6     -1.00000
      460.000      592.000      87.6328      820.319      2589.63      8071.43      43020.6      85003.4     -1.00000
      312.000      158.000      37.5435      868.144      2757.97      8616.13      44767.1      84429.8     -1.00000
      592.000      399.000      48.8513      732.933      2381.48      7222.48      40202.9      84251.1     -1.00000
      533.000      367.000      50.2099      917.129      2706.98      8363.08      43721.2      83932.2     -1.00000
      587.000      104.000      36.7852      869.550      2813.55      8748.61      44314.1      83102.9     -1.00000
      704.000      185.000      18.8453      751.383      2443.57      7638.20      40910.6      82733.2     -1.00000
      255.000      8.00000      14.0354      786.232      2462.36      7586.73      40287.7      81788.7     -1.00000
      855.000      422.000      52.5231      775.869      2598.48      8390.43      44592.9      82013.2     -1.00000
      767.000      786.000      160.017      784.541      2421.99      7519.89      40708.7      81394.5     -1.00000
      44.0000      957.000      182.930      880.729      2715.17      8702.56      42090.5      81533.5     -1.00000
      583.000      974.000      186.052      786.162      2430.07      7855.51      41945.6      81038.7     -1.00000
      144.000      588.000      114.935      855.357      2657.82      8233.74      42574.1      80560.8     -1.00000
      898.000      710.000      125.283      695.709      2198.16      6973.19      39458.3      80526.1     -1.00000
      247.000      466.000      48.2615      733.311      2272.99      7055.17      38448.9      79798.0     -1.00000
      488.000      921.000      160.557      814.448      2607.82      8242.90      42684.3      80061.6     -1.00000
      460.000      705.000      131.886      765.732      2382.37      7409.31      40034.0      79764.9     -1.00000
      527.000      84.0000      20.0287      1002.08      3160.31      9467.90      44341.3      79227.8     -1.00000
      760.000      486.000      82.5754      796.018      2490.07      7997.18      42515.5      79349.5     -1.00000
      207.000      732.000      138.372      818.764      2553.36      8042.16      41833.6      79469.2     -1.00000
      780.000      905.000      160.370      913.173      2714.41      8864.40      35234.8      79075.8     -1.00000
      324.000      402.000      43.2021      881.810      2681.55      8193.27      41678.4      78504.8     -1.00000
      326.000      567.000      95.5142      874.855      2711.28      8380.90      40699.7      78619.6     -1.00000
      830.000      978.000      201.017      916.559      2806.76      8889.48      44451.2      78910.2     -1.00000
      559.000      974.000      173.211      1053.66      3331.78      10430.0      47196.1      78689.7     -1.00000
      267.000      34.0000      14.8074      793.479      2568.04      7728.80      39501.7      76794.8     -1.00000
      727.000      344.000      38.5287      412.109      1265.01      3840.35      42011.2      76677.7     -1.00000
      331.000      674.000      122.086      771.697      2424.74      7499.23      39783.8      76899.5     -1.00000
      919.000      948.000      189.852      648.698      2172.08      7042.67      38872.5      77098.2     -1.00000
      201.000      1004.00      183.776      693.222      2171.10      7256.93      38719.0      77015.0     -1.00000
      540.000      708.000      148.031      721.488      2239.28      7104.07      38705.8      75594.7     -1.00000
      12.0000      30.0000     -5.52883      681.934      2158.76      6649.08      36263.7      74873.5     -1.00000
      785.000      572.000      98.6418      856.572      2744.20      8578.99      41873.5      74713.7     -1.00000
      978.000      1007.00      157.889      636.761      1982.44      6447.18      36590.4      74177.0     -1.00000
      694.000      17.0000      19.9137      781.352      2468.64      7497.27      38025.8      73329.0     -1.00000
      202.000      776.000      131.623      770.333      2386.77      7542.19      39059.2      73626.1     -1.00000
      724.000      209.000      38.4820      859.352      2693.89      8279.22      40023.6      73114.9     -1.00000
      417.000      843.000      206.973      684.469      2128.27      6934.98      37740.0      73409.6     -1.00000
      231.000      183.000      36.4853      755.289      2361.76      7234.79      36789.8      72680.9     -1.00000
      449.000      264.000      31.2421      835.532      2656.67      8037.81      39890.7      72469.0     -1.00000
      900.000      287.000      44.5679      865.954      2657.97      8173.32      38239.4      72302.1     -1.00000
      319.000      267.000      36.2406      751.444      2457.34      7389.87      38261.9      72136.7     -1.00000
      47.0000      948.000      167.592      806.679      2584.11      8206.34      41644.4      72564.8     -1.00000
      816.000      880.000      171.923      721.007      2144.91      6680.59      36462.3      72179.3     -1.00000
      680.000      284.000      36.7519      730.616      2199.26      6836.49      36234.0      71385.2     -1.00000
      373.000      655.000      105.687      793.137      2455.88      7872.02      38986.2      71380.6     -1.00000
      1008.00      692.000      94.9217      712.522      2179.55      6791.61      36756.8      71038.0     -1.00000
      577.000      843.000      168.450      743.867      2377.34      7508.60      37981.5      70499.5     -1.00000
      720.000      263.000      27.2568      660.433      1977.61      6215.39      33627.2      69948.3     -1.00000
      345.000      537.000      80.5691      786.779      2469.31      7613.00      38624.3      69580.8     -1.00000
      162.000      446.000      46.6992      691.826      2187.04      6785.88      35490.0      68851.1     -1.00000
      906.000      47.0000      14.9759      650.421      2210.76      6851.84      35536.7      68535.5     -1.00000
      88.0000      291.000      50.9011      938.316      2962.59      8896.65      40372.2      68471.0     -1.00000
      12.0000      187.000      7.38840      614.931      1908.03      5979.68      32933.9      68323.7     -1.00000
      305.000      103.000      1.57527      689.608      2134.38      6521.17      33961.3      67431.5     -1.00000
      149.000      961.000      252.417      578.001      1760.43      5759.78      33057.8      67328.9     -1.00000
      98.0000      86.0000      16.0689      74.1966      131.833      227.579      1977.59      66458.1     -1.00000
      363.000      225.000      43.2034      605.990      1800.76      5695.57      31375.8      66109.5     -1.00000
      793.000      917.000      186.467      599.491      1972.21      6312.48      33897.6      66014.6     -1.00000
      784.000      648.000      140.848      653.126      1946.37      6173.70      33101.3      65777.6     -1.00000
      78.0000      174.000      38.0174      804.564      2381.75      7160.45      35367.1      65440.5     -1.00000
      731.000      536.000      113.577      724.177      2390.06      7282.31      36004.1      65510.4     -1.00000
      325.000      627.000      139.353      560.396      1698.54      5438.66      30573.1      65050.9     -1.00000
      748.000      369.000      47.9102      738.160      2296.11      7004.00      35287.2      64792.1     -1.00000
      37.0000      648.000      131.814      202.200      322.779      556.161      6999.34      64549.9     -1.00000
      630.000      55.0000      21.0800      696.423      2130.47      6520.97      33374.5      64052.3     -1.00000
      603.000      839.000      155.648      711.062      2194.48      6800.04      35411.2      64165.2     -1.00000
      853.000      990.000      160.633      529.496      1636.81      5178.20      29942.0      64167.1     -1.00000
      566.000      807.000      139.456      659.990      2119.56      6689.86      34084.2      63941.9     -1.00000
      895.000      34.0000      6.55758      623.663      2004.40      6038.75      31692.8      63335.8     -1.00000
      248.000      547.000      92.9908      613.211      1725.23      5205.45      29882.9      63651.1     -1.00000
      815.000      457.000      37.2405      556.377      1793.90      5678.95      31425.4      63485.7     -1.00000
      369.000      243.000      27.9250      589.455      1780.72      5450.34      30069.9      63260.7     -1.00000
      762.000      852.000      215.884      1287.41      4178.02      12923.4      47332.2      62895.1     -1.00000
      452.000      407.000      54.0839      583.765      1879.00      5869.08      31130.3      61797.8     -1.00000
      931.000      464.000      74.7424      556.479      1724.62      5504.24      30022.7      61311.1     -1.00000
      698.000      968.000      191.725      631.782      1928.03      6224.64      32306.9      61567.0     -1.00000
      940.000      801.000      130.141      622.669      1889.72      6142.98      32205.3      61347.2     -1.00000
      521.000      69.0000      7.22828      684.428      2078.56      6474.80      32268.7      60791.5     -1.00000
      492.000      870.000      142.352      543.081      1623.97      4949.46      28832.0      60726.0     -1.00000
      471.000      142.000      20.8214      752.952      2246.45      4955.58      30809.1      59568.6     -1.00000
      836.000      68.0000      9.78097      549.690      1734.51      5391.26      28797.8      59445.9     -1.00000
      166.000      826.000      186.558      616.533      1856.82      5953.50      31317.8      59544.1     -1.00000
      409.000      125.000      34.2825      652.133      2028.34      6077.54      30795.9      58887.2     -1.00000
      857.000      693.000      109.070      600.498      1834.00      5748.71      30614.0      59237.5     -1.00000
      617.000      739.000      160.547      561.794      1698.48      5329.84      29345.7      59188.2     -1.00000
      618.000      917.000      184.204      546.452      1654.50      5065.71      28434.8      59096.6     -1.00000
      734.000      809.000      155.400      556.391      1671.13      5190.17      29100.1      59011.9     -1.00000
      798.000      984.000      216.735      3480.91      11664.7      5337.67      29562.0      58941.9     -1.00000
      683.000      996.000      182.016      539.453      1754.99      5505.23      29890.0      58936.7     -1.00000
      63.0000      21.0000      13.6322      631.019      2002.70      6121.90      30551.6      58255.7     -1.00000
      317.000      537.000      66.9708      593.109      1836.93      5799.05      30223.0      58561.3     -1.00000
      132.000      518.000      102.229      547.788      1622.97      5027.32      27795.9      58045.7     -1.00000
      13.0000      179.000     -1.34002      565.411      1803.99      5497.29      29245.4      57705.7     -1.00000
      594.000      452.000      45.1964      545.897      1707.71      5232.94      28537.3      57840.8     -1.00000
      64.0000      357.000      38.1996      635.042      1906.38      5865.79      30159.8      57336.8     -1.00000
      641.000      90.0000      19.8907      531.574      1622.25      4952.80      26872.3      56887.6     -1.00000
      355.000      891.000      195.710      587.471      1724.27      5302.11      28602.1      57094.1     -1.00000
      476.000      545.000      102.599      587.539      1678.48      5212.69      28522.2      56409.9     -1.00000
      36.0000      611.000      99.7997      528.449      1607.15      4980.93      27551.5      56408.9     -1.00000
      269.000      311.000      34.0824      608.256      1821.19      5613.34      28655.5      55804.4     -1.00000
      367.000      595.000      124.561      504.233      1533.09      4785.82      26416.7      55870.5     -1.00000
      831.000      914.000      184.711      492.966      1442.26      4573.82      25993.6      55958.0     -1.00000
      725.000      349.000      31.8250      507.021      1584.20      4891.03      26943.3      55603.6     -1.00000
      561.000      362.000      36.5815      502.599      1592.30      4825.82      26939.7      55460.3     -1.00000
      901.000      948.000      167.592      521.487      1596.13      4977.79      27800.5      55667.3     -1.00000
      280.000      559.000      97.1306      517.297      1643.88      5248.06      27906.9      55325.8     -1.00000
      1006.00      56.0000      23.6521      549.138      1748.64      5419.21      28174.1      54998.4     -1.00000
      411.000      683.000      124.594      512.447      1505.01      4760.85      26553.1      54729.2     -1.00000
      397.000      341.000      33.8624      514.210      1515.98      4736.67      28033.0      54154.3     -1.00000
      645.000      351.000      39.0700      592.705      1802.27      5455.57      28053.8      54125.8     -1.00000
      677.000      129.000      16.8260      560.129      1753.46      5330.02      27515.9      53945.1     -1.00000
      288.000      310.000      27.9834      615.089      1816.63      6123.86      29815.0      54035.9     -1.00000
      238.000      860.000      166.139      530.730      1549.35      4677.13      25521.8      54294.9     -1.00000
      671.000      412.000      47.6034      548.469      1604.49      4999.37      26717.9      53924.6     -1.00000
      674.000      317.000      43.9291      545.734      1696.62      5304.82      27509.7      53826.7     -1.00000
      301.000      102.000      7.72950      523.747      1555.12      4729.05      25449.5      53639.0     -1.00000
      58.0000      90.0000      17.0075      576.517      1757.22      5382.78      27622.2      53465.9     -1.00000
      54.0000      947.000      171.248      487.108      1474.92      4943.86      27267.3      53770.3     -1.00000
      527.000      645.000      121.627      521.758      1541.97      4860.80      26076.1      53226.1     -1.00000
      247.000      467.000      74.1046      470.965      1412.36      4138.39      23825.2      53039.7     -1.00000
      392.000      1015.00      213.150      508.935      1511.46      4692.73      26378.1      53300.9     -1.00000
      366.000      691.000      121.220      535.881      1656.61      5171.75      27162.9      53115.6     -1.00000
      658.000      835.000      137.207      491.299      1494.59      4885.88      26825.4      52899.3     -1.00000
      401.000      599.000      122.119      565.797      1734.14      5310.60      27365.0      52729.9     -1.00000
      827.000      817.000      157.887      462.524      1371.59      4274.20      24515.1      52829.7     -1.00000
      420.000      202.000      20.7465      544.659      1630.56      8709.35      26502.2      52273.1     -1.00000
      874.000      134.000      21.2903      481.155      1492.33      4595.97      24827.6      52223.6     -1.00000
      1015.00      571.000      76.6455      448.187      1325.78      4184.73      23802.2      51680.1     -1.00000
      910.000      336.000      29.1605      533.223      1547.82      4817.17      25792.0      52006.8     -1.00000
      77.0000      240.000      43.2307      490.157      1553.95      4729.31      25234.8      51525.3     -1.00000
      642.000      131.000      19.8766      525.828      1579.21      4829.33      25387.5      51382.3     -1.00000
      953.000      511.000      49.8524      498.857      1460.18      4623.12      25039.1      51586.9     -1.00000
      453.000      128.000      25.6709      529.819      1611.61      4897.99      25565.5      51352.3     -1.00000
      142.000      570.000      85.5616      487.347      1463.60      4359.84      24654.1      51380.0     -1.00000
      89.0000      698.000      115.448      483.160      1448.69      4432.49      24782.1      51399.5     -1.00000
      577.000      376.000      45.4127      496.120      1468.48      4552.81      25216.4      51131.3     -1.00000
      364.000      287.000      34.1466      481.646      1462.30      4469.75      22976.1      51016.4     -1.00000
      302.000      331.000      42.3081      490.780      1526.06      4613.48      24915.9      50690.7     -1.00000
      672.000      170.000      26.7420      496.809      1518.34      4727.90      24983.6      50374.0     -1.00000
      154.000      877.000      149.690      461.479      1371.78      4339.17      24756.6      50722.7     -1.00000
      819.000      249.000      30.4830      457.594      1400.15      4457.77      24386.4      49947.0     -1.00000
      402.000      33.0000      4.32775      519.498      1580.22      4677.82      24579.5      49805.8     -1.00000
      37.0000      544.000      45.0719      539.656      1603.89      4691.57      25136.2      50009.6     -1.00000
      28.0000      146.000      22.3569      479.114      1428.40      4310.71      23739.8      49675.8     -1.00000
      287.000      216.000      28.7145      504.369      1528.72      4588.76      24410.4      49477.4     -1.00000
      630.000      606.000      128.220      455.016      1389.23      4282.24      23934.6      49195.0     -1.00000
      375.000      676.000      121.938      475.708      1320.59      4065.65      23066.0      49134.6     -1.00000
      373.000      970.000      181.693      504.425      1445.15      4654.57      24488.4      49216.5     -1.00000
      719.000      900.000      159.194      560.586      1673.37      5050.74      26420.8      49142.7     -1.00000
      427.000      586.000      95.3002      429.843      1373.49      4244.70      23310.3      48794.9     -1.00000
      171.000      712.000      136.704      489.997      1549.73      4673.73      24966.1      48743.2     -1.00000
      641.000      293.000      24.0201      286.039      976.560      2471.61      14956.7      36832.6     -1.00000
      483.000      824.000      142.466      429.806      1332.63      4160.19      23557.4      48543.5     -1.00000
      910.000      744.000      122.876      476.121      1412.97      4395.73      24092.5      48137.7     -1.00000
      643.000      399.000      44.0393      485.252      1429.23      4505.84      24016.0      47815.8     -1.00000
      403.000      6.00000      21.7787      449.106      1452.92      4476.33      23627.3      47476.0     -1.00000
      617.000      409.000      43.6908      502.289      1533.44      4668.02      24046.1      47302.3     -1.00000
      433.000      140.000      19.6234      458.511      1362.67      4191.62      22525.7      47099.3     -1.00000
      879.000      826.000      162.657      436.758      1342.48      4040.19      22769.0      47226.7     -1.00000
      777.000      947.000      185.212      463.427      1314.60      4272.45      24219.6      47235.0     -1.00000
      678.000      265.000      45.9425      514.413      1539.15      4554.93      23947.4      46584.0     -1.00000
      805.000      354.000      43.2065      466.097      1442.96      4243.17      22782.9      46406.3     -1.00000
      558.000      496.000      86.2627      378.386      1176.32      3776.63      21027.1      44845.3     -1.00000
      689.000      808.000      153.021      197.180      272.044      498.625      1220.58      46204.0     -1.00000
      691.000      369.000      37.2519      455.657      1413.05      4355.84      23045.7      45872.9     -1.00000
      831.000      490.000      64.4303      461.004      1386.18      4221.94      22440.6      45865.6     -1.00000
      538.000      183.000      30.0526      517.681      1467.77      4405.75      22726.6      45409.1     -1.00000
      874.000      141.000      17.0073      447.072      1304.29      3934.58      21208.8      45228.8     -1.00000
      834.000      272.000      21.2294      458.867      1462.60      4471.15      23055.5      44644.1     -1.00000
      346.000      986.000      169.715      457.254      1276.66      3868.29      21814.4      44864.4     -1.00000
      880.000      745.000      140.715      416.578      1207.77      3656.36      20923.9      44637.5     -1.00000
      617.000      387.000      34.2313      435.044      1316.40      3969.91      21388.6      44146.9     -1.00000
      55.0000      839.000      142.807      463.625      1346.92      4014.04      22163.6      44272.5     -1.00000
      397.000      447.000      39.0192      466.673      1428.04      4277.06      22455.3      44047.5     -1.00000
      549.000      47.0000      25.8310      432.804      1347.16      4074.47      21450.8      43551.0     -1.00000
      851.000      931.000      147.366      476.685      1325.02      4082.41      21534.0      43679.3     -1.00000
      51.0000      722.000      114.824      438.538      1245.61      3804.77      21045.1      43538.8     -1.00000
      915.000      216.000      19.2651      451.248      1364.06      4137.14      21722.0      43245.4     -1.00000
      608.000      453.000      72.7726      477.633      1437.04      4176.92      21864.8      43333.7     -1.00000
      589.000      219.000      24.9830      455.680      1385.38      4166.69      21816.5      43158.3     -1.00000
      594.000      443.000      65.1432      432.746      1261.34      3908.15      21471.0      43258.7     -1.00000
      35.0000      358.000      45.6078      390.896      1156.64      3619.95      20457.1      43203.2     -1.00000
      377.000      623.000      105.420      438.245      1229.33      3777.92      20987.7      43308.6     -1.00000
      193.000      369.000      42.5998      391.884      1327.47      3916.82      20821.6      43179.3     -1.00000
      642.000      412.000      28.6551      432.090      1275.95      3884.11      20951.6      43046.7     -1.00000
      390.000      790.000      133.702      567.236      1722.39      5133.85      24358.1      43200.1     -1.00000
      689.000      806.000      151.176      97.4089      153.847      239.346      407.908      42967.2     -1.00000
      167.000      146.000      17.0816      450.417      1365.63      4188.40      22254.9      42652.6     -1.00000
      365.000      875.000      176.676      438.835      1248.32      3809.82      21068.9      42888.7     -1.00000
      836.000      954.000      170.834      443.995      1300.19      4018.15      21602.5      42881.4     -1.00000
      529.000      436.000      54.2389      528.818      1524.97      4405.28      23214.8      42610.2     -1.00000
      985.000      161.000      22.1362      475.503      1414.60      4204.01      21565.2      42409.4     -1.00000
      775.000      154.000      20.7629      401.793      1205.60      3842.46      20318.8      42379.7     -1.00000
      273.000      710.000      122.951      482.404      1431.60      4384.01      22284.7      42548.8     -1.00000
      537.000      546.000      100.592      451.299      1235.97      3817.08      20508.9      42378.9     -1.00000
      155.000      734.000      189.476      379.649      1163.41      3622.52      20197.7      42290.5     -1.00000
      56.0000      775.000      131.793      397.499      1137.97      3617.25      20540.0      42295.7     -1.00000
      885.000      589.000      86.2768      400.013      1234.52      3873.04      20870.4      41925.6     -1.00000
      823.000      205.000      29.5054      410.539      1305.76      3891.51      21161.9      41676.8     -1.00000
      936.000      999.000      223.566      298.070      442.661      791.062      1553.25      42020.1     -1.00000
      12.0000      288.000      19.6605      403.118      1230.31      3769.92      20144.0      41690.9     -1.00000
      824.000      260.000      22.6701      394.940      1148.13      3569.28      19576.3      41415.3     -1.00000
      875.000      570.000      89.5376      410.455      1197.44      3631.15      19625.2      41421.2     -1.00000
      487.000      441.000      27.7781      425.095      1277.93      3949.66      20713.9      41342.4     -1.00000
      658.000      48.0000      6.25371      394.041      1241.83      3721.80      19893.6      40921.2     -1.00000
      978.000      763.000      112.265      383.684      1216.71      3851.55      20218.5      41160.8     -1.00000
      112.000      429.000      38.5160      427.829      1184.66      3655.53      19801.5      40759.3     -1.00000
      645.000      914.000      172.601      413.134      1106.73      3593.78      19802.9      40944.1     -1.00000
      302.000      17.0000      19.1475      397.441      1238.84      3677.31      19455.6      40276.5     -1.00000
      704.000      370.000      42.9240      360.879      1090.76      3267.62      17548.2      37283.7     -1.00000
      708.000      985.000      183.759      378.690      1059.54      3231.13      18728.8      40355.8     -1.00000
      527.000      916.000      144.601      398.352      1136.73      3540.49      19608.3      40213.5     -1.00000
      708.000      72.0000      24.1400      405.797      1215.64      3559.53      19137.2      39751.8     -1.00000
      518.000      80.0000      11.8409      392.881      1165.81      3589.59      19280.3      39752.5     -1.00000
      553.000      979.000      159.649      382.897      1093.85      3443.38      19201.2      39649.9     -1.00000
      504.000      22.0000     0.623084      357.527      1127.92      3417.46      18514.7      39106.8     -1.00000
      1012.00      148.000      18.8226      379.464      1172.12      3490.75      18952.0      39082.6     -1.00000
      193.000      867.000      167.671      376.043      1111.15      3356.04      18730.2      39124.0     -1.00000
      225.000      426.000      70.9234      418.306      1174.38      3523.79      18558.5      38938.9     -1.00000
      1001.00      555.000      63.3037      378.968      1108.78      3562.34      19169.6      38954.4     -1.00000
      470.000      291.000      26.8309      419.087      1217.65      3591.44      19093.8      38786.9     -1.00000
      227.000      743.000      152.209      390.679      1090.83      3362.06      18252.0      38847.8     -1.00000
      169.000      790.000      139.537      434.296      1192.67      3656.31      19067.1      38805.0     -1.00000
      771.000      889.000      165.945      421.418      1198.98      3510.77      18939.3      38803.5     -1.00000
      197.000      559.000      73.1737      401.727      1112.42      3436.62      18670.9      38525.4     -1.00000
      849.000      174.000      22.4967      420.889      1206.84      3806.99      18984.4      38146.6     -1.00000
      520.000      580.000      95.5033      394.873      1092.74      3293.16      18078.3      38012.9     -1.00000
      341.000      573.000      96.2856      340.471      1035.32      3205.91      18093.7      37939.8     -1.00000
      225.000      371.000      44.8118      440.713      1205.80      3647.99      18720.0      37758.6     -1.00000
      173.000      739.000      139.724      433.724      1163.17      3610.57      18884.3      37811.4     -1.00000
      505.000      399.000      36.0102      403.178      1121.78      3363.41      18380.6      37638.8     -1.00000
      417.000      297.000      34.3446      394.807      1127.61      3435.07      18171.7      37597.3     -1.00000
      365.000      275.000      26.3725      372.275      1071.71      3268.16      17828.3      37458.6     -1.00000
      468.000      160.000      20.3718      373.166      1133.80      3443.36      18308.6      37383.4     -1.00000
      3.00000      866.000     -30.8120      198.192      827.656      2912.22      17258.1      37583.2     -1.00000
      457.000      908.000      151.472      405.022      1122.44      3368.96      18599.2      37330.2     -1.00000
      726.000      660.000      132.068      409.524      1125.34      3475.84      18459.6      37112.9     -1.00000
      363.000      721.000      110.527      385.389      1089.87      3177.78      17789.2      37053.2     -1.00000
      221.000      117.000      17.5791      390.448      1153.21      3486.25      18086.3      36778.4     -1.00000
      777.000      67.0000      5.22979      341.968      1074.62      3260.79      17581.4      36704.3     -1.00000
      514.000      851.000      144.397      359.256      991.514      3042.15      17453.5      36969.4     -1.00000
      107.000      866.000      160.181      372.794      1058.95      3202.25      17540.4      36965.8     -1.00000
      687.000      635.000      91.8555      335.188      1013.44      3105.25      17104.0      36441.3     -1.00000
      160.000      90.0000      17.0075      365.922      1146.49      3375.92      17793.1      36607.6     -1.00000
      998.000      420.000      38.7947      362.741      1033.65      3126.48      17395.5      36719.3     -1.00000
      563.000      903.000      177.310      351.737      995.771      3083.17      17158.8      36856.0     -1.00000
      421.000      945.000      175.548      399.871      1173.26      3708.28      20724.1      36870.4     -1.00000
      8.00000      966.000      119.994      319.360      990.523      3188.70      17660.8      36766.1     -1.00000
      849.000      130.000      20.7335      359.244      1115.52      3354.19      17894.6      36369.2     -1.00000
      549.000      906.000      199.003      247.169      448.193      735.384      1670.07      36587.4     -1.00000
      112.000      159.000      28.3231      399.089      1159.16      3488.94      18027.0      36025.2     -1.00000
      193.000      128.000      14.4545      350.426      1103.32      3218.01      17290.9      35857.0     -1.00000
      117.000      230.000      36.7383      392.462      1135.94      3422.26      18001.2      35842.8     -1.00000
      916.000      390.000      45.7412      355.032      1035.63      3142.38      17122.5      35781.6     -1.00000
      888.000      966.000      192.378      392.214      1033.14      3182.84      16608.8      35912.2     -1.00000
      667.000      19.0000      12.3506      348.125      1038.69      3185.26      17077.5      35529.0     -1.00000
      995.000      108.000      9.68841      373.035      1162.80      3554.71      18247.6      35490.6     -1.00000
      152.000      79.0000      27.1102      356.478      1114.90      3306.60      17239.1      35426.1     -1.00000
      589.000      757.000      145.708      358.084      997.868      3095.29      16659.8      35478.6     -1.00000
      831.000      303.000      37.0547      327.651      1048.47      3168.65      16929.9      35292.3     -1.00000
      867.000      246.000      26.0542      372.230      1015.68      3180.51      17156.3      35173.0     -1.00000
      29.0000      725.000      138.730      365.735      1045.14      3185.09      17077.8      35334.4     -1.00000
      429.000      583.000      114.616      381.554      1159.85      3184.09      18323.2      35124.9     -1.00000
      98.0000      88.0000      19.0879      70.0138      156.276      261.725      8409.58      34812.6     -1.00000
      431.000      160.000      18.0963      415.352      1290.33      3797.71      18205.4      34611.9     -1.00000
      183.000      431.000      69.5073      370.192      1116.42      3301.40      17147.9      34602.6     -1.00000
      787.000      499.000      75.0491      345.289      980.225      3007.17      16589.5      34508.2     -1.00000
      162.000      642.000      141.511      364.139      1082.38      3254.50      16785.9      34528.8     -1.00000
      99.0000      209.000      24.5366      365.686      1056.37      3184.85      16873.6      34330.8     -1.00000
      881.000      92.0000      5.37225      337.733      1008.38      3012.95      16224.5      34056.8     -1.00000
      160.000      91.0000      20.2186      384.309      1147.12      3269.82      16972.6      34023.0     -1.00000
      108.000      721.000      123.368      367.447      1104.63      3208.37      16838.2      34189.2     -1.00000
      472.000      143.000      25.0634      343.935      1079.86      3177.90      16642.4      33958.2     -1.00000
      505.000      984.000      166.130      322.064      908.917      2857.43      15919.1      34086.2     -1.00000
      342.000      743.000      133.774      378.501      1001.44      3051.41      16480.4      33954.5     -1.00000
      191.000      207.000      30.1002      382.315      1066.42      3168.47      16705.3      33749.2     -1.00000
      187.000      340.000      30.9866      322.436      986.190      2967.44      16330.1      33655.9     -1.00000
      581.000      381.000      40.0619      345.188      964.304      2974.71      15821.3      33630.2     -1.00000
      380.000      127.000      24.9519      330.928      1110.58      3206.08      16363.9      33015.4     -1.00000
      19.0000      246.000      24.9339      342.893      998.042      3113.75      16085.7      32924.9     -1.00000
      641.000      855.000      185.638      352.031      980.843      2955.11      16122.6      32827.6     -1.00000
      105.000      152.000      31.3809      314.794      966.916      2897.06      15441.4      32571.1     -1.00000
      131.000      238.000      40.3663      402.596      1157.01      3363.92      16686.8      32482.5     -1.00000
      375.000      279.000      29.3126      337.844      986.199      2896.74      15641.6      32396.6     -1.00000
      280.000      814.000      139.511      322.414      926.158      2732.84      15524.9      32509.7     -1.00000
      231.000      456.000      55.5363      300.610      904.931      2746.78      15070.9      32236.1     -1.00000
      724.000      762.000      145.624      344.057      929.759      2748.76      15216.0      32353.8     -1.00000
      949.000      72.0000      11.9395      344.480      1023.58      3037.27      15765.0      32101.7     -1.00000
      821.000      611.000      111.368      313.703      887.870      2622.39      14319.5      30347.3     -1.00000
      806.000      581.000      84.2996      330.011      916.647      2730.02      15080.8      32102.6     -1.00000
      423.000      769.000      132.740      339.402      884.522      2719.81      15381.7      32027.4     -1.00000
      591.000      57.0000      9.34743      343.643      989.429      2985.67      15669.3      31622.2     -1.00000
      70.0000      198.000      21.1604      347.470      1058.51      3104.24      15981.3      31624.7     -1.00000
      202.000      458.000      62.3332      323.764      907.768      2725.97      14779.2      31599.3     -1.00000
      798.000      505.000      64.0264      325.175      937.471      2867.60      15451.1      31640.4     -1.00000
      5.00000      630.000     -17.2205      266.734      928.517      3051.81      16442.4      31663.2     -1.00000
      790.000      531.000      85.0729      344.466      966.231      2888.32      15462.2      31587.3     -1.00000
      640.000      561.000      108.249      326.959      941.688      2862.49      15459.4      31462.0     -1.00000
      621.000      303.000      46.6089      342.470      1020.71      2970.49      15533.2      31359.9     -1.00000
      993.000      992.000      148.561      326.873      877.970      2795.11      15186.5      31576.4     -1.00000
      855.000      840.000      160.021      325.295      878.086      2597.86      14691.2      31355.3     -1.00000
      792.000      609.000      105.021      336.715      938.136      2782.49      15260.9      31215.5     -1.00000
      811.000      915.000      166.086      317.074      898.615      2756.28      15572.2      31285.3     -1.00000
      499.000      870.000      166.297      312.131      836.950      2500.54      14622.9      31264.7     -1.00000
      323.000      369.000      37.3160      309.513      958.184      2767.71      14765.5      31094.0     -1.00000
      548.000      186.000      29.8069      340.978      1035.45      2924.37      15233.2      30998.1     -1.00000
      856.000      746.000      134.611      338.086      851.633      2692.73      14839.4      31166.5     -1.00000
      842.000      931.000      160.759      351.633      931.515      2814.44      15019.2      31225.1     -1.00000
      239.000      265.000      40.2218      315.377      941.848      2800.48      14791.7      30994.6     -1.00000
      1019.00      93.0000      16.9199      310.090      951.822      2903.68      15007.2      30849.6     -1.00000
      917.000      95.0000      6.34562      282.816      836.808      2498.45      14024.8      30784.2     -1.00000
      359.000      626.000      116.651      338.457      904.993      2710.72      14719.0      30712.0     -1.00000
      962.000      436.000      54.2389      335.340      977.431      2841.81      15199.8      30645.6     -1.00000
      248.000      578.000      120.418      352.037      971.533      2834.77      14949.2      30558.7     -1.00000
      513.000      432.000      58.9585      372.614      1052.44      2985.61      15581.4      30505.6     -1.00000
      599.000      451.000      46.5677      70.9569      133.938      228.615      400.228      30500.7     -1.00000
      340.000      601.000      84.3552      330.530      915.985      2760.57      14832.5      30501.2     -1.00000
      323.000      483.000      43.2417      303.817      899.209      2621.54      14426.2      30415.1     -1.00000
      18.0000      441.000      17.6189      337.853      888.509      2728.42      14885.7      30371.9     -1.00000
      1020.00      526.000      63.1845      299.390      855.200      2572.71      14121.5      30089.4     -1.00000
      651.000      854.000      165.025      312.775      880.832      2665.79      14583.5      30242.0     -1.00000
      969.000      305.000      26.0351      319.459      939.658      2806.14      14710.7      30000.9     -1.00000
      8.00000      565.000      12.9575      253.688      819.106      2470.86      14130.3      30068.0     -1.00000
      581.000      78.0000      15.2589      322.070      960.114      2740.59      14519.8      29861.8     -1.00000
      77.0000      547.000      80.8228      329.532      888.167      2639.48      14034.7      29974.4     -1.00000
      939.000      835.000      138.643      283.876      827.654      2494.85      14343.4      30017.5     -1.00000
      466.000      785.000      155.884      317.337      862.162      2619.77      13705.1      29986.7     -1.00000
      460.000      847.000      175.842      335.718      909.098      2651.81      14175.9      29949.6     -1.00000
      36.0000      891.000      170.028      495.892      1430.06      4272.64      18206.6      29942.8     -1.00000
      422.000      483.000      76.4154      347.924      969.214      2862.39      15032.4      29806.4     -1.00000
      14.0000      947.000      150.594      328.596      894.477      2696.96      15366.1      29831.3     -1.00000
      232.000      805.000      141.687      342.371      929.119      2688.18      14521.7      29616.3     -1.00000
      944.000      946.000      166.994      329.136      924.126      2670.08      14119.9      29543.4     -1.00000
      139.000      1002.00      172.972      319.736      821.998      2542.26      14100.0      29404.0     -1.00000
      991.000      587.000      80.8791      300.394      882.992      2651.95      14396.8      29211.6     -1.00000
      1013.00      689.000      93.2180      300.968      847.295      2584.64      13884.9      29115.8     -1.00000
      375.000      287.000      47.3928      343.301      945.635      2876.43      14551.2      28915.6     -1.00000
      892.000      496.000      86.0306      288.930      826.637      2402.21      12653.4      26496.2     -1.00000
      775.000      976.000      187.433      310.900      822.132      2441.84      13775.2      29059.2     -1.00000
      249.000      445.000      34.3526      304.319      854.299      2617.21      13973.6      28806.8     -1.00000
      424.000      127.000      3.50620      333.000      949.959      2835.32      14229.4      28673.1     -1.00000
      956.000      110.000      18.2571      270.867      833.879      2560.86      13570.9      28817.0     -1.00000
      767.000      3.00000    -0.268173      310.491      983.599      2900.67      15397.4      28559.0     -1.00000
      672.000      487.000      72.4955      251.238      648.480      1778.30      10827.7      28666.7     -1.00000
      1014.00      129.000      19.4703      293.779      832.750      2534.82      13582.5      28466.1     -1.00000
      418.000      245.000      35.0222      309.589      983.715      2626.49      13107.7      28435.0     -1.00000
      756.000      105.000      15.1925      320.513      933.225      2652.68      13848.2      28283.0     -1.00000
      808.000      878.000      144.413      317.638      887.956      2580.48      13832.9      28512.8     -1.00000
      739.000      354.000      46.6400      299.515      852.626      2479.05      13202.0      28251.1     -1.00000
      77.0000      239.000      23.8203      273.290      788.114      2280.11      12416.3      28200.8     -1.00000
      589.000      199.000      31.2757      306.331      849.661      2516.47      13292.5      28269.5     -1.00000
      674.000      10.0000      12.7573      275.131      853.101      2534.46      13418.2      28052.2     -1.00000
      903.000      176.000      2.61549      259.501      811.682      2467.50      13072.3      27997.4     -1.00000
      236.000      164.000      22.3161      267.351      805.110      2323.09      12141.8      25430.0     -1.00000
      402.000      408.000      35.1924      294.782      851.718      2429.96      13192.4      27864.4     -1.00000
      351.000      658.000      138.799      288.013      806.186      2405.51      13318.4      27913.5     -1.00000
      702.000      767.000      136.027      121.094      859.660      2489.87      13238.8      27830.4     -1.00000
      386.000      432.000      46.1174      285.473      842.339      2527.41      13256.5      27730.0     -1.00000
      118.000      429.000      38.5160      260.896      737.280      2126.21      11233.8      23536.0     -1.00000
      516.000      76.0000      9.55322      301.495      856.593      2516.84      13165.7      27843.0     -1.00000
      754.000      583.000      104.791      297.763      853.858      2525.33      13510.2      27617.9     -1.00000
      261.000      450.000      59.6571      307.947      886.869      2589.43      13647.0      27489.3     -1.00000
      717.000      275.000      26.3725      278.807      817.966      2425.85      12903.9      27414.0     -1.00000
      660.000      342.000      36.1800      251.953      898.460      2293.80      12341.3      27306.0     -1.00000
      841.000      538.000      64.9625      302.457      864.507      2524.17      13291.9      27360.6     -1.00000
      738.000      965.000      177.135      340.571      861.370      2533.80      13397.7      27435.2     -1.00000
      123.000      78.0000      3.96226      72.1745      131.927      205.398      339.841      27133.1     -1.00000
      123.000      575.000      210.303      309.621      835.621      2456.47      13226.5      27230.7     -1.00000
      2.00000      582.000     -140.626      69.1751      660.905      2350.13      13132.5      27221.6     -1.00000
      352.000      549.000      89.8514      298.382      791.030      2384.88      12919.7      27195.8     -1.00000
      220.000      502.000      96.7633      295.119      821.131      2372.45      12875.1      27080.9     -1.00000
      555.000      592.000      92.6174      293.836      820.550      2420.29      12924.6      27101.1     -1.00000
      589.000      231.000      31.6208      291.877      860.555      2508.47      12911.3      26991.0     -1.00000
      71.0000      607.000      97.0683      301.211      839.492      2404.23      13098.6      27035.6     -1.00000
      209.000      45.0000      13.1862      287.006      917.957      2695.64      13622.1      26846.2     -1.00000
      244.000      689.000      121.341      301.620      830.731      2371.61      12982.6      26913.1     -1.00000
      304.000      124.000      17.2000      284.341      877.261      2521.36      13068.3      26712.9     -1.00000
      4.00000      296.000     -119.911      168.333      741.339      2437.21      13106.2      26727.1     -1.00000
      71.0000      45.0000      5.91158      273.488      830.139      2437.21      12812.9      26651.1     -1.00000
      313.000      591.000      92.4815      316.033      832.047      2495.64      13242.1      26796.5     -1.00000
      16.0000      636.000      84.0532      302.576      805.850      2347.28      12912.3      26800.8     -1.00000
      306.000      772.000      156.429      301.742      779.795      2174.29      11611.3      26824.4     -1.00000
      786.000      287.000      21.7107      234.152      672.717      1999.15      10327.6      21548.8     -1.00000
      902.000      752.000      133.693      273.824      789.121      2359.36      12777.2      26557.9     -1.00000
      12.0000      601.000      58.6732      145.587      397.069      1041.14      12393.6      10770.8     -1.00000
      690.000      801.000      142.982      310.520      771.067      2268.57      12362.2      26265.5     -1.00000
      126.000      805.000      148.848      281.992      820.160      2390.77      12613.3      26228.1     -1.00000
