PDS_VERSION_ID         = PDS3
RECORD_TYPE            = STREAM
OBJECT                 = TEXT
  PUBLICATION_DATE     = 2014-02-19
  INTERCHANGE_FORMAT   = ASCII
  NOTE                 = "NAC hot pixel file for epoch 2008.1."
END_OBJECT             = TEXT
END

NAC hot pixel list. Lines 1 and 2 are column headings giving exposure time 
(sec) and gain state (e-/DN), respectively, of source dark images. Starting 
on line 3, first two columns indicate x and y value of hot pixel; columns 3 
through N-1 give median electron counts for each exposure bin, and last (Nth) 
column contains either the index of the exposure bin where saturation first 
occurs, or -1 if no saturation.

\begindata
      0.00000      0.00000      0.00000      10.0000      32.0000      100.000      120.000      320.000      560.000      1200.00
      0.00000      0.00000      12.8410      12.8410      30.2700      30.2700      30.2700      30.2700      30.2700      30.2700
      213.000      482.000      141.000      9158.97      29578.1      85005.8      115209.      123463.      123467.      123451.      5.00000
      62.0000      49.0000      130.257      11544.9      34966.1      93868.4      110076.      123460.      123461.      123463.      5.00000
      573.000      212.000      116.361      9505.80      29432.4      72260.1      84397.6      123458.      123450.      123454.      5.00000
      98.0000      87.0000      80.8539      8157.85      25446.9      72067.8      83709.3      123453.      123462.      123456.      5.00000
      430.000      51.0000      107.106      10295.7      30470.6      78057.7      89276.7      123459.      123465.      123461.      5.00000
      123.000      79.0000      117.119      9517.34      28669.6      73705.7      84072.7      123466.      123459.      123458.      5.00000
      37.0000      647.000      120.720      8243.72      25727.5      71440.3      81846.3      123454.      123457.      123456.      5.00000
      599.000      452.000      93.2427      7134.60      22043.3      61319.0      69823.1      123462.      123458.      123451.      5.00000
      738.000      875.000      89.7888      5177.24      17098.5      50329.4      46806.8      119319.      123463.      123465.      6.00000
      307.000      403.000      72.8360      4504.59      14474.2      44173.5      53712.5      121087.      123464.      123454.      6.00000
      531.000      500.000      106.419      5011.57      16034.4      47775.4      56073.1      121496.      123453.      123462.      6.00000
      117.000      230.000      72.1543      5421.89      16872.4      48138.5      54979.0      117025.      123461.      123456.      6.00000
      936.000      998.000      109.637      6277.17      20063.9      55113.8      63669.6      121570.      123458.      123446.      6.00000
      149.000      356.000      83.6422      5189.32      16479.0      47291.0      55269.3      113425.      123459.      123463.      6.00000
      561.000      19.0000      43.8325      3171.69      10041.0      31163.4      36803.0      97216.0      123469.      123459.      6.00000
      544.000      256.000      53.0458      3157.95      10067.4      31218.0      37723.7      97879.8      123459.      123458.      6.00000
      549.000      905.000      99.9591      3843.97      12766.9      39872.3      45078.3      102260.      123466.      123459.      6.00000
      874.000      134.000      49.6828      3017.61      9699.83      30165.2      36216.6      93692.5      123458.      123449.      6.00000
      444.000      692.000      83.3921      3787.01      12377.7      37587.3      44390.3      100714.      123459.      123459.      6.00000
      689.000      807.000      80.4466      2839.07      9473.88      30240.6      36271.7      93206.9      123461.      123454.      6.00000
      910.000      336.000      68.7113      3276.29      10548.8      32511.2      39069.1      95576.7      123462.      123448.      6.00000
      19.0000      1018.00      96.2264      2702.32      9211.72      29029.0      17263.3      44207.7      121573.      123455.      7.00000
      202.000      885.000      83.8396      2340.73      8123.12      26418.5      31478.8      83157.4      123457.      123451.      6.00000
      18.0000      679.000      80.0736      3118.41      10341.1      31869.3      37712.9      87237.5      123451.      123453.      6.00000
      711.000      498.000      88.2597      4985.25      15550.9      42586.1      49345.9      96413.3      123453.      123459.      6.00000
      3.00000      19.0000     -120.600      3081.80      10144.4      30745.2      36326.5      85176.5      123469.      123459.      6.00000
      701.000      371.000      61.1521      3198.51      10551.7      31764.2      37502.4      86308.7      123466.      123453.      6.00000
      555.000      944.000      88.6798      2307.07      8188.35      26622.0      31401.0      80034.2      123471.      123458.      6.00000
      487.000      880.000      81.4558      3302.61      10809.7      32514.3      38542.0      85877.2      123455.      123457.      6.00000
      239.000      141.000      44.0587      3335.99      10626.1      31418.1      36882.0      84086.4      123444.      123454.      6.00000
      378.000      749.000      71.4949      2263.65      7478.82      24226.0      27754.8      76946.6      123461.      123456.      6.00000
      578.000      312.000      62.9812      5181.41      16166.2      38779.1      47797.7      92185.3      123454.      123455.      6.00000
      462.000      84.0000      33.5784      2709.55      8549.23      25928.7      32428.1      73768.3      113669.      123463.      7.00000
      806.000      201.000      53.0211      3090.20      9612.32      28722.9      33650.7      78465.5      117100.      123453.      7.00000
      762.000      386.000      50.4487      2642.94      8516.82      26116.2      30984.2      73433.9      112319.      123452.      7.00000
      956.000      727.000      79.9256      2396.50      7868.11      24512.6      29132.9      70573.1      109981.      123461.      7.00000
      391.000      888.000      109.468      4035.33      12819.2      36817.2      47333.3      88846.2      122566.      123449.      7.00000
      744.000      647.000      69.3558      2523.68      8357.20      25703.4      32646.9      71722.1      109690.      123456.      7.00000
      588.000      243.000      38.7011      2361.02      7648.63      23522.2      22366.4      68036.2      106760.      123454.      7.00000
      305.000      696.000      74.9318      2400.91      7913.10      24662.0      29836.9      71072.3      108577.      123468.      7.00000
      169.000      475.000      50.4196      1804.79      5891.04      18388.7      22326.2      58448.6      99077.2      123447.      7.00000
      583.000      974.000      85.4332      1939.41      6609.40      21164.2      11000.0      63787.1      102485.      123462.      7.00000
      758.000      44.0000      32.6596      2500.82      7912.70      23834.1      28237.3      67183.7      104187.      123462.      7.00000
      894.000      642.000      67.3244      2295.33      7668.07      24281.4      28952.3      69531.1      105611.      123452.      7.00000
      147.000      68.0000      39.9608      2518.82      7889.53      23832.2      28179.2      74740.4      108756.      123452.      7.00000
      847.000      345.000      46.3115      2215.86      7207.71      22310.8      26638.5      63546.3      98283.1      123455.      7.00000
      919.000      199.000      44.8840      2212.24      7047.68      21586.2      25878.9      61967.6      96848.0      123448.      7.00000
      817.000      592.000      62.6659      2424.68      7580.21      23549.4      28214.6      67230.1      100729.      123460.      7.00000
      844.000      950.000      85.7026      2503.71      8737.15      27412.5      32964.1      72264.3      104431.      123464.      7.00000
      109.000      497.000      55.8369      1594.67      5226.90      16787.2      20299.9      53428.3      90010.7      123456.      7.00000
      383.000      660.000      68.0962      1506.34      7038.73      22056.3      26213.1      62472.4      95930.7      123458.      7.00000
      542.000      622.000      67.8427      1978.68      6604.38      20829.2      23127.6      61030.2      94840.6      123456.      7.00000
      531.000      270.000      53.2039      2304.23      7339.46      21868.2      25181.1      61277.2      94791.0      123458.      7.00000
      813.000      953.000      80.4580      2328.53      7744.77      23966.0      28504.7      66030.6      98381.1      123456.      7.00000
      771.000      412.000      49.1435      1708.90      5544.51      17311.3      20868.5      53633.9      88497.2      123456.      7.00000
      496.000      951.000      88.7395      2127.87      7086.97      21842.2      26060.8      61091.1      92864.3      123460.      7.00000
      277.000      703.000      76.1541      1653.72      5464.86      17587.7      21221.5      54455.9      87763.2      123451.      7.00000
      92.0000      413.000      66.6426      1854.18      5865.05      18295.2      21532.3      56468.6      89008.7      123454.      7.00000
      963.000      850.000      65.9343      1507.32      4960.57      15994.0      19230.4      50816.6      84937.4      123451.      7.00000
      242.000      194.000      39.9872      2068.30      6543.58      19789.2      23321.9      57308.4      89276.1      123454.      7.00000
      307.000      107.000      33.8582      2071.42      6481.99      19590.5      23271.6      55839.8      87540.6      123446.      7.00000
      580.000      531.000      58.2223      2021.28      6558.79      20098.0      23954.9      57669.0      88671.4      123455.      7.00000
      745.000      319.000      54.4035      2009.75      6053.66      19145.7      23542.0      55298.5      85981.5      123469.      7.00000
      232.000      45.0000      38.6998      1942.47      6125.28      18358.8      21818.2      52776.9      83552.4      123460.      7.00000
      691.000      97.0000      21.5769      1757.02      5701.39      17562.3      20217.3      52018.4      82632.8      123456.      7.00000
      62.0000      48.0000      8.23815      60.4631      110.106      186.085      167.672      250.034      44952.0      123460.      7.00000
      981.000      23.0000      18.2073      2228.15      6995.31      20612.0      24420.0      56710.6      85903.5      123432.      7.00000
      708.000      520.000      60.7087      1566.83      5047.88      15885.8      23724.7      49268.8      81758.9      123455.      7.00000
      393.000      351.000      28.7226      73.9293      116.716      231.003      16702.1      330.634      339.538      409.544     -1.00000
      814.000      545.000      50.4016      1541.75      5072.46      16000.2      11942.7      48990.9      79236.9      123462.      7.00000
      784.000      52.0000      19.4530      2152.01      6745.73      19993.3      23467.0      54186.2      82060.9      123458.      7.00000
      634.000      10.0000      26.9606      1725.19      5354.05      16213.2      19521.6      48107.8      77514.5      123460.      7.00000
      417.000      152.000      37.6235      1955.28      6220.52      18491.1      21909.4      52142.1      80466.8      123458.      7.00000
      757.000      317.000      44.0160      1895.96      6086.73      18306.8      21758.7      51762.3      79727.3      123461.      7.00000
      719.000      958.000      82.6607      1648.49      5442.18      17551.0      21159.8      51305.5      79547.1      123455.      7.00000
      798.000      803.000      75.9669      1462.78      4949.45      15630.3      18884.8      47122.6      76344.1      123455.      7.00000
      977.000      227.000      43.5087      1266.64      4119.27      20070.6      15627.8      42405.5      72630.1      123457.      7.00000
      87.0000      156.000      30.5330      1549.09      4842.20      14983.8      17766.8      45072.3      74280.0      123463.      7.00000
      303.000      118.000      28.3272      1676.02      5306.80      15955.0      21854.8      46598.0      74652.2      123464.      7.00000
      617.000      756.000      68.3357      1383.46      4540.52      14487.1      17299.6      44642.3      73076.0      123459.      7.00000
      96.0000      767.000      83.7258      1344.63      4206.23      13198.2      19253.4      45368.4      73395.4      123458.      7.00000
      533.000      367.000      37.7883      1372.07      4295.96      13655.5      16446.6      42257.5      70578.5      123455.      7.00000
      774.000      911.000      69.5019      1521.49      5053.66      16041.2      19171.2      46914.1      73935.4      123441.      7.00000
      974.000      1018.00      65.3600      1140.23      3863.18      13015.9      15780.7      41574.2      69837.5      123455.      7.00000
      181.000      823.000      59.9587      1102.51      3633.06      11823.2      10743.1      39062.6      67430.2      123463.      7.00000
      624.000      893.000      72.9283      1386.54      4547.57      14715.3      17540.1      44159.5      70979.8      123443.      7.00000
      949.000      926.000      71.4987      1153.89      3761.44      12055.8      14486.3      38571.6      65893.6      123460.      7.00000
      660.000      679.000      60.8904      1243.62      3997.97      12555.5      17560.9      38926.0      64781.4      123445.      7.00000
      365.000      275.000      40.8949      1111.55      3698.12      11877.6      14504.4      37296.2      63269.7      123238.      7.00000
      685.000      522.000      62.6912      1044.27      3368.50      10914.2      13089.3      35509.8      61301.3      123453.      7.00000
      380.000      2.00000      18.0258      1078.56      3416.33      10440.0      12534.7      33449.5      58702.1      123458.      7.00000
      380.000      1.00000      17.1113      1130.05      3526.21      10650.0      12776.7      33826.5      58593.9      122837.      7.00000
      449.000      264.000      29.5508      1457.24      4531.18      13813.9      16503.9      40322.0      62872.2      123443.      7.00000
      191.000      582.000      56.1883      1388.42      4676.22      14655.4      17604.7      43475.8      69670.6      120656.     -1.00000
      1019.00      890.000      81.1897      2196.87      7412.23      22443.9      26629.9      58459.4      82948.7      120749.     -1.00000
      665.000      677.000      65.8291      1384.66      4482.80      14069.9      16790.1      41952.7      68014.4      120393.     -1.00000
      173.000      726.000      66.6402      1412.66      4748.94      14769.4      17710.4      44085.5      70326.4      120054.     -1.00000
      500.000      704.000      68.0662      1135.50      3781.97      12194.1      14622.4      37881.6      63329.5      118806.     -1.00000
      828.000      434.000      47.2721      949.045      2992.11      9870.16      9686.85      31576.2      55875.8      117234.     -1.00000
      378.000      748.000      67.2177      632.364      1924.18      6427.97      7263.24      22505.2      40890.4      117067.     -1.00000
      604.000      65.0000      19.2782      1366.29      4042.24      12655.9      14786.7      38083.2      62891.3      115849.     -1.00000
      59.0000      749.000      71.4949      903.266      3000.76      9827.44      12166.7      31329.4      54613.0      116552.     -1.00000
      795.000      80.0000      25.0763      1247.18      3883.05      12120.9      19585.1      37403.5      62319.7      115232.     -1.00000
      210.000      160.000      38.7616      1773.10      5451.00      16089.0      23005.2      45436.7      69785.5      115162.     -1.00000
      857.000      398.000      52.8044      2270.12      7120.24      20865.0      25124.2      53980.0      77891.3      115421.     -1.00000
      988.000      967.000      62.7397      1420.76      4880.70      15505.8      17619.8      45394.2      70261.8      115880.     -1.00000
      466.000      982.000      78.3202      1171.65      4043.53      13156.8      9625.54      40259.1      65169.2      114871.     -1.00000
      329.000      799.000      74.9226      945.857      2910.11      9512.17      11683.4      31330.6      54750.0      114455.     -1.00000
      802.000      40.0000      29.4373      1406.33      4554.85      13743.6      16228.7      40296.0      64252.8      110346.     -1.00000
      684.000      91.0000      12.8349      1302.73      4183.03      12766.4      15229.1      37866.8      61601.9      109215.     -1.00000
      0.00000      233.000     -270.726      945.854      3673.16      11837.5      14075.6      35911.4      58835.4      109360.     -1.00000
      117.000      577.000      66.4277      972.097      3002.58      9722.99      11630.4      31609.6      54316.8      109178.     -1.00000
      985.000      997.000      60.4022      1109.68      3573.74      11628.1      13694.2      35479.8      58739.4      108782.     -1.00000
      566.000      332.000      32.7784      1205.24      3779.12      11897.1      14165.1      35783.1      58875.6      107875.     -1.00000
      173.000      263.000      41.0833      903.256      2940.35      8861.79      10381.8      27075.2      44309.7      106825.     -1.00000
      290.000      246.000      41.9098      1401.96      4302.75      13208.3      15704.1      39021.7      62443.1      105548.     -1.00000
      584.000      74.0000      16.2731      1210.82      3889.04      11850.0      17196.1      35413.7      57083.7      104757.     -1.00000
      530.000      183.000      32.3300      1451.70      4548.82      13638.8      16197.2      39264.6      61659.7      104867.     -1.00000
      996.000      931.000      63.6302      851.424      2919.27      9385.11      11044.8      30235.9      52270.8      105297.     -1.00000
      845.000      863.000      73.8458      921.858      2861.90      9327.34      11369.7      30745.4      52690.1      104578.     -1.00000
      793.000      30.0000      15.9790      909.816      2923.26      9045.91      10728.1      28641.3      49770.0      103642.     -1.00000
      729.000      778.000      65.5738      1210.54      3858.58      12294.2      15567.8      37490.9      59836.8      103802.     -1.00000
      561.000      1015.00      81.6927      874.038      2902.99      9453.84      11477.5      30896.9      52057.5      101007.     -1.00000
      747.000      167.000      21.1960      1092.92      3464.79      10596.3      12635.5      32271.2      53577.1      99910.1     -1.00000
      755.000      324.000      57.2500      968.617      3095.73      9566.74      11600.9      30246.9      51005.0      99865.7     -1.00000
      898.000      150.000      25.8496      1379.32      4375.50      13114.1      13766.8      37369.3      58774.3      99297.0     -1.00000
      387.000      799.000      65.4812      1126.99      3533.75      11159.7      22994.1      33627.7      55270.9      99924.3     -1.00000
      855.000      422.000      45.1143      1464.41      3169.84      9959.87      12299.7      32940.0      54063.6      98613.0     -1.00000
      523.000      626.000      67.0009      1085.58      3641.39      11228.5      13480.9      33909.1      55118.7      98295.0     -1.00000
      397.000      447.000      46.3603      1263.45      3989.78      12327.6      14643.4      36644.0      49207.1      105369.     -1.00000
      230.000      761.000      61.8733      1127.64      3492.98      11380.7      14018.0      34706.8      55850.9      97852.7     -1.00000
      939.000      375.000      33.2156      867.639      2828.88      9088.76      10921.2      28861.0      49506.9      97006.2     -1.00000
      672.000      486.000      49.2954      823.891      2739.47      8727.84      12235.8      28133.0      48133.5      97063.6     -1.00000
      1023.00      24.0000      27.1387      1410.58      4363.08      12810.5      13438.3      36769.5      57396.2      96310.5     -1.00000
      143.000      412.000      47.9710      983.639      3109.21      9784.89      11634.1      29680.7      50488.0      96545.3     -1.00000
      530.000      805.000      74.1652      977.963      3221.73      9763.16      9414.44      30637.5      51094.1      95475.1     -1.00000
      586.000      516.000      63.2986      1006.84      3083.21      9707.61      11714.8      30186.8      50347.1      95159.5     -1.00000
      205.000      308.000      31.5850      930.698      2954.60      9388.34      11051.4      29339.8      49451.8      94725.3     -1.00000
      777.000      92.0000      18.3704      1181.02      3853.84      11540.6      13717.4      33872.7      54154.9      93994.1     -1.00000
      420.000      202.000      27.6912      1015.83      3302.71      10105.3      12067.6      30746.2      50916.2      94077.4     -1.00000
      1019.00      474.000      43.4772      872.533      2818.28      8996.69      10776.9      27945.6      47886.4      94065.1     -1.00000
      201.000      1004.00      68.1161      1014.38      3348.74      10748.1      12907.0      32971.2      53783.2      94557.6     -1.00000
      730.000      65.0000      29.8099      959.457      3013.93      9478.49      11475.9      29403.7      49277.1      93578.4     -1.00000
      325.000      995.000      71.4811      800.793      2607.70      8593.15      10420.5      28059.0      47925.9      94053.1     -1.00000
      973.000      430.000      44.4980      1045.24      3461.61      10737.1      12749.2      32119.9      52228.0      93300.6     -1.00000
      394.000      500.000      57.1814      957.791      3008.90      9399.18      10999.7      28867.0      48610.1      92348.9     -1.00000
      985.000      56.0000      12.4971      921.776      2876.21      8961.03      10698.9      27711.5      46946.2      91601.5     -1.00000
      312.000      158.000      23.1847      973.737      3033.34      9377.31      11198.4      28864.1      48561.9      90606.2     -1.00000
      326.000      567.000      62.6362      1009.83      3454.88      10045.9      12228.4      30704.9      50344.9      90787.5     -1.00000
      76.0000      1017.00      73.9547      836.091      2628.74      8898.15      10570.9      28927.0      48944.5      90861.1     -1.00000
      1.00000      244.000     -224.294      646.298      2610.26      8571.74      10330.3      26959.0      45753.2      89512.7     -1.00000
      144.000      995.000      74.7697      1035.13      3394.72      10517.0      12656.4      31448.2      50894.7      89579.7     -1.00000
      62.0000      50.0000      23.7117      79.9339      131.022      220.968      223.277      3390.43      22997.7      88610.0     -1.00000
      604.000      508.000      49.5973      946.438      3087.22      9761.86      11554.4      29410.6      48193.2      88757.3     -1.00000
      576.000      320.000      41.8451      1057.38      3232.76      10084.3      12059.4      30239.6      49093.3      88481.9     -1.00000
      228.000      238.000      38.8783      861.710      2608.15      7913.62      9593.46      24999.2      43414.7      88384.1     -1.00000
      424.000      78.0000      17.2594      948.609      3007.87      9002.80      12296.5      27665.7      46274.1      87705.5     -1.00000
      608.000      453.000      53.0166      961.472      3029.12      9263.24      10961.4      28098.8      46682.0      87116.2     -1.00000
      941.000      993.000      66.7750      669.362      2120.95      7145.35      8259.52      23526.3      41778.3      87336.9     -1.00000
      648.000      586.000      55.1675      708.834      2297.78      7486.96      8544.94      23717.0      41099.1      86595.2     -1.00000
      476.000      340.000      32.5511      979.026      2988.53      9513.08      11052.4      28718.1      47083.0      86255.9     -1.00000
      255.000      8.00000      24.0385      855.685      2575.07      8015.58      9509.12      24805.3      42326.6      85782.1     -1.00000
      975.000      575.000      48.6693      928.373      2785.34      8904.47      6054.81      27511.7      45944.6      86242.1     -1.00000
      705.000      164.000      30.3279      853.875      2779.05      8533.31      10086.1      26298.1      44274.3      85637.1     -1.00000
      771.000      492.000      51.0576      966.911      2944.82      9158.64      10947.0      27962.8      46258.2      85718.5     -1.00000
      466.000      294.000      45.5994      917.134      2850.06      8646.90      10838.4      26808.6      44737.4      85358.1     -1.00000
      592.000      399.000      37.9702      735.212      2290.40      7177.92      8656.04      23286.0      40844.3      84791.9     -1.00000
      501.000      448.000      40.6996      874.402      2821.18      8762.33      10240.6      11235.6      45678.9      83551.9     -1.00000
      306.000      251.000      27.6537      924.461      2804.32      8840.65      10338.8      26852.3      44741.1      84461.5     -1.00000
      559.000      974.000      83.2469      1147.51      3659.73      11686.2      13964.2      33397.0      51711.1      85110.6     -1.00000
      319.000      267.000      48.4822      927.922      2878.33      9470.32      12371.0      27214.1      44913.2      82207.8     -1.00000
      88.0000      291.000      36.6874      1099.42      3426.82      10345.1      13194.0      29767.6      46858.4      81688.1     -1.00000
      793.000      917.000      84.1825      730.384      2451.44      8177.82      9652.20      25700.1      43385.3      81943.6     -1.00000
      345.000      537.000      41.5747      1078.17      3384.66      10595.1      10003.1      30982.6      48863.9      81495.7     -1.00000
      180.000      457.000      33.7339      892.524      2780.15      8571.00      10230.8      26025.9      43186.6      81213.3     -1.00000
      900.000      287.000      31.0367      882.769      2807.42      8696.80      10391.5      26280.9      43451.0      80975.9     -1.00000
      267.000      34.0000      20.9323      856.228      2693.42      8154.81      9719.23      24729.7      41488.4      80496.2     -1.00000
      780.000      905.000      67.4417      897.817      2677.12      8712.29      11205.6      20864.3      35451.7      81035.8     -1.00000
      898.000      710.000      67.2152      673.656      2134.62      6930.31      8174.68      22471.6      39024.2      80685.1     -1.00000
      880.000      745.000      57.5860      658.827      2045.49      6619.40      8788.63      21542.8      38190.0      80683.6     -1.00000
      202.000      776.000      58.8358      800.796      2629.92      8380.18      9977.65      25782.1      42893.2      80239.2     -1.00000
      460.000      705.000      52.2392      702.655      2253.54      7016.14      8837.75      22488.9      40179.9      80048.4     -1.00000
      630.000      55.0000      11.7953      831.409      2656.27      8196.52      9566.29      25251.0      41923.9      79464.6     -1.00000
      675.000      951.000      81.6141      777.004      2389.63      7684.84      9167.08      24477.0      41505.4      79952.6     -1.00000
      919.000      948.000      61.2406      680.468      2245.65      7310.42      8266.03      23594.5      40503.2      79899.8     -1.00000
      777.000      67.0000      14.7045      702.805      2184.76      6991.58      8322.79      21975.3      38247.5      78938.5     -1.00000
      213.000      483.000      59.4517      192.325      341.877      605.758      727.654      1404.73      21762.2      78583.9     -1.00000
      324.000      402.000      62.6787      879.830      2645.39      8127.47      9703.11      24816.9      41390.6      78364.2     -1.00000
      227.000      664.000      60.1375      909.295      2862.51      8819.09      10644.7      26743.8      43414.9      78371.3     -1.00000
      207.000      732.000      65.8676      790.777      2481.51      7848.14      9383.39      24361.2      40963.7      78414.4     -1.00000
      919.000      229.000      30.8495      798.298      2432.26      7683.17      1434.00      23364.5      39416.2      77782.5     -1.00000
      55.0000      839.000      61.2836      795.448      2472.71      7897.68      9537.73      24830.7      41567.5      78273.3     -1.00000
      544.000      255.000      30.8914      61.8819      150.552      247.278      221.978      413.037      862.249      77597.2     -1.00000
      198.000      518.000      51.9789      695.311      2192.44      6825.37      8167.06      21887.1      37903.6      77699.0     -1.00000
      830.000      978.000      65.5256      891.846      2672.80      8800.04      10506.0      27127.6      43792.7      78065.3     -1.00000
      247.000      466.000      59.5721      729.432      2225.18      6841.29      8119.41      21685.8      37380.7      77551.8     -1.00000
      760.000      486.000      45.2293      737.487      2363.67      7683.22      9238.95      24408.4      41013.8      77135.1     -1.00000
      185.000      740.000      53.3970      634.979      1938.10      6405.23      7402.04      21104.1      36718.7      77166.2     -1.00000
      47.0000      948.000      78.1731      952.890      3057.28      9793.68      11866.6      29887.7      42743.5      76710.6     -1.00000
      365.000      875.000      59.6996      711.819      2251.24      7339.63      8503.64      23190.3      39377.8      76484.6     -1.00000
      1002.00      579.000      62.7260      640.584      1952.92      6183.21      7587.84      20196.8      35299.3      75574.2     -1.00000
      831.000      59.0000      23.7689      947.685      2946.14      8881.21      10510.2      26221.5      42060.2      74901.1     -1.00000
      488.000      921.000      76.6964      717.442      2315.34      7413.35      8905.18      23301.9      39160.1      75458.5     -1.00000
      336.000      141.000      27.7240      719.569      2221.45      6907.38      8242.98      21728.1      37252.6      74742.8     -1.00000
      785.000      572.000      61.4349      866.928      2724.86      8550.58      10263.3      25946.7      41919.2      74792.0     -1.00000
      540.000      708.000      58.8624      680.846      2215.08      7056.65      8414.75      22354.9      38095.2      74849.4     -1.00000
      587.000      104.000      34.6612      740.263      2362.37      7400.63      8836.65      22826.3      38304.2      74077.8     -1.00000
      31.0000      122.000      10.1423      724.670      2236.68      6937.39      7867.27      21528.5      36643.9      73904.0     -1.00000
      307.000      404.000      28.0564      156.218      277.981      474.370      506.712      812.328      1212.85      73943.5     -1.00000
      694.000      17.0000      18.8496      791.605      2470.78      7454.10      8872.90      22852.0      38053.3      73618.4     -1.00000
      64.0000      477.000      53.9844      667.114      2027.99      6355.81      7721.91      20445.4      35521.1      73701.0     -1.00000
      443.000      545.000      58.4089      665.122      2097.06      6603.20      7916.51      21073.3      36387.6      73615.3     -1.00000
      453.000      511.000      51.5492      669.130      2110.66      6760.70      7469.86      21529.0      36716.4      73469.3     -1.00000
      641.000      294.000      38.4221      726.534      2202.87      8096.60      9445.09      21105.9      36528.6      73219.4     -1.00000
      417.000      843.000      73.5408      662.474      2043.12      6838.45      8301.69      22085.8      37702.6      73407.0     -1.00000
      704.000      185.000      19.7457      656.351      2141.68      6620.31      12922.7      20825.0      35708.0      72890.8     -1.00000
      724.000      209.000      29.3513      814.646      2618.91      8055.36      9592.26      24179.8      39714.4      72854.7     -1.00000
      221.000      117.000      21.5884      864.616      2700.39      8062.13      7118.24      24242.3      39819.0      72409.3     -1.00000
      978.000      763.000      47.4844      701.212      2241.08      7131.55      8438.92      22436.0      37843.0      72709.4     -1.00000
      305.000      103.000      32.4809      737.077      2307.43      7063.27      344.049      21582.4      36460.5      72127.8     -1.00000
      248.000      547.000      49.6862      660.067      1947.35      5943.84      6730.80      19363.9      34140.8      72317.2     -1.00000
      828.000      435.000      34.0288      653.476      1925.64      6329.05      6083.48      19542.5      34176.8      72165.2     -1.00000
      725.000      349.000      31.7650      657.694      2068.93      6374.14      7687.88      20477.7      35143.0      71022.0     -1.00000
      155.000      102.000      26.6213      816.697      2593.71      7861.82      9288.96      23380.3      38226.2      70801.0     -1.00000
      127.000      368.000      30.6997      817.922      2520.94      7688.53      9420.07      23330.4      37949.8      70999.5     -1.00000
      680.000      284.000      30.6559      720.912      2228.61      6733.51      8178.67      21205.6      36393.5      70760.7     -1.00000
      373.000      655.000      59.1399      771.467      2439.84      7673.06      9269.23      23548.7      38534.4      70950.1     -1.00000
      952.000      758.000      51.2642      609.773      1837.24      5972.50      7832.04      19491.8      34192.9      70984.4     -1.00000
      991.000      200.000      26.8349      738.707      2391.78      7119.12      8929.97      23404.2      38364.3      69983.5     -1.00000
      460.000      592.000      48.3582      686.438      2087.67      6430.23      7755.58      20355.8      35104.9      69642.0     -1.00000
      1008.00      692.000      48.3963      663.286      2038.21      6590.22      7841.34      20934.2      35482.8      69033.4     -1.00000
      172.000      398.000      48.0758      746.822      2344.74      7450.63      9572.88      21706.4      36420.8      68587.0     -1.00000
      731.000      536.000      50.5130      746.413      2332.71      7345.60      8820.62      22480.8      37061.2      68350.7     -1.00000
      35.0000      358.000      26.2724      578.989      1825.16      5732.85      6943.16      18683.7      32446.3      68200.6     -1.00000
      205.000      924.000      68.2023      637.473      1995.97      6366.90      7672.85      20820.6      35204.9      68549.0     -1.00000
      8.00000      1008.00      11.1218      590.845      1955.66      6508.73      7845.43      21120.4      35284.0      68492.3     -1.00000
      433.000      140.000      29.7954      649.389      1936.39      6113.15      7276.57      19038.2      32941.0      67789.5     -1.00000
      831.000      914.000      73.5335      577.430      1725.17      5510.70      6583.19      18054.7      31809.3      68077.7     -1.00000
      577.000      843.000      64.5520      669.970      2209.61      7079.38      8357.10      21624.4      35969.5      67750.5     -1.00000
      946.000      515.000      55.3255      857.139      2773.74      8417.96      9958.97      24775.7      39219.4      67327.3     -1.00000
      149.000      961.000      67.9555      565.004      1706.72      5668.96      6786.56      18792.5      32787.1      67368.8     -1.00000
      98.0000      86.0000      5.30010      63.0117      115.608      191.331      212.019      290.352      1977.54      66521.0     -1.00000
      490.000      616.000      60.9353      696.878      2163.12      6809.39      7337.47      21307.8      35478.2      66800.5     -1.00000
      367.000      595.000      57.9802      590.032      1770.61      5638.01      6471.37      18004.1      31406.8      66208.4     -1.00000
      720.000      263.000      37.4475      618.377      1885.10      5821.08      6794.22      18357.8      31597.5      65778.5     -1.00000
      784.000      648.000      51.9768      642.686      1917.99      6058.80      7280.65      19249.6      33128.4      65743.0     -1.00000
      78.0000      174.000      34.3178      768.444      2421.06      7175.75      8574.12      21565.6      35376.8      65408.3     -1.00000
      762.000      852.000      66.4120      1303.79      4225.26      13488.0      16200.5      36171.1      49256.9      65758.6     -1.00000
      363.000      225.000      32.1755      579.887      1854.60      5507.91      6585.42      17544.7      30367.0      64541.8     -1.00000
      325.000      627.000      53.1071      569.987      1714.14      5347.53      5709.83      17318.7      30297.1      64730.2     -1.00000
      37.0000      648.000      60.0427      217.607      326.126      581.140      620.034      1002.20      6985.34      64471.3     -1.00000
      617.000      739.000      55.0532      600.440      1901.45      5796.91      7071.97      18738.9      32279.9      64383.3     -1.00000
      671.000      412.000      55.5640      635.709      1899.32      5856.06      7051.62      18435.5      31767.5      63689.3     -1.00000
      566.000      807.000      61.5912      663.248      2076.29      6604.97      7939.89      20369.6      33916.8      63731.6     -1.00000
      895.000      34.0000      3.67033      626.132      1956.16      5983.31      7236.48      18583.6      31436.7      63066.8     -1.00000
      288.000      310.000      26.4561      694.672      2092.60      6460.26      7713.64      19393.1      32027.7      63077.9     -1.00000
      603.000      839.000      64.1964      738.265      2167.72      6779.59      8114.07      20925.6      34935.4      63319.7     -1.00000
      816.000      880.000      67.3466      569.417      1850.51      5695.44      6725.19      18324.0      31585.7      63065.8     -1.00000
      452.000      407.000      33.9903      595.724      1920.58      5878.74      7094.36      18647.1      31876.6      62707.2     -1.00000
      44.0000      957.000      72.7237      654.281      2014.79      6415.01      6808.85      19937.0      33516.6      63003.7     -1.00000
      698.000      968.000      69.1112      603.602      1934.05      6283.14      7580.08      19705.0      33059.3      62815.7     -1.00000
      169.000      136.000      24.0141      132.193      233.543      491.738      6331.84      1109.14      1724.21      3246.97     -1.00000
      369.000      243.000      24.0619      576.723      1766.63      5479.34      6425.58      17336.1      29559.7      62174.3     -1.00000
      231.000      456.000      48.8419      552.981      1625.28      5168.83      6110.48      16714.3      29079.3      61994.2     -1.00000
      815.000      457.000      46.2034      542.900      1704.66      5422.54      6567.79      17731.7      30487.9      61810.3     -1.00000
      166.000      826.000      59.5501      586.603      1919.40      6077.48      7362.34      19436.3      32620.9      62024.2     -1.00000
      108.000      237.000      19.8157      621.356      1860.27      5641.32      6653.39      17449.0      29677.2      61594.6     -1.00000
      147.000      776.000      77.4440      921.099      2960.92      9257.71      11249.0      28774.9      44643.4      61648.1     -1.00000
      427.000      586.000      54.4812      544.464      1689.62      5397.37      6430.13      17211.3      29789.1      61491.5     -1.00000
      947.000      376.000      36.5723      635.625      1910.92      5982.36      7244.27      18739.0      31499.4      61199.5     -1.00000
      824.000      260.000      28.9101      513.176      1641.23      5136.64      6152.36      16385.3      28626.1      60809.8     -1.00000
      748.000      369.000      39.4125      723.083      2305.71      6517.48      8176.91      20578.3      33902.8      60731.1     -1.00000
      641.000      90.0000      23.8100      525.570      1626.49      4971.51      5886.50      15364.5      26854.4      56925.0     -1.00000
      666.000      487.000      38.1845      692.204      2029.10      5686.90      7121.62      18579.0      30924.8      60714.2     -1.00000
      580.000      608.000      49.4596      590.697      1823.18      5638.19      6660.73      17644.6      30144.9      60780.8     -1.00000
      726.000      603.000      50.6861      638.481      1931.79      5946.29      7211.57      18752.3      31556.6      60234.7     -1.00000
      836.000      68.0000      7.43750      562.133      1754.53      5367.24      6354.28      16759.7      28858.0      59540.8     -1.00000
      341.000      573.000      48.7475      515.303      1686.70      5290.92      6298.59      17402.4      29917.4      59858.9     -1.00000
      246.000      581.000      53.0074      541.702      1617.10      5079.84      6261.66      16326.5      28479.1      59501.0     -1.00000
      874.000      135.000      24.0779      81.8835      166.714      275.215      278.618      450.944      606.365      59209.5     -1.00000
      521.000      69.0000      26.6387      621.257      2011.96      6213.63      7330.38      18642.4      30840.2      58437.1     -1.00000
      63.0000      21.0000      16.7664      632.705      2022.04      6035.26      7258.79      18259.4      30484.7      58400.4     -1.00000
      940.000      801.000      52.7029      571.863      1759.37      5656.68      6699.37      17769.4      30147.0      58777.2     -1.00000
      901.000      948.000      74.5526      545.070      1639.92      5242.20      6116.56      17145.4      29590.9      58840.0     -1.00000
      798.000      984.000      77.6182      549.727      1615.20      5265.67      6360.88      16985.6      29472.3      58706.0     -1.00000
      317.000      537.000      48.2644      595.397      1823.88      5650.09      6809.88      17861.4      30256.2      58328.7     -1.00000
      132.000      518.000      47.0509      538.089      1647.58      5063.80      5994.06      15922.7      27642.3      58152.1     -1.00000
      483.000      824.000      65.4858      519.238      1608.89      5078.37      6543.22      16471.0      28598.2      58293.1     -1.00000
      734.000      809.000      58.3039      533.686      1590.92      5035.17      6024.55      16500.7      28810.2      58148.0     -1.00000
      500.000      143.000      26.3328      551.092      1685.58      5074.14      6242.91      15818.7      27446.8      57706.7     -1.00000
      231.000      183.000      10.7673      431.034      2010.99      5339.44      4453.92      16406.8      29061.7      57333.1     -1.00000
      238.000      860.000      63.2364      543.072      1675.70      5108.62      6128.57      16266.6      28321.2      57618.3     -1.00000
      642.000      131.000      24.2523      765.455      1742.76      5302.66      8770.19      22275.3      28177.7      56498.8     -1.00000
      618.000      917.000      59.7182      543.365      1529.42      4873.19      5768.98      15741.3      27243.4      56969.7     -1.00000
      355.000      891.000      56.8233      521.299      1680.53      5206.84      6200.31      16612.2      28343.2      56780.3     -1.00000
      819.000      249.000      28.0298      515.489      1635.43      5121.08      6249.07      16378.1      27952.7      56292.4     -1.00000
      191.000      207.000      33.9782      614.347      1896.68      5810.80      7143.96      17674.0      29475.6      56116.9     -1.00000
      36.0000      611.000      47.9639      511.145      1632.93      4977.17      5860.77      15960.6      27603.6      56263.6     -1.00000
      476.000      545.000      54.9712      561.736      1658.14      5169.00      6272.50      16608.4      28413.6      56143.6     -1.00000
      208.000      503.000      51.1021      536.732      1668.88      5058.61      6061.61      15896.1      27410.4      55966.7     -1.00000
      280.000      559.000      47.7755      526.914      1608.73      5202.51      6193.08      16431.9      27909.3      55514.5     -1.00000
      390.000      790.000      74.5503      762.315      2341.01      7121.94      8510.43      20601.6      32320.5      55491.8     -1.00000
      741.000      807.000      67.0208      508.437      1501.16      4728.23      5692.87      15380.4      27656.6      55460.3     -1.00000
      64.0000      357.000      38.5464      592.520      1818.02      5606.10      6701.86      17298.3      28808.9      55070.5     -1.00000
      666.000      137.000      29.7741      619.707      1907.24      5686.31      8061.62      17305.9      28766.6      54889.5     -1.00000
      827.000      817.000      62.7237      471.041      1429.10      4487.69      5507.59      14714.3      25778.1      55211.8     -1.00000
      719.000      900.000      78.0524      606.847      1898.92      5935.22      6944.78      18292.4      30214.9      55043.4     -1.00000
      906.000      47.0000      9.82872      523.719      1693.30      5228.18      6194.52      16109.9      27408.2      54500.9     -1.00000
      471.000      937.000      65.0095      478.015      1439.55      4577.11      5525.79      14806.3      25915.3      54934.0     -1.00000
      58.0000      90.0000      23.3136      591.157      1787.91      5482.91      5875.45      16817.0      28083.9      54229.2     -1.00000
      105.000      380.000      48.5214      602.450      1848.80      5789.57      6745.28      17392.9      28850.2      54365.0     -1.00000
      300.000      692.000      46.2012      538.906      1580.22      4986.21      5994.87      15947.5      27210.1      54511.3     -1.00000
      821.000      611.000      55.4385      504.724      1534.36      4730.03      3527.44      15160.4      26331.8      54326.1     -1.00000
      674.000      317.000      37.5955      544.606      1687.89      5286.90      6248.17      16257.8      27605.4      54059.3     -1.00000
      954.000      716.000      55.6941      525.335      1625.35      4844.90      5491.57      15308.2      26614.5      54209.5     -1.00000
      417.000      297.000      26.7474      553.646      1643.22      4962.45      5934.09      15445.0      26529.7      53753.8     -1.00000
      213.000      481.000      46.1595      73.8413      123.570      241.430      242.655      360.979      13929.8      53854.0     -1.00000
      594.000      452.000      46.6232      502.698      1597.47      4893.91      6275.00      15324.4      26510.4      53830.8     -1.00000
      561.000      362.000      39.4329      495.108      1510.36      4652.91      5615.39      15170.3      25914.7      53757.2     -1.00000
      594.000      443.000      31.8211      516.647      1593.43      4915.01      5886.44      15660.9      26914.4      53509.0     -1.00000
      797.000      311.000      31.8604      490.706      1657.25      5001.14      6021.13      15742.9      26835.2      53332.1     -1.00000
      836.000      954.000      75.3773      530.911      1556.90      5073.36      6023.83      16199.5      27518.5      53578.2     -1.00000
      54.0000      947.000      65.2210      475.586      1448.68      4818.81      5783.20      15720.3      26973.4      53541.7     -1.00000
      167.000      146.000      21.5752      547.274      1703.15      5250.97      1462.25      16091.5      26987.6      53084.9     -1.00000
      674.000      433.000      24.4116      432.068      1306.46      4266.39      5176.96      13445.6      23428.9      49968.1     -1.00000
      366.000      691.000      61.5727      535.092      1618.59      5140.92      6095.67      15914.9      27120.9      53235.5     -1.00000
      392.000      1015.00      75.2722      498.046      1496.88      4702.16      5756.77      15129.8      26299.5      53165.2     -1.00000
      202.000      884.000      59.6846      85.8074      144.532      214.570      209.972      339.776      368.254      53010.9     -1.00000
      658.000      835.000      76.7902      484.739      1479.39      4898.06      5740.04      15443.6      26422.6      52807.8     -1.00000
      527.000      645.000      66.1155      496.791      1449.12      4726.97      5640.09      14951.8      25741.4      52535.6     -1.00000
      401.000      599.000      54.4045      541.432      1672.89      5279.59      6231.91      16078.3      27334.7      52437.5     -1.00000
      107.000      714.000      54.3264      497.639      1503.58      4639.04      5630.74      14840.6      25524.8      52348.4     -1.00000
      453.000      128.000      23.8769      545.553      1606.79      4947.54      5842.95      15269.2      26057.6      51857.2     -1.00000
      247.000      467.000      30.3002      484.154      1368.49      4158.90      4916.72      13101.3      23178.0      51764.8     -1.00000
      56.0000      775.000      56.9599      461.500      1412.31      4444.92      5404.35      14544.5      25366.5      51645.2     -1.00000
      403.000      6.00000      15.6526      501.352      1559.61      4885.58      5236.43      15093.0      25540.8      50930.4     -1.00000
      124.000      699.000      54.0587      476.180      1423.91      4371.30      5273.24      14055.4      24460.4      51090.7     -1.00000
      37.0000      544.000      51.9676      448.166      1660.74      5015.89      5793.60      14654.1      25352.3      50879.9     -1.00000
      677.000      129.000      18.8074      547.833      1661.75      4974.60      5953.05      15322.2      25789.5      50596.8     -1.00000
      142.000      570.000      61.4374      455.023      1327.24      4160.93      5086.79      13768.9      24119.7      50728.4     -1.00000
      302.000      331.000      47.2697      492.135      1518.56      4512.08      5477.75      14422.3      24935.9      50573.9     -1.00000
      875.000      570.000      34.5895      484.121      1403.05      4347.73      4751.67      14023.6      24544.1      50290.6     -1.00000
      154.000      877.000      72.8860      462.595      1341.88      4257.00      5213.75      13991.6      24451.0      50422.9     -1.00000
      544.000      257.000      31.8699      92.9970      154.528      317.830      358.674      566.085      744.837      49858.1     -1.00000
      301.000      102.000      12.1845      486.244      1445.33      4319.02      5128.91      13525.7      23370.0      49503.3     -1.00000
      430.000      50.0000     -2.51011      51.2096      125.589      223.143      219.917      324.701      599.412      49076.7     -1.00000
      527.000      84.0000      15.4357      543.364      1628.78      4911.60      5822.25      14903.0      24955.7      49043.8     -1.00000
      12.0000      187.000     -5.30430      425.178      1398.30      4205.23      5072.85      13280.7      23223.4      49034.9     -1.00000
      642.000      412.000      42.1970      454.194      1378.17      4244.70      4671.41      11984.0      20490.4      42683.4     -1.00000
      89.0000      698.000      59.5152      471.512      1362.94      4129.74      4795.18      13547.2      23665.5      48971.5     -1.00000
      210.000      220.000      32.9382      519.995      1635.25      4844.35      5199.71      14715.6      24574.4      48566.8     -1.00000
      727.000      344.000      40.8676      511.285      1563.66      4825.27      5382.21      14885.4      24990.9      48341.2     -1.00000
      269.000      311.000      34.9983      535.140      1512.98      4800.43      6151.27      15015.2      25008.9      48311.9     -1.00000
      643.000      399.000      34.6184      450.164      1457.98      4543.52      5426.96      14244.5      24229.3      48348.7     -1.00000
      162.000      446.000      40.0756      501.854      1476.08      4519.69      5328.54      14140.0      24182.0      48287.7     -1.00000
      11.0000      315.000      2.40168      405.804      1355.48      4120.23      4855.76      13322.2      22886.5      48199.3     -1.00000
      931.000      464.000      37.1942      436.739      1376.88      4325.23      5157.22      13621.8      23477.4      48108.6     -1.00000
      1015.00      571.000      43.0400      427.220      1276.61      4072.05      4841.31      13451.1      23783.5      51546.4     -1.00000
      171.000      712.000      54.6016      509.740      1505.39      4582.62      5545.45      14751.1      24724.0      48070.3     -1.00000
      301.000      955.000      66.2923      493.114      1431.23      4266.33      4558.00      13496.5      23373.8      47808.3     -1.00000
      874.000      133.000      13.4143      88.3281      159.332      259.789      273.400      417.226      524.554      47352.0     -1.00000
      143.000      223.000      33.9520      856.401      2643.65      3415.74      3572.20      10264.3      39272.0      47316.6     -1.00000
      203.000      371.000      45.1357      525.892      1583.86      4754.63      5720.97      14392.9      24182.1      47216.5     -1.00000
      346.000      986.000      72.3207      458.803      1319.16      4067.66      4833.33      13279.6      23028.1      47465.8     -1.00000
      40.0000      600.000      42.0724      511.910      1203.50      4708.80      707.670      14110.6      22042.7      47228.7     -1.00000
      712.000      197.000      24.0702      457.514      1365.84      4156.91      4711.00      13196.4      22555.6      46951.4     -1.00000
      76.0000      322.000      26.4982      453.815      1357.25      4116.87      4998.08      13073.3      22764.4      47012.2     -1.00000
      537.000      546.000      59.8753      461.448      1370.28      4231.79      4703.20      13327.8      22996.5      46796.5     -1.00000
      678.000      265.000      27.9793      480.343      1502.67      4612.89      5446.21      14451.7      23936.5      46606.0     -1.00000
      757.000      376.000      27.4696      509.666      1519.98      4609.21      5505.63      14068.4      23862.9      46594.8     -1.00000
      430.000      52.0000      20.6446      75.2862      146.649      257.244      283.388      433.481      6808.21      46237.7     -1.00000
      375.000      676.000      60.4872      449.314      1293.76      3898.60      4527.70      12376.2      21855.0      46526.1     -1.00000
      953.000      511.000      36.4773      414.898      1288.06      4079.73      5201.43      13024.8      22463.8      46398.9     -1.00000
      805.000      354.000      39.4720      461.488      1410.65      4273.64      5113.30      13362.5      22925.6      46282.3     -1.00000
      529.000      436.000      53.0741      514.091      1475.16      4393.16      5235.48      13585.5      23036.3      46255.4     -1.00000
      817.000      529.000      44.6691      444.692      1343.26      4078.25      4923.74      13009.0      22414.5      46293.6     -1.00000
      659.000      1008.00      87.6920      481.696      1454.96      4663.34      5696.57      14658.2      24578.6      46294.5     -1.00000
      218.000      1002.00      70.7856      384.274      1126.20      3607.23      3665.42      12092.3      21212.8      46264.8     -1.00000
      808.000      878.000      63.8799      433.713      1362.06      4156.90      5059.97      13314.3      22973.0      46093.9     -1.00000
      380.000      876.000      74.7673      91.3984      154.314      235.707      5002.04      355.803      385.471      460.246     -1.00000
      689.000      808.000      74.7773      172.215      313.503      520.122      582.476      951.721      1328.74      46042.6     -1.00000
      468.000      160.000      24.5650      467.441      1362.02      4167.08      3028.13      12379.5      22108.6      45588.4     -1.00000
      831.000      490.000      45.8431      470.707      1341.10      4173.72      4983.81      13047.2      22434.0      45735.9     -1.00000
      672.000      170.000      15.9347      436.034      1368.57      4192.60      5075.65      12902.7      22252.4      45428.1     -1.00000
      538.000      183.000      22.8302      492.361      1481.72      4367.96      5233.86      13458.5      22674.7      45401.2     -1.00000
      423.000      769.000      62.5211      417.369      1233.08      4000.88      4697.28      12738.6      21944.4      45662.6     -1.00000
      662.000      1013.00      74.6815      470.525      1386.26      4280.98      11175.5      13446.5      23127.2      45681.1     -1.00000
      754.000      434.000      38.5000      451.224      1344.66      4145.00      5027.12      12990.8      22491.6      44918.9     -1.00000
      674.000      10.0000      6.44203      420.192      1272.16      3946.98      4651.19      12376.7      21456.0      44508.4     -1.00000
      762.000      392.000      44.5629      476.655      1461.95      4370.69      5414.40      13393.2      22679.4      44603.0     -1.00000
      169.000      790.000      73.8740      453.029      1357.23      4198.50      4990.11      12979.7      22222.3      44466.3     -1.00000
      915.000      216.000      14.1294      440.144      1409.06      4229.04      5066.04      13009.0      22153.4      44150.5     -1.00000
      651.000      359.000      29.4262      97.0658      218.621      426.215      4590.71      1278.72      1631.70      3099.34     -1.00000
      340.000      568.000      48.4526      472.495      1444.30      4392.96      4933.11      13550.4      22661.9      44200.5     -1.00000
      264.000      410.000      44.6518      436.198      1304.16      3911.75      5245.32      12539.3      21612.3      43959.3     -1.00000
      549.000      47.0000      11.0664      452.498      1399.65      4115.89      4934.73      12653.6      21625.9      43784.6     -1.00000
      853.000      923.000      71.5521      374.114      1148.53      3579.23      3855.78      11591.2      20686.9      44058.6     -1.00000
      278.000      134.000      19.7744      462.115      1389.77      4212.13      6510.21      12873.5      22053.8      43571.1     -1.00000
      577.000      376.000      27.4696      419.808      1239.34      3900.97      4536.99      12225.2      21176.7      43498.4     -1.00000
      492.000      870.000      67.4524      379.854      1159.45      3481.44      4369.19      11494.7      20246.7      43458.8     -1.00000
      51.0000      722.000      55.6300      417.198      1154.69      3761.78      4475.30      12182.6      21022.5      43378.4     -1.00000
      12.0000      288.000      4.00302      413.257      1290.23      3957.77      4668.61      12232.2      20955.0      43110.4     -1.00000
      589.000      219.000      28.8301      457.202      1359.60      4120.80      4966.59      12742.5      21785.4      42970.1     -1.00000
      851.000      931.000      69.6915      431.467      1266.54      4033.13      4808.28      12371.3      21269.5      43274.8     -1.00000
      775.000      154.000      21.5530      387.184      1242.50      3747.80      4459.50      11844.0      20388.6      42799.3     -1.00000
      471.000      142.000      18.9353      342.926      1404.96      4229.99      4948.65      12656.5      21330.1      42732.7     -1.00000
      689.000      806.000      59.6828      99.9819      134.747      240.236      256.853      359.373      374.772      42899.1     -1.00000
      885.000      589.000      46.5120      379.661      1228.55      3896.47      4635.97      12267.0      21231.0      42782.2     -1.00000
      593.000      663.000      53.4602      417.107      1155.53      3458.19      4207.49      11016.5      19492.8      41948.9     -1.00000
      985.000      161.000      20.7012      491.108      1381.32      4174.00      4298.96      12780.1      21540.0      42321.6     -1.00000
      18.0000      1007.00      63.6563      163.918      373.843      997.144      1084.46      2912.30      24244.9      42651.9     -1.00000
      630.000      606.000      39.8164      403.507      1117.75      3667.06      9992.05      11495.5      20891.8      42335.8     -1.00000
      684.000      959.000      51.7709      418.423      1216.49      3808.30      4589.39      12118.8      20827.1      42454.2     -1.00000
      722.000      70.0000      17.1343      447.309      1369.74      4262.64      5598.22      13036.2      21855.0      41988.4     -1.00000
      402.000      33.0000      2.05971      423.554      1295.36      3905.07      4617.16      12022.4      20437.7      41843.9     -1.00000
      50.0000      665.000      56.7283      425.929      1205.76      3733.59      3387.37      11812.8      20363.6      41938.3     -1.00000
      645.000      914.000      67.6172      387.809      1165.57      3648.01      4311.95      11700.4      20326.1      42022.3     -1.00000
      104.000      974.000      66.4361      406.827      1158.09      3615.82      4309.13      11875.7      20329.6      42038.1     -1.00000
      825.000      593.000      42.4716      405.771      1149.45      3511.48      4203.24      11439.2      19664.2      41842.9     -1.00000
      457.000      68.0000      9.65858      572.874      1653.66      4943.38      9652.80      14736.8      24457.4      46119.1     -1.00000
      910.000      744.000      60.1621      422.260      1209.79      3843.29      4568.40      11989.2      20674.7      41821.4     -1.00000
      193.000      369.000      45.5951      387.768      1285.25      3563.29      4361.98      11598.3      20085.9      41445.7     -1.00000
      155.000      734.000      61.0936      380.635      1116.94      3487.03      4244.92      11195.6      19641.6      41484.2     -1.00000
      380.000      127.000      11.3064      409.073      1477.85      4072.12      4801.03      11730.8      20339.5      40921.1     -1.00000
      658.000      48.0000      14.2797      390.472      1215.81      3754.05      4405.17      11474.0      19755.7      40859.5     -1.00000
      112.000      429.000      39.4483      420.557      1156.65      3625.61      4390.07      11553.6      19934.1      40975.1     -1.00000
      302.000      17.0000      4.79606      402.784      1227.54      3687.24      4454.09      11470.2      19736.6      40641.5     -1.00000
      568.000      738.000      74.1261      446.569      1311.39      3760.34      4487.44      11869.1      20234.4      40651.8     -1.00000
      1012.00      20.0000      5.00919      394.061      1163.88      3569.58      4293.72      11113.7      19500.5      40182.6     -1.00000
      364.000      287.000      25.3718      405.574      1172.84      3530.96      4234.83      10822.6      18950.5      40208.4     -1.00000
      232.000      805.000      64.5531      434.893      1224.51      3672.71      4588.78      11810.2      20188.4      40288.0     -1.00000
      173.000      739.000      53.5463      433.830      1280.92      3797.92      4215.32      11802.8      20077.9      40110.1     -1.00000
      287.000      216.000      25.6340      409.530      1218.75      3691.59      4373.71      11329.4      19450.0      39822.5     -1.00000
      750.000      602.000      51.0697      413.671      1187.86      3599.62      4281.42      11441.0      19660.4      39869.1     -1.00000
      527.000      916.000      73.2467      375.141      1109.32      3521.36      4117.63      11179.0      19435.4      39990.2     -1.00000
      487.000      441.000      46.1541      409.610      1200.43      3764.12      4436.93      11660.7      19936.2      39667.3     -1.00000
      701.000      305.000      32.8134      76.5124      126.497      217.578      4092.70      338.355      383.218      441.528     -1.00000
      678.000      34.0000      19.2596      506.527      1569.89      4053.64      3924.31      9814.93      16447.7      40382.1     -1.00000
      708.000      985.000      74.8134      370.465      1001.02      3087.88      3745.91      9947.74      17867.5      38784.0     -1.00000
      421.000      545.000      51.9884      469.522      1390.16      4139.82      4919.78      12498.6      20847.0      39556.2     -1.00000
      513.000      432.000      32.4031      610.192      1805.34      5621.31      6720.26      16955.2      27982.9      39495.2     -1.00000
      467.000      748.000      63.8398      335.917      940.400      3310.25      3962.60      10241.2      18850.1      39588.7     -1.00000
      273.000      710.000      48.1034      447.816      1330.08      3962.10      4755.38      12315.1      20468.7      39368.5     -1.00000
      504.000      22.0000      11.1690      370.591      1101.20      3429.98      4078.97      10655.2      18429.2      39237.4     -1.00000
      553.000      979.000      82.6227      381.410      1108.05      3422.19      4060.87      11089.0      19167.5      39386.3     -1.00000
      1012.00      148.000      21.9065      380.006      1181.38      3543.56      3826.74      10938.5      18825.9      38956.9     -1.00000
      518.000      80.0000      10.5374      378.524      1137.70      3519.04      4329.31      10907.6      18944.5      38899.4     -1.00000
      193.000      867.000      57.5417      368.146      1095.28      3326.66      3514.64      10721.5      18574.9      39102.1     -1.00000
      306.000      12.0000      9.34894      381.652      1192.82      3454.09      4139.07      10697.6      18455.5      39096.0     -1.00000
      823.000      205.000      28.3262      398.315      1200.54      3666.29      4572.44      11351.2      19524.2      38574.8     -1.00000
      227.000      743.000      52.9817      370.958      1073.14      3298.23      3943.98      10403.1      18130.8      38544.3     -1.00000
      411.000      683.000      59.5125      368.253      1092.09      3316.55      4116.76      10483.4      18435.9      38283.6     -1.00000
      8.00000      565.000     -16.9277      307.659      989.413      3062.01      3815.66      10197.8      18028.5      38234.6     -1.00000
      562.000      14.0000      12.6374      382.355      1110.89      3353.29      4340.45      10549.3      18125.8      38406.9     -1.00000
      599.000      451.000      26.2354      72.8800      130.234      214.432      258.969      322.122      394.951      37932.4     -1.00000
      514.000      851.000      59.9324      350.697      995.758      3089.34      3711.63      10162.2      17910.8      38010.6     -1.00000
      160.000      90.0000      15.9963      402.180      1149.37      3423.28      3889.29      10714.1      18311.4      37691.5     -1.00000
      107.000      866.000      75.9713      381.401      1056.60      3273.57      3865.91      10331.1      18009.1      37998.5     -1.00000
      436.000      526.000      40.4654      374.511      1063.95      3176.76      3773.60      10054.4      17743.0      37702.4     -1.00000
      884.000      995.000      75.2726      471.398      1421.26      4444.81      5244.01      13558.1      21742.6      37665.9     -1.00000
      377.000      623.000      44.1702      370.844      1093.44      3236.54      3997.03      10338.4      17923.5      37445.6     -1.00000
      183.000      431.000      47.5407      402.212      1179.46      3475.77      4088.62      10811.0      18600.6      37183.9     -1.00000
      280.000      814.000      62.5693      363.521      1004.97      3069.20      3661.23      10192.1      17706.3      37280.5     -1.00000
      363.000      721.000      66.4908      368.849      1087.36      3201.68      3806.60      10315.0      17788.7      37199.0     -1.00000
      340.000      601.000      54.9500      388.678      1095.73      3199.68      3673.04      10716.9      18410.5      37149.8     -1.00000
      193.000      128.000      24.0133      392.587      1136.34      3371.72      1895.89      10266.4      17841.2      36959.1     -1.00000
      557.000      171.000      21.2597      415.946      1176.04      3402.35      4108.35      10645.2      18136.7      36961.2     -1.00000
      888.000      966.000      71.2855      333.662      1016.39      3097.13      3671.94      9837.07      17556.2      37507.2     -1.00000
      457.000      908.000      70.5292      395.378      1081.90      3285.59      3982.87      10597.8      18319.9      37228.8     -1.00000
      304.000      216.000      26.4364      417.363      1269.88      3741.42      4521.48      11295.7      18905.2      36947.0     -1.00000
      225.000      426.000      45.3536      407.282      1087.55      3288.54      3910.44      10353.6      17779.7      36995.8     -1.00000
      949.000      72.0000      9.92852      363.438      1123.02      3455.17      4117.67      10615.9      18135.3      36846.0     -1.00000
      252.000      240.000      27.2301      396.493      1168.47      3419.06      3962.22      10439.8      17768.7      36866.5     -1.00000
      849.000      130.000      15.6841      384.256      1094.57      3361.03      3930.82      10467.7      17950.8      36654.8     -1.00000
      726.000      660.000      52.5046      385.054      1105.81      3400.11      3896.85      10783.3      18387.3      36740.1     -1.00000
      640.000      561.000      60.1771      374.396      1044.36      3236.14      3941.27      10394.9      18146.1      36672.2     -1.00000
      816.000      369.000      32.7541      348.450      1042.50      3151.63      3743.46      9917.70      17339.0      36572.2     -1.00000
      743.000      175.000      17.4314      330.998      1056.76      3186.45      3974.88      10021.1      17342.4      36420.9     -1.00000
      889.000      179.000      14.0075      353.615      1048.48      3238.78      3885.99      10137.7      17480.5      36339.4     -1.00000
      197.000      559.000      53.9257      375.222      1075.08      3223.03      4618.43      10217.9      17736.6      36959.3     -1.00000
      0.00000      600.000     -216.180      189.769      1049.35      3354.25      4037.07      10418.1      17909.0      36280.9     -1.00000
      3.00000      866.000     -124.136      166.652      786.677      2839.41      2762.06      9622.37      16806.8      36104.4     -1.00000
      303.000      254.000      27.0510      379.262      1103.51      3371.03      4009.57      10237.2      17413.8      35840.0     -1.00000
      448.000      545.000      63.0957      414.721      1161.15      3396.64      3916.67      10543.5      17890.2      35861.1     -1.00000
      849.000      174.000      29.6869      398.901      1229.91      3727.73      3915.75      12393.5      19648.3      35686.4     -1.00000
      240.000      370.000      39.3477      352.799      1044.41      3133.92      3723.92      9802.84      16948.1      35635.0     -1.00000
      685.000      209.000      32.5023      367.771      1107.97      3362.71      4022.28      10295.0      17663.4      35573.3     -1.00000
      160.000      91.0000      12.8308      385.368      1156.33      3455.46      3910.04      10462.5      17762.8      35460.6     -1.00000
      589.000      757.000      57.1848      373.244      995.844      3073.83      3687.53      9764.21      16908.2      35704.6     -1.00000
      777.000      947.000      64.4409      339.947      931.920      2912.71      3490.27      9925.81      17559.6      35742.3     -1.00000
      542.000      901.000      73.7099      358.013      1011.19      2829.97      3593.26      9181.31      17655.2      35697.3     -1.00000
      798.000      505.000      41.5173      343.592      1056.75      3259.00      3909.70      10203.2      17303.3      35448.8     -1.00000
      995.000      108.000      12.3104      339.583      1183.72      3484.71      4125.96      10811.8      18012.7      35293.7     -1.00000
      916.000      390.000      44.2155      356.739      1013.08      3125.42      3745.12      9738.30      16964.8      35373.4     -1.00000
      152.000      79.0000      17.3262      355.507      1105.17      3326.71      3915.30      10027.2      17179.5      35065.8     -1.00000
      470.000      291.000      33.8490      358.895      1070.73      3212.19      3828.73      9988.03      17061.1      35130.6     -1.00000
      881.000      92.0000      15.9308      337.516      1037.30      3126.52      3730.36      9767.01      16801.2      35041.4     -1.00000
      112.000      159.000      25.6267      383.409      1124.00      3408.43      3995.57      10465.2      17679.5      35060.2     -1.00000
      827.000      755.000      56.6643      351.537      990.000      3024.88      3505.76      9561.26      16521.1      35276.2     -1.00000
      29.0000      725.000      47.8356      376.075      1028.67      3163.55      3769.71      9951.78      17040.2      35252.5     -1.00000
      435.000      942.000      73.2372      364.376      1002.13      3048.53      2390.48      9892.97      17283.6      35210.3     -1.00000
      554.000      106.000      12.7642      275.652      883.124      2581.36      3143.36      8092.81      14007.1      29450.9     -1.00000
      98.0000      88.0000      11.3660      84.5187      143.000      248.198      255.795      490.522      8406.89      34823.9     -1.00000
      563.000      903.000      62.2418      351.498      981.519      2868.46      3476.46      9273.23      16262.0      34733.4     -1.00000
      775.000      976.000      67.9846      342.814      940.648      2832.78      3089.11      9291.69      16859.3      35111.0     -1.00000
      1019.00      93.0000      5.75401      341.517      1068.25      3277.78      3804.53      9949.82      16946.7      34718.5     -1.00000
      403.000      367.000      20.2692      356.516      1008.42      3086.67      2920.47      9587.90      16556.3      34614.9     -1.00000
      790.000      531.000      48.2601      378.914      1062.03      3128.38      3751.48      10004.7      17329.5      34651.3     -1.00000
      617.000      387.000      41.6685      375.628      1018.94      3061.55      3588.05      9602.24      16482.9      34406.2     -1.00000
      897.000      577.000      44.1722      345.927      1035.03      3129.41      3802.41      9951.25      17023.9      34466.2     -1.00000
      108.000      721.000      49.6929      391.745      1072.94      3240.89      3819.67      10031.7      16908.5      34508.6     -1.00000
      779.000      765.000      54.7836      365.737      1011.11      3112.22      3681.05      9837.71      16858.2      34430.3     -1.00000
      767.000      3.00000      2.61091      342.260      1054.24      3159.18      3786.84      9632.45      16775.5      34078.4     -1.00000
      472.000      143.000      24.9550      349.273      1054.91      3167.54      3762.51      9811.14      16816.5      34104.8     -1.00000
      873.000      466.000      44.4069      357.042      1014.62      2985.15      3639.45      9474.01      16369.6      34137.0     -1.00000
      99.0000      209.000      21.0328      365.209      1098.79      3204.86      3759.93      9884.97      16706.3      34028.5     -1.00000
      787.000      499.000      33.4316      355.758      967.503      2912.85      3525.88      9359.29      16309.4      34026.3     -1.00000
      853.000      990.000      65.8216      312.628      884.434      2792.20      3347.59      9020.01      15845.8      33904.8     -1.00000
      591.000      57.0000      6.80180      354.603      1043.08      3174.44      3811.98      9807.68      16704.2      33707.1     -1.00000
      831.000      303.000      31.2877      338.076      1000.38      3030.11      3585.53      9388.06      16239.8      33777.3     -1.00000
      358.000      622.000      48.5811      335.159      926.033      2802.20      3394.44      9158.91      15893.2      33811.0     -1.00000
      248.000      578.000      51.6905      367.057      1066.45      3084.11      3580.09      9566.36      16499.1      33715.1     -1.00000
      942.000      96.0000      9.99949      363.402      1103.40      3268.27      3961.70      9990.29      16959.4      33477.2     -1.00000
      342.000      743.000      58.9237      361.999      1045.36      2998.00      3550.78      9525.41      16254.9      33608.5     -1.00000
      606.000      299.000      18.8195      352.875      1030.96      3122.27      3749.69      9682.23      16472.4      33272.4     -1.00000
      505.000      984.000      73.4406      307.353      887.366      2726.42      3302.26      8931.34      15657.5      33491.9     -1.00000
      325.000      7.00000      15.8655      402.851      1045.74      3229.76      4091.73      10475.8      16414.4      33143.7     -1.00000
      9.00000      306.000     -21.0614      314.494      1014.39      3166.32      3812.06      9877.00      16605.8      33143.9     -1.00000
      962.000      436.000      38.1914      349.660      986.788      3044.84      3592.38      9598.71      16510.0      33180.9     -1.00000
      441.000      476.000      51.3140      383.800      1083.81      3204.89      3760.60      9895.35      16705.3      33162.8     -1.00000
      11.0000      316.000     -7.83550      307.168      943.826      2758.03      3340.04      8692.84      15142.2      33090.4     -1.00000
      375.000      279.000      39.9744      330.406      984.536      2985.27      3491.81      9142.12      15718.8      32770.2     -1.00000
      641.000      855.000      64.4161      352.559      966.659      3026.71      3582.69      9265.14      15928.2      32944.1     -1.00000
      187.000      340.000      39.0218      343.212      1007.62      2944.49      3521.81      9138.20      15670.3      32738.5     -1.00000
      236.000      164.000      20.4292      339.863      1005.30      2971.87      1114.11      9178.45      15784.8      32665.0     -1.00000
      105.000      152.000      23.5153      324.324      984.413      2902.05      3383.26      8914.76      15507.3      32659.6     -1.00000
      19.0000      246.000      24.4907      336.480      992.282      3098.13      3658.07      9395.89      16084.2      32650.6     -1.00000
      667.000      19.0000      18.3783      330.072      993.144      2937.01      3446.03      9081.48      15602.4      32548.1     -1.00000
      331.000      674.000      47.8305      348.291      1025.83      2913.77      3725.68      9446.96      16225.0      32728.1     -1.00000
      998.000      420.000      42.9820      326.539      927.601      2776.54      3076.18      8790.49      15380.5      32460.5     -1.00000
      397.000      341.000      38.6029      365.178      1035.64      3044.98      2313.67      9406.12      16057.0      32415.7     -1.00000
      131.000      238.000      38.4692      393.115      1097.89      3327.36      3891.00      9907.77      16619.7      32370.9     -1.00000
      867.000      246.000      33.6034      299.988      962.053      2903.46      3445.68      9140.62      15718.8      32351.1     -1.00000
      806.000      581.000      44.9560      311.209      908.624      2751.92      3326.68      8694.58      15098.2      32173.4     -1.00000
      769.000      904.000      60.7652      326.915      851.804      2492.90      3010.91      8244.59      14561.4      31619.5     -1.00000
      313.000      591.000      55.4206      355.691      984.218      2971.81      3575.94      9336.43      16051.8      32152.0     -1.00000
      597.000      899.000      52.9152      325.069      881.319      2681.82      3146.94      8848.23      15515.8      32244.2     -1.00000
      697.000      1005.00      79.2006      315.164      850.017      2563.91      1693.02      8442.79      15144.9      32216.6     -1.00000
      830.000      681.000      47.6648      365.034      1015.19      3047.42      3702.01      9472.45      16024.0      32087.2     -1.00000
      257.000      823.000      76.4719      354.058      987.657      2895.33      3401.13      8847.69      14766.3      31962.3     -1.00000
      366.000      738.000      48.4440      356.682      1023.54      2950.48      3339.44      9300.09      15999.4      31887.7     -1.00000
      640.000      616.000      38.5423      326.152      897.556      2722.64      3282.20      8772.31      15260.6      31809.6     -1.00000
      724.000      762.000      57.0668      333.176      916.891      2661.65      3235.98      8546.45      15107.0      31821.5     -1.00000
      371.000      413.000      37.6350      267.574      757.890      2158.94      2615.01      6431.95      10927.8      22622.6     -1.00000
      545.000      466.000      38.2640      325.752      893.295      2665.60      3251.75      8528.93      14915.2      31641.8     -1.00000
      505.000      399.000      37.9702      330.719      978.578      2915.41      4034.54      9002.86      15508.7      32215.7     -1.00000
      329.000      308.000      31.6039      344.244      1009.30      2986.68      3426.98      9194.21      15689.9      31449.0     -1.00000
      50.0000      614.000      55.9740      366.213      956.692      2970.52      1427.48      8576.83      14949.7      31544.5     -1.00000
      20.0000      797.000      46.5374      331.474      948.456      2881.63      3084.23      8983.12      15424.6      31524.2     -1.00000
      993.000      992.000      56.9314      298.523      871.152      2729.94      3292.51      8631.95      15048.5      31570.9     -1.00000
      499.000      870.000      54.8316      308.122      833.518      2608.02      1161.78      8290.20      14847.3      31515.7     -1.00000
      484.000      500.000      55.4859      317.068      965.967      2860.86      3430.56      8965.24      15316.2      31290.6     -1.00000
      581.000      381.000      51.6558      309.688      913.952      2702.11      3203.18      8445.66      14591.2      31145.2     -1.00000
      792.000      609.000      53.3166      326.693      935.459      2784.15      3295.73      8768.17      15039.4      31137.7     -1.00000
      323.000      483.000      50.7107      320.735      928.028      2670.69      3269.79      8417.81      14748.6      31091.0     -1.00000
      568.000      711.000      59.8384      324.196      949.070      2814.40      3293.87      8728.84      15140.8      31088.4     -1.00000
      239.000      265.000      36.5745      306.302      902.500      2706.18      3267.07      8567.93      14900.1      30936.1     -1.00000
      323.000      369.000      45.7376      316.347      900.728      2736.43      3345.66      8591.56      14991.2      30881.2     -1.00000
      855.000      840.000      55.6513      295.451      881.813      2594.19      3105.98      8117.83      14291.0      30992.4     -1.00000
      403.000      870.000      56.4180      345.619      937.410      2724.99      3280.68      8683.38      14925.3      30946.2     -1.00000
      621.000      303.000      44.1288      342.111      975.525      2909.03      3376.34      8866.08      15191.1      30722.2     -1.00000
      810.000      948.000      68.6087      320.910      832.552      2521.01      3936.30      8138.58      14484.4      30721.4     -1.00000
      489.000      362.000      44.7716      302.627      853.389      2607.44      2374.80      8207.20      14319.5      30443.3     -1.00000
      906.000      306.000      32.3233      310.297      906.836      2756.17      3285.44      8501.96      14662.8      30358.0     -1.00000
      711.000      370.000      47.3984      313.265      868.086      2651.48      3232.51      8425.47      14498.8      30365.6     -1.00000
      226.000      345.000      32.3076      312.490      934.926      2723.91      3665.05      8406.34      14499.6      30652.6     -1.00000
      466.000      785.000      76.1610      317.478      847.046      2509.56      3063.06      8245.53      14454.6      30400.4     -1.00000
      939.000      835.000      57.5287      291.210      796.536      2476.77      2985.77      8211.55      14257.6      30407.2     -1.00000
      917.000      95.0000      11.4350      295.517      894.954      2694.41      2921.51      8229.24      12962.2      30056.0     -1.00000
      661.000      643.000      66.9504      354.031      1026.15      3072.42      2073.87      5639.60      16849.1      30215.6     -1.00000
      950.000      928.000      59.7693      308.782      834.373      2694.55      3230.59      8682.30      14703.3      30238.3     -1.00000
      969.000      305.000      31.9632      325.680      910.643      2789.22      3306.89      8512.91      14729.4      30020.1     -1.00000
      651.000      854.000      52.5447      300.667      856.742      2607.21      3098.88      8368.00      14553.0      30173.8     -1.00000
      361.000      884.000      80.2736      333.510      972.554      2847.22      2147.25      8963.08      15727.9      30037.1     -1.00000
      824.000      268.000      30.2092      318.625      925.938      2793.35      3287.01      8503.01      14491.7      29728.9     -1.00000
      284.000      396.000      38.8511      348.794      973.127      2829.56      3335.10      8606.82      14802.0      29731.5     -1.00000
      842.000      931.000      69.6915      299.076      863.514      2605.17      3144.34      8042.70      13982.8      29721.6     -1.00000
      146.000      429.000      39.4483      319.285      908.223      2655.08      3490.77      8392.95      14327.1      29663.0     -1.00000
      641.000      293.000      36.4873      225.124      717.821      2532.21      2998.81      6932.93      12674.8      29602.1     -1.00000
      1020.00      526.000      35.7160      278.203      828.807      2511.12      2962.67      7904.84      13760.5      29612.8     -1.00000
      573.000      213.000      34.7693      148.164      260.441      431.720      437.659      623.990      1388.98      29416.4     -1.00000
      672.000      487.000      33.8233      252.229      638.598      1832.91      2459.74      5860.96      11138.9      29490.3     -1.00000
      378.000      750.000      58.5349      156.017      289.855      496.804      547.942      858.109      1129.91      29378.5     -1.00000
