PDS_VERSION_ID         = PDS3
RECORD_TYPE            = STREAM
OBJECT                 = TEXT
  PUBLICATION_DATE     = 2017-12-05
  INTERCHANGE_FORMAT   = ASCII
  NOTE                 = "NAC hot pixel file for epoch 2017.5."
END_OBJECT             = TEXT
END

NAC hot pixel list. Lines 1 and 2 are column headings giving exposure time 
(sec) and gain state (e-/DN), respectively, of source dark images. Starting 
on line 3, first two columns indicate x and y value of hot pixel; columns 3 
through N-1 give median electron counts for each exposure bin, and last (Nth) 
column contains either the index of the exposure bin where saturation first 
occurs, or -1 if no saturation.

\begindata
      0.00000      0.00000      0.00000      10.0000      32.0000      100.000      320.000      560.000      1200.00
      0.00000      0.00000      12.8410      12.8410      30.2700      30.2700      30.2700      30.2700      30.2700
      804.000      654.000      895.671      52468.8      125450.      125454.      125446.      125452.      125456.      1.00000
      845.000      326.000      336.031      38076.1      109974.      125452.      125439.      125467.      125456.      3.00000
      397.000      137.000      355.516      37262.7      102222.      125443.      125436.      125445.      125437.      3.00000
      967.000      336.000      279.653      29260.4      80909.0      125456.      125455.      125448.      125459.      3.00000
      964.000      361.000      305.160      31716.9      72507.1      125444.      125448.      125446.      125443.      3.00000
      521.000      476.000      212.361      21743.6      61410.7      125456.      125452.      125446.      125452.      3.00000
      50.0000      614.000      187.493      19889.2      56923.9      123419.      125438.      125460.      125452.      3.00000
      481.000      99.0000      159.563      16342.9      48971.2      122712.      125442.      125451.      125426.      4.00000
      919.000      767.000      125.021      10225.6      33926.7      95391.8      125455.      125461.      125440.      4.00000
      996.000      931.000      108.608      9379.95      32239.3      93238.0      125444.      125436.      125449.      4.00000
      98.0000      87.0000      97.2730      10847.0      33377.4      89640.0      125456.      125454.      125451.      4.00000
      343.000      526.000      114.615      11559.2      35993.4      92171.9      125461.      125448.      125432.      4.00000
      776.000      525.000      96.7818      10604.3      33287.3      86971.5      125463.      125451.      125433.      4.00000
      804.000      655.000      188.039      951.044      1623.62      56699.3      125450.      125455.      125455.      4.00000
      151.000      977.000      110.606      9253.06      30990.4      84319.7      125444.      125448.      125443.      4.00000
      190.000      864.000      113.666      7861.74      26229.0      73378.5      125442.      125454.      125454.      4.00000
      37.0000      647.000      79.6571      7705.22      25228.6      70542.4      125437.      125441.      125474.      4.00000
      710.000      1012.00      125.852      8609.33      28172.3      72779.0      125440.      125448.      125448.      4.00000
      158.000      65.0000      112.234      9534.86      28270.1      70386.1      125446.      125459.      125432.      4.00000
      103.000      483.000      95.7543      7394.25      23303.9      64847.6      125465.      125469.      125452.      4.00000
      546.000      747.000      86.9741      5630.23      19665.0      60229.8      125448.      125441.      125454.      4.00000
      573.000      212.000      75.7887      7094.38      22961.5      62955.5      125437.      125442.      125437.      4.00000
      345.000      147.000      62.0137      6560.61      20930.0      60351.1      125438.      125441.      125446.      4.00000
      898.000      949.000      87.1314      4552.86      16386.5      56248.7      125459.      125463.      125442.      4.00000
      47.0000      360.000      71.5085      5729.04      18859.8      55899.5      125446.      125446.      125443.      4.00000
      599.000      452.000      72.9981      6082.39      19760.4      56731.4      125460.      125442.      125436.      4.00000
      406.000      392.000      72.1968      6217.87      20263.9      56720.4      125444.      125435.      125444.      4.00000
      859.000      357.000      77.6158      5746.29      18846.0      54061.9      125436.      125452.      125445.      4.00000
      268.000      74.0000      61.5756      5907.07      18380.1      52170.5      125441.      125441.      125448.      4.00000
      967.000      351.000      76.5098      4429.60      14381.6      45213.5      125445.      125449.      125437.      4.00000
      804.000      653.000      41.0773      63.5095      140.958      25627.1      118927.      125449.      125454.      5.00000
      408.000      377.000      63.3164      3733.36      13228.6      38571.0      118954.      125452.      125444.      5.00000
      297.000      252.000      56.5827      4452.14      14346.8      42989.7      121304.      125448.      125444.      5.00000
      967.000      337.000      52.0794      303.199      550.922      1102.41      86984.7      125451.      125453.      5.00000
      434.000      761.000      69.8445      2232.92      8298.46      27959.5      108581.      125454.      125443.      5.00000
      142.000      23.0000      52.2814      5237.71      16717.0      48160.5      121845.      125435.      125417.      5.00000
      960.000      153.000      29.1790      4024.07      13360.2      40708.0      111285.      125439.      125447.      5.00000
      149.000      356.000      55.6303      4846.21      16159.8      47497.4      116246.      125453.      125442.      5.00000
      689.000      807.000      56.8064      2613.23      9709.54      32936.5      104457.      125466.      125441.      5.00000
      975.000      866.000      62.2974      2906.51      10728.5      35391.9      105249.      125451.      125451.      5.00000
      213.000      482.000      56.9433      3497.47      12061.5      38430.6      107196.      125465.      125454.      5.00000
      754.000      401.000      42.8561      5592.07      18416.6      51861.5      117464.      125443.      125452.      5.00000
      168.000      591.000      63.1210      3409.25      12292.1      38746.4      106309.      125453.      125445.      5.00000
      842.000      1000.00      74.8924      4672.66      16060.6      47576.7      113066.      125450.      125464.      5.00000
      92.0000      413.000      85.7134      6219.98      19660.2      53270.5      116687.      125450.      125441.      5.00000
      544.000      256.000      38.8267      2947.74      9736.35      30899.2      98537.4      125440.      125445.      5.00000
      899.000      52.0000      57.3363      6674.62      20461.9      53477.3      113667.      125452.      125453.      5.00000
      793.000      640.000      53.6326      3106.40      10973.7      35020.2      99059.7      125445.      125458.      5.00000
      117.000      230.000      37.6242      3998.11      12952.9      38313.1      100370.      125441.      125464.      5.00000
      910.000      336.000      50.1296      2982.75      10047.2      31779.5      95507.3      125448.      125459.      5.00000
      25.0000      684.000      46.0392      3414.51      12201.1      37398.1      99739.9      125435.      125453.      5.00000
      242.000      621.000      43.7670      2536.94      9000.90      29647.2      89126.3      125449.      125439.      5.00000
      297.000      396.000      67.1894      4586.81      14636.1      41841.6      102804.      125440.      125449.      5.00000
      3.00000      747.000     -56.8484      1818.19      7216.41      24322.7      21139.2      110103.      125454.      6.00000
      1008.00      692.000      45.7935      2857.18      10214.8      32269.6      93927.5      125459.      125460.      5.00000
      462.000      84.0000      35.8435      3852.06      12209.7      36328.1      95937.3      125443.      125458.      5.00000
      936.000      998.000      79.3379      4329.57      14702.9      42817.5      101692.      125442.      125454.      5.00000
      523.000      169.000      41.0433      3854.24      12445.2      36292.3      95234.1      125450.      125439.      5.00000
      578.000      312.000      61.7035      4748.49      15447.9      40847.3      98512.5      125451.      125428.      5.00000
      711.000      498.000      81.4951      4825.16      15816.4      44521.6      101399.      125436.      125441.      5.00000
      984.000      295.000      42.9886      3269.25      11111.2      34335.9      92796.8      125438.      125455.      5.00000
      887.000      625.000      51.3725      2752.51      10820.0      34024.9      92645.3      125452.      125428.      5.00000
      565.000      265.000      30.9295      2599.05      8540.96      26841.7      85993.0      125448.      125453.      5.00000
      951.000      329.000      40.2967      2573.45      8839.07      28467.7      86843.5      125446.      125467.      5.00000
      874.000      134.000      25.9068      2517.36      8353.97      26412.2      83617.9      125455.      125438.      5.00000
      157.000      741.000      58.5545      2465.22      9182.72      29863.4      86721.1      125452.      125436.      5.00000
      381.000      361.000      52.5509      3119.57      10308.0      31346.6      87082.7      125446.      125443.      5.00000
      843.000      421.000      51.6895      2505.98      9050.21      29112.2      85408.3      125455.      125438.      5.00000
      565.000      264.000      38.6953      2148.89      7407.63      24556.1      80944.1      125450.      125457.      5.00000
      524.000      697.000      60.5725      2602.87      9459.89      30540.7      85897.2      125441.      125447.      5.00000
      581.000      381.000      45.3659      2194.09      7739.98      25065.5      80968.4      125452.      125443.      5.00000
      549.000      905.000      61.7680      2329.41      8953.78      29471.9      83884.9      125462.      125453.      5.00000
      776.000      573.000      72.4426      2768.96      9302.34      28727.9      82040.5      125227.      125445.      5.00000
      634.000      10.0000      36.0024      3397.02      10583.9      31466.0      83810.0      124094.      125461.      5.00000
      1000.00      337.000      24.9416      2848.97      9733.86      29576.8      81924.8      124129.      125453.      5.00000
      732.000      583.000      51.7271      2154.36      7656.73      25063.2      77697.2      125151.      125461.      5.00000
      895.000      208.000      26.7543      2677.01      8837.69      27215.1      79597.5      125453.      125431.      5.00000
      481.000      100.000      33.6178      101.266      203.073      394.393      23894.1      88303.4      125429.      6.00000
      898.000      948.000      40.7920      63.9946      115.068      186.559      291.040      68125.0      125442.      6.00000
      363.000      573.000      50.5671      2069.13      7102.74      22985.9      72227.5      119160.      125445.      6.00000
      3.00000      884.000     -88.0007      1852.02      7280.70      24295.9      73812.6      120288.      125445.      6.00000
      947.000      122.000      16.1325      2202.16      7473.72      23573.5      71804.2      117619.      125465.      6.00000
      139.000      0.00000      15.1965      2719.10      8437.97      26148.1      77131.2      121225.      125437.      6.00000
      424.000      219.000      42.1985      2712.21      8937.98      27794.3      79067.4      120982.      125445.      6.00000
      476.000      102.000      23.6312      3043.81      9899.34      29399.7      80085.2      121041.      125437.      6.00000
      181.000      823.000      60.6285      1313.50      5007.65      17426.4      60516.8      107019.      125449.      6.00000
      491.000      588.000      60.8167      2703.79      9370.68      29337.2      80726.4      120901.      125447.      6.00000
      466.000      982.000      84.2560      2343.59      9013.24      29593.2      82269.1      122123.      125429.      6.00000
      123.000      79.0000      36.3094      3187.70      10240.2      30342.4      81690.8      120217.      125460.      6.00000
      380.000      1016.00      64.6071      1488.83      5520.26      18968.3      62817.1      107095.      125440.      6.00000
      919.000      766.000      30.4456      71.7936      137.695      187.623      1187.76      61720.1      125438.      6.00000
      435.000      576.000      49.7257      2294.68      8018.47      25486.1      73874.6      114388.      125458.      6.00000
      120.000      68.0000      36.4998      2726.17      8529.39      25848.4      73849.4      113914.      125442.      6.00000
      956.000      727.000      51.9670      1772.87      6391.81      20699.7      67015.4      108775.      125455.      6.00000
      154.000      715.000      56.6563      1879.25      6896.21      23082.8      70605.8      111302.      125448.      6.00000
      570.000      606.000      56.4318      1923.65      6853.16      22131.0      67437.6      107998.      125449.      6.00000
      147.000      68.0000      19.9675      2158.84      7143.23      21841.3      65102.5      105940.      125442.      6.00000
      305.000      696.000      54.9038      1684.63      7232.63      23031.8      69586.1      109191.      125448.      6.00000
      487.000      880.000      70.8808      2167.44      8063.75      26145.3      74845.5      113103.      125441.      6.00000
      604.000      465.000      36.0702      1884.03      7908.53      19696.8      67211.5      107011.      125444.      6.00000
      444.000      692.000      53.2434      1863.24      6833.80      22190.7      67425.6      107192.      125460.      6.00000
      82.0000      623.000      38.3708      1793.40      6243.97      20759.6      64696.3      105070.      125433.      6.00000
      391.000      888.000      78.2174      3295.97      11510.2      34646.2      86712.8      121068.      125454.      6.00000
      134.000      705.000      56.9615      2063.94      7415.87      23845.7      68736.3      107395.      125433.      6.00000
      303.000      118.000      20.8617      2684.35      8505.78      25495.7      70638.3      108295.      125458.      6.00000
      964.000      360.000      21.0206      69.5932      139.788      223.145      25465.7      75316.8      125443.      6.00000
      766.000      872.000      61.4671      1883.69      7360.99      23902.3      69023.0      107153.      125440.      6.00000
      762.000      386.000      33.0781      2087.80      7201.98      23057.2      67619.8      105646.      125437.      6.00000
      261.000      127.000      37.3875      3093.78      9872.75      29309.8      77106.8      112234.      125449.      6.00000
      16.0000      244.000      23.4081      2749.29      9209.47      28439.0      76197.8      111612.      125426.      6.00000
      345.000      213.000      50.1754      3082.07      9845.65      28688.6      74717.2      110246.      125439.      6.00000
      445.000      413.000      32.4359      1615.10      5797.94      18944.7      59537.3      99006.8      125441.      6.00000
      611.000      331.000      42.2208      2052.43      7046.73      22140.7      66665.8      104080.      125470.      6.00000
      647.000      265.000      37.1383      2448.20      8168.71      24922.9      69410.8      105932.      125453.      6.00000
      844.000      950.000      51.8257      2505.78      9460.27      30340.3      78505.7      112150.      125444.      6.00000
      552.000      694.000      49.5161      1847.92      6666.33      21383.5      64164.6      101357.      125460.      6.00000
      680.000      659.000      39.4403      2161.51      7941.09      25167.2      68993.8      104521.      125443.      6.00000
      328.000      733.000      65.9550      1527.47      5415.19      17885.6      57469.2      95829.2      125444.      6.00000
      365.000      875.000      47.1798      1954.48      7714.01      25192.8      70348.2      105170.      125438.      6.00000
      18.0000      679.000      47.2999      1836.99      6605.32      21671.5      64231.6      100543.      125446.      6.00000
      681.000      578.000      52.2396      1903.49      6800.07      21564.9      63214.2      99031.1      125462.      6.00000
      671.000      105.000      22.4552      2317.60      7804.90      23789.5      65890.8      100543.      125448.      6.00000
      76.0000      1017.00      63.3929      1598.73      6375.25      21581.0      65248.9      100254.      125436.      6.00000
      758.000      44.0000      18.8812      2236.69      7151.63      21816.0      62296.7      97495.5      125458.      6.00000
      739.000      466.000      40.9068      1853.15      6365.34      20327.9      60938.6      96683.0      125440.      6.00000
      362.000      915.000      68.3946      2040.45      8033.74      25187.3      69612.8      102935.      125434.      6.00000
      817.000      592.000      69.4428      1920.94      7018.17      22426.7      65261.8      99335.3      125442.      6.00000
      416.000      172.000      21.4876      2028.63      6798.82      21038.9      61096.2      95991.4      125438.      6.00000
      973.000      62.0000      16.5990      1743.21      5768.25      17931.2      55326.9      91561.8      125435.      6.00000
      504.000      666.000      57.0789      2560.88      9149.89      28701.2      74394.7      105570.      125422.      6.00000
      31.0000      274.000      33.5800      2226.37      7414.99      22478.6      63287.2      97206.0      125440.      6.00000
      911.000      250.000      28.6684      1915.43      6540.61      20636.1      59271.8      94125.7      125445.      6.00000
      335.000      245.000      33.5245      2317.09      7927.53      24078.0      65566.6      98498.9      125429.      6.00000
      449.000      264.000      32.1217      2752.21      9090.56      26991.8      70265.3      101890.      125457.      6.00000
      847.000      345.000      36.3658      1825.05      6379.26      20600.2      60685.1      94944.0      125444.      6.00000
      878.000      412.000      34.9051      1533.70      5447.16      18191.4      56603.9      91864.0      125443.      6.00000
      617.000      440.000      47.4717      2117.96      7090.06      22908.9      69011.0      100728.      125465.      6.00000
      433.000      70.0000      16.6295      1694.36      5449.35      17076.9      52951.9      88704.8      125451.      6.00000
      864.000      122.000      21.3570      2269.66      7434.58      22606.5      62627.4      95481.6      125465.      6.00000
      505.000      470.000      54.0713      3044.21      10125.7      30140.3      75719.4      105046.      125440.      6.00000
      566.000      215.000      29.5041      1901.57      6293.91      19524.3      57213.6      91170.9      125441.      6.00000
      651.000      420.000      37.6768      1555.26      5350.41      17218.2      53582.2      88638.2      125437.      6.00000
      719.000      958.000      56.4132      1794.25      6501.83      21819.2      63475.3      96058.4      125451.      6.00000
      3.00000      19.0000     -118.557      1836.13      6386.57      19755.8      57437.1      90909.5      125445.      6.00000
      738.000      875.000      56.8742      1641.80      6365.66      22137.6      62379.7      94664.1      125438.      6.00000
      606.000      56.0000      16.8106      1501.51      4854.94      15289.1      48498.3      83986.5      125452.      6.00000
      814.000      601.000      51.7137      1229.28      4390.25      14267.2      46851.3      81892.6      125442.      6.00000
      580.000      531.000      45.3226      1808.98      6207.37      19759.8      58070.0      89864.8      125444.      6.00000
      996.000      930.000      30.0983      94.3809      154.398      274.569      2326.06      49457.3      125448.      6.00000
      555.000      944.000      62.7575      1282.19      4945.09      16733.1      52954.8      86252.0      125445.      6.00000
      277.000      703.000      48.0773      1306.30      4746.79      16330.6      52763.7      85782.2      125437.      6.00000
      860.000      807.000      69.4677      1502.46      5522.94      18439.9      55763.4      87992.1      125441.      6.00000
      588.000      243.000      30.6070      1757.11      5977.99      18515.3      54763.3      86931.7      125423.      6.00000
      307.000      107.000      24.2022      1943.21      6322.27      19383.8      55661.7      87433.0      125453.      6.00000
      955.000      158.000      12.5243      1347.39      4489.37      14402.2      46339.3      80554.9      125450.      6.00000
      826.000      781.000      33.3849      1263.66      4554.95      15655.9      50127.6      83061.8      125454.      6.00000
      56.0000      789.000      49.3775      1799.72      6233.92      19443.7      55988.8      87168.4      125454.      6.00000
      771.000      412.000      30.4935      1428.27      4781.71      15435.4      48885.6      81658.9      125443.      6.00000
      774.000      785.000      61.2416      1486.94      5512.00      18094.2      54232.2      85533.0      125453.      6.00000
      232.000      45.0000      23.2579      1790.52      6058.18      18226.8      52888.0      84122.7      125455.      6.00000
      9.00000      306.000    -0.308471      1894.80      6654.11      20443.7      56968.5      87196.7      125449.      6.00000
      685.000      522.000      44.2525      1125.25      3977.66      13663.2      45110.4      78612.2      125431.      6.00000
      345.000      13.0000      11.3162      1700.42      5501.33      16849.3      51013.1      82378.0      125473.      6.00000
      264.000      101.000      18.7908      1568.42      5192.86      16309.9      49640.2      81398.4      125432.      6.00000
      358.000      246.000      23.3916      1812.78      6063.79      18597.0      53914.4      84520.5      125432.      6.00000
      586.000      516.000      43.6303      1449.63      4900.51      16077.8      49884.2      81688.9      125445.      6.00000
      523.000      626.000      66.2738      1546.27      5443.04      17868.8      53544.6      84307.7      125426.      6.00000
      221.000      501.000      47.4905      1478.15      5196.05      16687.2      51018.6      82348.4      125448.      6.00000
      604.000      508.000      40.4239      1488.54      5189.24      16538.7      50277.6      81532.2      125458.      6.00000
      814.000      545.000      40.2655      1381.73      4945.07      16232.2      50453.4      80878.2      125456.      6.00000
      886.000      348.000      25.0360      1469.79      5055.15      16121.1      48500.4      79040.0      125432.      6.00000
      907.000      703.000      46.7853      1073.33      3651.99      12706.3      42727.4      74974.1      125437.      6.00000
      931.000      332.000      32.2334      1239.82      4285.53      13974.5      44712.0      76213.0      125471.      6.00000
      945.000      197.000      14.1323      1899.09      6370.86      19358.8      54232.1      83036.4      125450.      6.00000
      223.000      273.000      40.6031      1143.17      4214.73      14096.9      44407.7      75872.9      125443.      6.00000
      198.000      686.000      41.9582      1454.16      5327.49      17262.4      50900.0      80178.6      125454.      6.00000
      898.000      950.000      61.4049      266.063      572.215      1164.18      2587.11      45080.4      125444.      6.00000
      590.000      154.000      25.1460      1672.58      5647.09      17160.7      50855.4      79618.4      125448.      6.00000
      202.000      885.000      57.0543      963.062      3562.19      12554.9      42059.4      73480.3      125447.      6.00000
      417.000      152.000      26.2139      1811.67      5995.12      18083.0      51778.4      80130.3      125448.      6.00000
      236.000      340.000      42.6877      1477.78      4988.46      16449.4      48847.6      77645.3      125450.      6.00000
      804.000      656.000      176.638      363.675      552.432      1120.62      31766.8      125459.      125451.      5.00000
      956.000      64.0000      18.1216      1595.76      5427.36      17004.8      49364.5      77468.4      125431.      6.00000
      757.000      317.000      31.9822      1620.33      5597.24      17392.2      50284.7      77921.4      125440.      6.00000
      798.000      803.000      47.3322      1143.57      4273.07      14298.8      44903.3      74095.2      125454.      6.00000
      210.000      160.000      28.3549      2069.64      6513.43      19376.9      53072.6      79620.8      125444.      6.00000
      200.000      837.000      64.4786      1288.83      4856.14      15989.8      47818.7      75672.3      125450.      6.00000
      617.000      756.000      50.4594      1148.13      4041.41      13605.2      43840.4      72520.7      125464.      6.00000
      739.000      510.000      48.7084      1269.23      4325.52      13770.2      42383.7      71064.7      125460.      6.00000
      667.000      246.000      28.5819      1285.25      4466.41      14480.7      44048.3      71893.4      125432.      6.00000
      771.000      1003.00      65.7353      1202.19      4243.59      14533.5      45127.0      72838.1      124173.      6.00000
      961.000      431.000      34.2994      1174.60      4020.16      13317.7      42249.0      70366.4      125443.      6.00000
      144.000      141.000      27.4666      1702.17      5432.65      16430.0      47087.6      73573.9      124606.      6.00000
      774.000      911.000      53.1349      1216.54      4627.01      15211.4      45869.7      72870.6      125431.      6.00000
      851.000      56.0000      19.9496      915.057      3091.82      9609.67      35693.2      65016.6      124157.      6.00000
      15.0000      49.0000      8.14478      1370.98      4468.30      13774.3      41769.7      69392.3      125455.      6.00000
      977.000      227.000      15.3516      1041.29      3599.59      11763.5      38456.9      66997.3      125466.      6.00000
      795.000      80.0000      17.6112      1239.21      4113.15      13081.7      40617.6      67682.7      123839.      6.00000
      794.000      306.000      21.7909      1141.91      4200.03      13750.2      41901.6      68680.7      124250.      6.00000
      0.00000      233.000     -247.591      1026.46      7428.92      13259.1      41022.2      67842.7      125445.      6.00000
      708.000      520.000      34.2155      1130.18      3671.94      12256.5      39416.3      66639.9      125437.      6.00000
      64.0000      477.000      40.0519      955.102      3377.58      11279.9      36917.3      64145.5      125453.      6.00000
      19.0000      1018.00      49.8837      801.280      3029.87      10811.8      37007.1      63844.2      124524.      6.00000
      932.000      118.000      18.4014      996.548      3370.34      10932.7      35323.9      61777.0      125458.      6.00000
      696.000      246.000      20.2424      853.642      2820.66      9325.04      31592.2      57442.4      125432.      6.00000
      553.000      635.000      35.6581      890.869      3005.18      10173.4      33842.4      59510.1      123756.      6.00000
      333.000      40.0000      17.8184      1043.67      3372.85      10564.2      33477.2      58544.3      122980.      6.00000
      173.000      726.000      58.2958      1241.36      4480.05      14701.0      44581.7      71151.0      122366.     -1.00000
      632.000      885.000      61.0919      987.969      3587.39      12562.3      40781.8      67595.0      122296.     -1.00000
      191.000      582.000      43.8014      1180.38      4317.39      14065.3      43016.8      69264.7      121871.     -1.00000
      730.000      65.0000      8.62156      1229.84      4242.90      13373.3      40493.7      66313.8      121086.     -1.00000
      699.000      675.000      35.9151      861.291      3072.50      10374.1      34272.5      59838.2      121876.     -1.00000
      96.0000      767.000      52.1168      1123.66      3913.44      13083.5      40661.1      66804.4      121245.     -1.00000
      397.000      447.000      80.7220      1461.60      4769.03      15156.2      44181.1      70265.5      120820.     -1.00000
      521.000      477.000      69.5338      346.752      568.584      959.257      11347.8      38943.0      120280.     -1.00000
      963.000      850.000      40.7549      872.854      3142.26      10569.7      35533.5      61364.8      120638.     -1.00000
      624.000      893.000      57.1164      1059.48      3735.44      12743.0      40318.8      66305.5      120569.     -1.00000
      56.0000      787.000      56.0726      1101.94      4038.42      13563.1      41689.9      67632.7      120373.     -1.00000
      624.000      334.000      25.5783      1321.42      4363.37      13933.8      42044.7      68124.1      119666.     -1.00000
      870.000      115.000      15.0670      1191.14      4529.22      14193.7      42098.7      60625.4      119313.     -1.00000
      784.000      211.000      18.7942      1138.39      3863.20      12363.8      38096.0      63353.5      119202.     -1.00000
      565.000      266.000      21.3886      135.425      267.626      475.108      789.522      1070.01      118627.     -1.00000
      464.000      138.000      29.9186      1345.99      4639.89      14422.2      42908.3      68872.4      118289.     -1.00000
      433.000      804.000      63.7084      1307.30      4537.32      14600.2      43993.6      69951.4      119118.     -1.00000
      703.000      632.000      44.1874      1071.54      3682.96      12252.4      39389.2      65421.6      118684.     -1.00000
      62.0000      626.000      41.0317      1223.26      4286.99      13963.8      42296.3      67782.3      118519.     -1.00000
      393.000      351.000      41.2156      1564.72      5249.73      16246.4      46407.9      72147.1      118098.     -1.00000
      433.000      581.000      40.4966      1460.67      5064.65      15972.1      47228.4      70153.3      117778.     -1.00000
      500.000      704.000      48.3843      810.482      3175.93      11049.9      35983.9      61145.6      117748.     -1.00000
      873.000      878.000      55.6122      827.580      3063.88      11209.6      36818.8      62425.1      116771.     -1.00000
      657.000      164.000      16.0533      1087.77      3512.77      11113.3      34612.0      58008.5      115698.     -1.00000
      387.000      837.000      61.0335      1062.66      3722.31      12121.2      37956.2      62866.1      116360.     -1.00000
      277.000      25.0000      3.21735      682.627      2258.54      7095.33      22617.0      39687.9      115191.     -1.00000
      686.000      238.000      21.4192      1513.96      5160.09      16085.2      47481.4      73837.3      115326.     -1.00000
      968.000      320.000      31.4543      1197.04      4168.19      12934.4      39050.1      63328.4      115334.     -1.00000
      285.000      111.000      15.2463      1653.03      5222.06      15608.8      44061.5      68583.5      114998.     -1.00000
      985.000      997.000      53.5089      938.198      3455.46      11683.3      37316.1      61996.2      116026.     -1.00000
      595.000      162.000      17.1941      928.823      3110.26      9803.67      30322.1      50370.4      114870.     -1.00000
      649.000      346.000      21.1743      821.471      2902.41      9435.99      30981.0      53486.3      114826.     -1.00000
      851.000      518.000      41.8004      1068.03      3576.51      11620.4      35920.7      61619.3      114920.     -1.00000
      166.000      826.000      49.0403      1137.62      4355.10      14382.9      43302.1      68092.9      115106.     -1.00000
      117.000      577.000      42.5650      924.185      3101.04      10136.0      32966.8      56877.5      114386.     -1.00000
      113.000      815.000      49.6931      1005.81      3914.25      13322.4      40816.4      65742.2      114347.     -1.00000
      180.000      383.000      40.3777      989.179      3418.56      11019.9      34696.4      58551.1      113561.     -1.00000
      845.000      57.0000      12.9181      1422.47      4866.71      14804.6      43042.5      67356.0      112980.     -1.00000
      566.000      332.000      26.8396      1122.11      3835.77      12054.5      37056.9      60852.9      113207.     -1.00000
      37.0000      90.0000      26.1566      1473.65      4774.18      14363.4      41031.4      64764.1      112618.     -1.00000
      268.000      676.000      52.8839      878.688      3060.59      10371.8      33772.5      58006.5      113195.     -1.00000
      188.000      596.000      45.1002      1082.40      4011.64      13369.1      40741.0      64977.6      113021.     -1.00000
      693.000      236.000      17.2237      1149.93      3929.47      12383.0      38148.1      62731.6      112511.     -1.00000
      484.000      945.000      57.6338      917.819      3125.35      10744.8      35612.3      60075.7      112781.     -1.00000
      387.000      799.000      50.7590      1082.67      3606.83      11837.3      37471.5      61662.7      112510.     -1.00000
      802.000      40.0000      12.2378      1279.69      4289.93      13471.2      39745.7      63830.6      111529.     -1.00000
      445.000      920.000      58.4195      1003.39      3882.25      13534.2      40200.8      63525.8      112091.     -1.00000
      166.000      840.000      43.4663      878.822      3182.57      10449.9      33176.6      56693.8      111865.     -1.00000
      259.000      207.000      22.9669      1302.40      4540.81      14095.1      41225.6      65090.0      110611.     -1.00000
      874.000      280.000      28.6127      1045.21      3605.42      11406.4      35412.5      58587.4      110587.     -1.00000
      344.000      970.000      59.7059      875.286      3171.15      10849.8      35062.8      57970.2      110929.     -1.00000
      91.0000      753.000      56.8759      1261.66      4386.88      14072.3      41473.1      65379.8      110350.     -1.00000
      960.000      387.000      20.8974      1161.56      4074.96      13273.5      39757.8      63252.6      109728.     -1.00000
      797.000      311.000      33.4836      1144.97      4089.72      13006.5      39154.1      62910.5      109186.     -1.00000
      483.000      824.000      56.5898      857.205      3044.81      10724.0      35461.2      59702.4      109367.     -1.00000
      97.0000      327.000      29.8396      1076.64      3519.65      11052.4      34260.3      57579.4      108699.     -1.00000
      858.000      355.000      29.7665      895.374      3173.68      10475.2      33600.0      57445.9      108535.     -1.00000
      1019.00      474.000      33.8099      819.210      2916.94      9959.25      32177.0      55414.1      108669.     -1.00000
      112.000      139.000      29.1993      1207.23      3990.66      12266.0      36995.9      59916.9      108272.     -1.00000
      402.000      382.000      44.4759      1011.73      3281.44      10537.7      33367.4      56770.3      108281.     -1.00000
      425.000      546.000      27.5766      805.931      2981.11      10029.5      32456.8      55665.7      108090.     -1.00000
      5.00000      322.000     -58.0705      855.359      3193.24      10536.9      33038.0      55390.3      107378.     -1.00000
      592.000      399.000      28.1370      777.531      2643.07      8660.12      29251.4      51331.4      107151.     -1.00000
      707.000      553.000      41.8403      884.346      3026.68      9909.87      31960.8      54897.1      107209.     -1.00000
      456.000      914.000      70.2445      1145.10      4071.82      13428.6      41140.7      64328.2      107574.     -1.00000
      290.000      246.000      20.2424      1266.06      4177.06      12857.4      38885.3      62404.6      106660.     -1.00000
      545.000      571.000      46.4509      909.811      3119.53      10583.4      34015.5      57361.4      106624.     -1.00000
      855.000      840.000      53.2376      641.852      2224.74      7842.34      27706.9      49557.4      106886.     -1.00000
      974.000      1018.00      52.9157      650.612      2315.80      8730.20      30391.7      53322.5      106913.     -1.00000
      819.000      33.0000      17.0712      1096.44      3551.87      11125.3      34099.2      56420.9      105785.     -1.00000
      12.0000      163.000      10.8026      1468.74      4908.13      14697.5      41308.9      64054.8      105867.     -1.00000
      496.000      951.000      81.7508      865.471      3101.37      10386.1      33018.7      55197.7      106735.     -1.00000
      507.000      210.000      31.4159      1124.25      3848.95      12131.9      36793.9      59563.5      105763.     -1.00000
      804.000      684.000      204.305      1552.17      4637.42      13891.9      40174.7      63115.5      106087.     -1.00000
      949.000      926.000      40.7143      680.550      2468.94      8836.29      30265.6      52955.1      106231.     -1.00000
      996.000      932.000      55.4647      390.847      791.418      1487.28      7319.48      27040.4      106176.     -1.00000
      696.000      247.000      15.5204      972.547      3160.09      10006.1      30861.7      52235.4      104733.     -1.00000
      875.000      196.000      30.1773      1238.98      4032.43      12412.6      36655.5      58845.3      103521.     -1.00000
      109.000      497.000      34.0958      770.224      2545.83      8603.13      28199.6      49704.6      103746.     -1.00000
      160.000      649.000      40.6665      1079.57      3723.21      12241.5      38318.8      61846.9      103676.     -1.00000
      247.000      466.000      27.5773      796.309      2661.42      8748.03      28463.6      49553.1      103450.     -1.00000
      93.0000      236.000      20.0917      891.798      3082.62      9771.50      31068.9      53147.2      103083.     -1.00000
      737.000      528.000      42.4197      902.759      3176.79      10573.3      33239.5      55329.4      103389.     -1.00000
      695.000      515.000      41.2239      1055.14      3652.76      12094.2      38043.5      60002.6      103192.     -1.00000
      856.000      66.0000      15.4018      1076.84      3579.12      11193.5      33778.7      55609.7      102592.     -1.00000
      807.000      287.000      21.7291      835.461      3003.30      9810.27      31150.5      52979.3      102524.     -1.00000
      882.000      631.000      33.5983      659.867      2248.99      7984.05      26988.8      47972.8      102883.     -1.00000
      459.000      492.000      36.6924      747.333      2439.87      8201.05      27391.1      48380.6      102625.     -1.00000
      770.000      358.000      32.5057      726.810      2879.10      9640.27      30538.9      52304.9      102409.     -1.00000
      347.000      873.000      60.8218      625.454      2486.26      8708.97      31215.7      52252.6      102067.     -1.00000
      845.000      863.000      105.302      808.376      2441.81      8411.20      28558.9      49736.1      101668.     -1.00000
      755.000      324.000      23.1018      816.549      2799.40      9203.66      29698.2      50965.9      100516.     -1.00000
      466.000      770.000      44.3321      797.670      3186.41      11455.1      35791.8      57950.0      100942.     -1.00000
      584.000      74.0000      15.0551      1367.87      3867.41      10290.9      31279.7      51952.2      100006.     -1.00000
      919.000      768.000      41.2642      328.136      650.901      1175.07      7805.11      27034.1      100560.     -1.00000
      87.0000      156.000      18.6416      945.106      3157.41      9740.66      30305.7      51691.8      99777.8     -1.00000
      967.000      335.000      21.2531      40.7373      116.073      185.696      12278.2      24992.0      99935.6     -1.00000
      793.000      30.0000      10.6399      809.390      2681.70      8419.98      26983.5      47109.5      99498.1     -1.00000
      530.000      805.000      40.6056      902.576      2983.28      10287.6      31949.5      53740.4      100025.     -1.00000
      831.000      59.0000      13.1626      1054.58      3538.60      11038.7      33524.6      54749.7      98839.7     -1.00000
      689.000      828.000      53.0785      981.276      3273.68      10692.2      33116.9      54522.4      99525.9     -1.00000
      481.000      98.0000      6.95008      43.0460      113.786      207.357      10220.3      29212.8      98738.4     -1.00000
      480.000      948.000      53.3622      921.335      3402.91      11840.5      37039.0      59032.2      99323.9     -1.00000
      1023.00      24.0000      6.03507      897.582      3020.85      9421.66      29391.6      49970.8      98257.4     -1.00000
      865.000      462.000      38.8010      1306.88      4577.85      14319.6      40427.2      61863.0      98441.2     -1.00000
      689.000      808.000      40.5370      222.440      441.767      831.740      1635.38      2267.46      67420.0     -1.00000
      603.000      60.0000      15.8747      971.182      3231.86      9974.63      30692.9      51273.9      97833.2     -1.00000
      379.000      603.000      42.1157      648.860      2286.37      7820.46      25738.3      50034.2      98209.2     -1.00000
      561.000      19.0000      8.03818      878.881      2902.05      8960.48      27861.3      47850.5      97440.5     -1.00000
      3.00000      473.000     -111.769      469.382      1969.73      7407.61      25652.2      45279.4      97908.1     -1.00000
      946.000      960.000      45.1007      204.449      556.070      1652.06      5817.99      49801.5      98390.4     -1.00000
      656.000      271.000      22.1273      904.172      3004.88      9532.86      29624.8      50149.9      97197.3     -1.00000
      707.000      40.0000      13.0722      941.706      3076.58      9634.89      29887.8      50267.9      96698.9     -1.00000
      1020.00      98.0000      5.36687      896.480      3078.03      9751.11      30255.2      50734.6      96477.0     -1.00000
      97.0000      481.000      35.8746      957.709      3271.24      10405.0      32044.9      52941.3      96684.8     -1.00000
      16.0000      908.000      28.2614      700.224      2544.72      9212.27      29539.2      49853.1      96620.9     -1.00000
      744.000      647.000      39.1687      749.774      2734.37      9129.23      29539.3      49774.9      96219.4     -1.00000
      218.000      785.000      39.7653      776.832      2756.81      9506.62      30668.0      51434.3      96308.3     -1.00000
      739.000      689.000      40.7024      870.824      2830.09      9209.54      29966.7      50591.3      95744.5     -1.00000
      707.000      781.000      55.0800      711.934      2358.82      7793.29      26178.7      45912.5      95230.3     -1.00000
      815.000      1012.00      50.6975      661.115      2450.96      8678.52      29100.1      49837.9      95316.3     -1.00000
      770.000      2.00000      12.0858      903.984      2840.61      8864.54      27886.9      47671.8      94213.6     -1.00000
      323.000      548.000      35.2022      761.997      2563.01      8706.10      29000.8      49303.1      94620.6     -1.00000
      420.000      202.000      17.6168      952.189      3157.45      9768.53      30240.5      50681.1      94013.4     -1.00000
      62.0000      49.0000      14.0176      1117.60      3583.56      10904.2      32314.1      52327.7      93783.1     -1.00000
      342.000      36.0000      6.62404      967.463      3170.54      9770.39      29679.0      49207.8      93652.2     -1.00000
      427.000      586.000      39.2304      703.307      2497.75      8351.58      27031.0      46660.8      94074.9     -1.00000
      765.000      370.000      29.7011      811.542      2835.02      9363.49      29401.8      49538.1      93721.0     -1.00000
      228.000      238.000      20.3243      831.240      2608.20      8218.96      26372.7      45525.5      93497.3     -1.00000
      579.000      583.000      43.0704      726.119      2509.61      8399.05      27443.8      47168.9      93504.5     -1.00000
      103.000      827.000      44.2301      912.986      3159.86      10701.0      31962.3      51586.2      93529.3     -1.00000
      161.000      540.000      43.2590      916.053      3029.97      9868.61      30855.7      50892.3      93025.5     -1.00000
      973.000      430.000      30.6182      816.347      2979.77      9566.54      29619.1      49459.4      92697.3     -1.00000
      235.000      72.0000      14.5392      1042.93      3456.83      10645.3      31728.2      51533.2      92340.5     -1.00000
      408.000      835.000      53.8585      656.454      2171.47      7531.42      25414.7      44510.4      92932.5     -1.00000
      312.000      158.000      13.4854      880.943      2902.79      9316.51      29037.6      48743.7      91718.7     -1.00000
      424.000      78.0000      13.1108      911.279      3005.82      9340.37      28596.2      47934.9      91468.3     -1.00000
      173.000      263.000      22.7614      1133.80      3769.75      11898.1      46460.1      58779.5      125454.      6.00000
      146.000      890.000      60.4664      731.732      2417.69      8103.30      27319.2      46420.8      92005.9     -1.00000
      604.000      65.0000      15.1441      799.726      2719.01      8635.58      26982.5      46339.7      91029.3     -1.00000
      216.000      153.000      16.5948      1000.89      3454.49      10709.9      32178.8      52149.6      90639.1     -1.00000
      409.000      469.000      40.7154      981.131      3275.28      10384.8      31646.2      51389.5      90921.8     -1.00000
      964.000      362.000      57.4722      347.287      584.803      980.619      14273.6      31063.8      79493.5     -1.00000
      748.000      369.000      34.5493      899.296      3125.83      10387.9      30702.3      50282.4      90572.4     -1.00000
      902.000      259.000      22.7305      857.982      2961.81      9346.74      28812.3      47765.8      90464.9     -1.00000
      461.000      921.000      63.8167      613.999      2163.84      7644.73      26338.1      45560.3      91060.2     -1.00000
      855.000      422.000      19.7729      667.920      2547.70      8028.92      27006.8      47358.5      90402.8     -1.00000
      349.000      126.000      12.5739      926.543      2997.45      9517.60      29251.1      48192.6      89981.5     -1.00000
      86.0000      665.000      38.8837      728.851      2460.87      8396.82      27636.8      46439.2      90234.6     -1.00000
      491.000      777.000      44.2015      790.232      2733.63      8810.13      28409.7      48271.6      90271.0     -1.00000
      607.000      174.000      16.2826      809.896      2545.60      8255.78      26504.3      45041.6      89684.7     -1.00000
      586.000      114.000      9.83424      816.712      2763.12      8858.75      27478.3      46508.3      89470.4     -1.00000
      515.000      513.000      40.8222      798.950      2588.89      8388.58      27035.4      45782.8      89665.8     -1.00000
      205.000      308.000      35.1609      741.449      2555.49      8389.75      26626.2      45818.2      89411.6     -1.00000
      747.000      167.000      17.2190      839.642      2798.61      8898.22      27543.5      46255.0      89032.4     -1.00000
      269.000      522.000      40.9333      746.486      2573.61      8104.42      26175.1      44974.0      89355.7     -1.00000
      1.00000      244.000     -220.255      560.189      2361.75      8255.86      26611.3      45231.4      89065.0     -1.00000
      249.000      911.000      66.6300      798.479      2591.82      8847.27      24324.9      28932.2      89433.0     -1.00000
      47.0000      948.000      72.3541      826.502      2920.14      10141.4      24102.2      53381.6      89393.9     -1.00000
      702.000      163.000      16.1707      698.554      2273.96      7295.71      23839.2      41822.8      87597.1     -1.00000
      470.000      364.000      30.7989      902.587      3124.10      10092.1      30543.0      49589.6      87569.7     -1.00000
      724.000      114.000      19.3182      988.875      3280.77      10225.7      30439.4      48968.6      87270.6     -1.00000
      576.000      320.000      38.6233      950.550      3023.93      9534.63      29347.5      48321.6      87456.2     -1.00000
      555.000      945.000      55.4709      697.495      2059.43      6439.51      20852.2      38228.5      87988.8     -1.00000
      544.000      255.000      18.9042      154.471      403.378      1116.43      3403.19      6130.72      87281.6     -1.00000
      255.000      8.00000      9.26119      811.234      2610.46      7969.10      25003.4      42796.1      87024.2     -1.00000
      325.000      995.000      57.8026      538.875      1946.67      7148.07      24511.4      42696.6      87107.5     -1.00000
      391.000      246.000      20.4826      1050.75      3401.95      10354.4      30305.1      48957.1      86371.0     -1.00000
      466.000      294.000      35.5572      802.963      2680.61      8494.42      26670.1      44797.2      86344.6     -1.00000
      553.000      979.000      56.3903      614.281      2112.82      7467.39      25047.7      43754.5      86936.8     -1.00000
      372.000      83.0000      14.1750      741.590      2440.16      7599.50      24370.1      41838.7      85970.2     -1.00000
      705.000      164.000      12.6724      758.773      2558.49      8262.42      26063.1      43943.5      85851.3     -1.00000
      899.000      350.000      31.7229      832.145      2740.20      8585.39      26822.6      45142.9      85964.9     -1.00000
      745.000      319.000      27.2176      701.367      2500.34      7913.58      26022.5      43790.8      85927.2     -1.00000
      168.000      851.000      53.7913      545.663      1917.02      6660.26      22067.2      37500.8      86363.2     -1.00000
      896.000      276.000      18.2525      775.861      2636.28      8270.50      26078.9      44034.9      85566.5     -1.00000
      168.000      153.000      15.1604      1028.58      3287.61      10153.2      30164.2      48631.4      85335.5     -1.00000
      474.000      109.000      23.9156      914.228      2923.39      9326.38      29096.8      48366.6      85195.6     -1.00000
      953.000      471.000      26.3734      760.766      2661.60      8779.75      27692.6      46148.9      85493.5     -1.00000
      419.000      672.000      51.7972      727.318      2461.98      8367.93      26869.2      45334.9      85628.4     -1.00000
      278.000      775.000      50.7458      713.177      2650.42      8955.99      28383.6      47349.3      85703.6     -1.00000
      7.00000      414.000     -28.8792      682.255      2547.28      8380.46      27073.0      45095.4      85321.0     -1.00000
      435.000      2.00000      7.65664      834.347      2764.97      8612.20      26717.6      44479.7      84913.4     -1.00000
      1000.00      720.000      42.9924      580.160      2021.39      6844.50      23002.7      40623.7      85495.4     -1.00000
      229.000      624.000      37.8918      670.219      2416.78      7981.63      25708.4      43921.3      85078.6     -1.00000
      82.0000      126.000      25.8052      831.282      2649.64      8175.81      25363.7      43030.3      84512.7     -1.00000
      380.000      16.0000      19.8959      886.395      2827.53      8716.66      26507.1      44021.8      84185.0     -1.00000
      975.000      575.000      45.5348      771.072      2672.41      8862.80      27897.0      46138.8      84538.8     -1.00000
      971.000      70.0000      11.0539      899.431      2946.98      9182.93      27949.5      46334.1      83850.6     -1.00000
      353.000      615.000      36.5313      770.163      2500.18      8161.74      25959.1      43923.1      84238.3     -1.00000
      476.000      340.000      40.4332      815.919      2732.83      8744.46      27175.1      44843.5      83828.8     -1.00000
      701.000      371.000      30.7765      819.198      2704.68      8622.71      26766.2      44346.8      83750.6     -1.00000
      521.000      183.000      23.7295      845.339      2797.16      8904.96      27252.2      45065.4      83360.0     -1.00000
      768.000      677.000      39.7783      773.299      2910.82      9798.85      29939.8      48128.3      83694.0     -1.00000
      22.0000      221.000      15.1331      685.691      2255.40      7160.41      22786.1      38684.2      83461.0     -1.00000
      547.000      889.000      47.1443      511.777      1679.18      5923.19      21333.4      38326.4      83728.4     -1.00000
      144.000      995.000      64.1332      717.148      2622.30      8732.04      27926.5      45989.6      83708.7     -1.00000
      927.000      343.000      24.1079      668.490      2209.08      7057.58      22364.8      3532.59      7255.77     -1.00000
      204.000      2.00000      4.33733      674.427      97.7039      207.820      27595.2      45042.3      81948.3     -1.00000
      667.000      689.000      42.3087      460.794      1678.34      6371.08      22138.3      39392.9      82522.6     -1.00000
      626.000      537.000      39.8361      743.758      2424.67      7919.63      25126.6      42196.9      82257.0     -1.00000
      4.00000      985.000     -50.3791      590.883      2488.55      8757.28      28175.6      46231.0      82507.2     -1.00000
      230.000      761.000      43.8135      696.089      2316.99      7996.40      26099.6      43869.1      82287.9     -1.00000
      559.000      351.000      22.3786      779.650      2691.27      8741.36      27295.7      44515.1      81678.8     -1.00000
      345.000      146.000      20.1986      49.2473      127.395      216.047      355.359      456.639      81248.7     -1.00000
      880.000      745.000      43.9062      536.585      1763.11      6152.26      21142.8      37728.8      81573.1     -1.00000
      901.000      885.000      50.6330      527.193      1803.37      6286.99      22336.0      39301.0      81678.9     -1.00000
      497.000      161.000      22.5710      744.612      2380.03      7539.77      23788.1      40532.5      80839.7     -1.00000
      760.000      486.000      33.8422      662.699      2254.01      7760.26      25231.9      42761.3      81105.8     -1.00000
      870.000      260.000      19.1973      767.661      2596.90      8641.31      26779.2      44297.0      80707.4     -1.00000
      16.0000      444.000      29.0913      735.822      2421.01      7871.16      25182.2      42456.4      80795.0     -1.00000
      672.000      486.000      22.8125      592.985      2023.77      6715.96      22356.1      38809.7      80820.1     -1.00000
      433.000      71.0000      18.2257      381.588      1210.80      4015.08      14616.0      29114.1      80397.7     -1.00000
      940.000      335.000      19.8041      661.228      2393.29      7883.25      25045.1      42177.7      80554.0     -1.00000
      941.000      993.000      46.8895      481.141      1728.71      5984.96      20912.4      37653.7      81109.2     -1.00000
      460.000      642.000      49.5744      655.123      2196.07      7193.37      23398.5      40446.5      80485.4     -1.00000
      194.000      79.0000      12.8058      789.504      2452.20      7543.56      23426.6      39961.1      79970.7     -1.00000
      819.000      986.000      40.2065      548.679      1985.86      7227.49      24557.5      41550.3      80648.0     -1.00000
      200.000      521.000      46.5368      677.323      2233.59      7332.52      23484.3      40359.2      80095.4     -1.00000
      743.000      756.000      38.9763      583.034      2038.97      7170.16      23681.7      40881.6      80223.2     -1.00000
      521.000      475.000      29.7807      65.6446      120.978      220.278      9045.04      31822.6      79960.3     -1.00000
      359.000      241.000      21.0002      805.636      2491.37      8284.61      25467.4      42316.6      79724.3     -1.00000
      919.000      948.000      75.1135      587.829      2028.34      6875.83      22904.2      40360.8      80324.9     -1.00000
      341.000      573.000      25.8927      630.086      2177.65      7533.19      24796.9      42133.0      79892.8     -1.00000
      964.000      690.000      85.0546      734.269      2471.44      8272.17      25780.4      43114.7      79862.2     -1.00000
      52.0000      221.000      25.6717      635.046      2052.56      6608.74      21596.8      37831.2      79401.3     -1.00000
      527.000      844.000      39.4926      604.489      2067.52      7256.04      24363.2      41165.2      79791.2     -1.00000
      324.000      18.0000      11.2174      786.545      2568.80      7894.34      24151.9      40851.0      79067.5     -1.00000
      362.000      902.000      47.6119      550.031      1735.59      6305.82      21809.3      38641.7      79758.6     -1.00000
      859.000      667.000      40.7853      507.558      1698.93      5777.72      20211.5      36225.2      79129.1     -1.00000
      446.000      1023.00      54.4813      555.603      1994.32      7333.25      23989.8      41541.8      79321.4     -1.00000
      326.000      567.000      41.2811      631.552      2400.21      7927.76      25053.4      41696.5      78849.9     -1.00000
      816.000      880.000      45.5582      587.873      2028.90      7148.54      23784.1      40533.2      78823.4     -1.00000
      377.000      986.000      51.5811      604.100      2051.22      7225.88      25601.5      42734.6      78667.7     -1.00000
      179.000      294.000      20.2309      673.149      2083.89      6866.55      22035.8      38115.9      77923.0     -1.00000
      267.000      34.0000      7.68123      780.023      2518.31      7743.45      23721.0      39809.3      77631.1     -1.00000
      715.000      202.000      17.2904      730.298      2572.55      8079.31      24524.4      41136.9      77559.2     -1.00000
      104.000      702.000      56.0865      678.412      2322.81      7789.04      24808.4      41225.2      77923.6     -1.00000
      301.000      21.0000      12.8120      895.920      3061.53      9340.46      26920.8      43039.5      77270.5     -1.00000
      370.000      180.000      9.75538      789.380      2631.46      8343.80      25577.6      42011.4      77289.9     -1.00000
      654.000      305.000      25.0806      616.279      2097.18      7024.18      22389.6      38365.9      76937.0     -1.00000
      874.000      562.000      42.4314      540.142      1792.66      6002.08      20222.9      36243.6      76871.8     -1.00000
      207.000      732.000      35.4767      640.881      2108.34      7145.71      23182.5      39491.6      76822.1     -1.00000
      648.000      586.000      35.3923      544.683      1828.46      6025.18      20317.4      35642.6      76669.2     -1.00000
      155.000      102.000      12.6822      841.164      2773.65      8538.90      25555.3      41744.7      75995.2     -1.00000
      60.0000      843.000      43.3254      671.976      2170.28      7394.26      24037.6      40826.7      76468.1     -1.00000
      394.000      500.000      38.4398      624.965      2169.67      6972.06      22401.8      38165.8      75917.5     -1.00000
      304.000      917.000      56.3948      586.640      2043.88      7173.33      23747.4      40117.5      76012.3     -1.00000
      614.000      459.000      42.6346      545.614      1791.80      6004.45      20024.9      35416.8      75597.6     -1.00000
      981.000      743.000      40.8724      591.646      2037.28      6972.34      22933.5      39343.7      75624.0     -1.00000
      586.000      763.000      35.8783      561.333      1959.08      6718.08      22371.3      38542.4      75608.6     -1.00000
      532.000      195.000      11.1299      733.890      2392.04      7382.92      22749.3      38463.6      74680.8     -1.00000
      115.000      276.000      23.9317      937.347      3105.79      9691.08      28092.5      44103.4      74738.1     -1.00000
      319.000      267.000      19.6985      658.171      2256.63      7789.24      23806.9      40607.1      74299.0     -1.00000
      587.000      458.000      32.2307      582.102      1944.91      6742.26      21906.6      37654.5      74231.6     -1.00000
      78.0000      174.000      20.9181      814.863      2690.29      8241.79      24902.3      40679.7      73870.7     -1.00000
      517.000      844.000      44.3854      654.488      2086.92      7198.95      23485.1      39494.5      74245.2     -1.00000
      937.000      998.000      47.6847      638.027      2158.44      7342.90      23432.1      38941.3      74296.0     -1.00000
      204.000      956.000      58.9701      696.256      2289.21      7659.46      24683.3      40842.9      74193.4     -1.00000
      671.000      6.00000      14.3636      801.358      2655.65      8131.77      24559.2      40347.5      73156.3     -1.00000
      213.000      751.000      55.2293      586.559      2111.33      7222.28      23083.5      38932.6      73589.9     -1.00000
      42.0000      261.000      20.5672      570.841      1876.98      6255.36      20129.8      35739.6      73157.2     -1.00000
      860.000      647.000      52.3864      681.587      2261.41      7814.08      24989.1      41540.9      72926.2     -1.00000
      985.000      56.0000      4.22635      604.805      2027.99      6533.10      20705.3      35533.8      72434.5     -1.00000
      785.000      572.000      40.1105      694.374      2274.97      7815.78      24481.7      39877.7      72797.8     -1.00000
      247.000      467.000      30.8558      557.353      1788.92      5591.57      17978.4      32262.0      72541.8     -1.00000
      226.000      436.000      17.5661      684.885      2283.61      7355.61      22974.6      38463.6      72428.0     -1.00000
      198.000      518.000      41.4389      541.583      1815.18      5992.41      19815.7      34985.7      72400.2     -1.00000
      650.000      97.0000      6.08945      596.928      1958.08      6227.99      19784.2      34320.7      72053.6     -1.00000
      704.000      185.000      24.4257      572.290      1947.67      6297.71      20289.9      34798.6      71988.0     -1.00000
      741.000      807.000      44.1452      501.866      1653.80      5519.22      18891.5      33614.4      72440.1     -1.00000
      724.000      209.000      19.4320      841.236      2671.92      8370.63      24829.5      40363.2      71936.5     -1.00000
      890.000      966.000      60.7601      480.472      1705.99      5959.00      20344.9      35604.5      72510.2     -1.00000
      948.000      551.000      33.0624      511.680      1836.06      6135.52      20943.9      35899.3      72114.1     -1.00000
      463.000      459.000      29.8532      570.702      1884.35      6155.66      20290.9      35055.8      71939.9     -1.00000
      103.000      813.000      56.5914      591.898      2030.35      6687.12      21371.4      36503.0      72153.1     -1.00000
      501.000      448.000      27.4606      749.301      2388.76      7804.34      24239.6      39818.6      71860.6     -1.00000
      953.000      511.000      33.3287      423.809      2375.17      7474.95      24430.5      40725.8      71524.4     -1.00000
      88.0000      291.000      23.9894      817.269      2839.74      8254.63      24534.8      39185.1      71249.2     -1.00000
      680.000      284.000      22.3891      618.184      2018.13      6514.31      20970.7      35622.3      71225.6     -1.00000
      55.0000      405.000      32.2379      649.552      2217.30      7040.61      22150.9      37192.3      71191.1     -1.00000
      373.000      655.000      35.1735      677.266      2201.36      7303.67      23033.4      38348.2      71343.3     -1.00000
      627.000      61.0000      11.2199      679.161      2109.10      6593.33      20822.6      35461.1      70843.5     -1.00000
      694.000      17.0000      10.2590      671.959      2247.77      6999.06      21426.9      36178.0      70702.0     -1.00000
      701.000      305.000      34.3374      577.903      1899.07      6132.20      19950.8      34384.7      70910.1     -1.00000
      417.000      843.000      50.9672      524.383      1662.36      6046.31      20512.8      35956.5      71292.9     -1.00000
      343.000      917.000      51.3862      504.189      1751.11      6182.88      20977.7      36414.9      71340.7     -1.00000
      300.000      692.000      42.6600      565.239      1871.37      6236.41      20938.7      35952.1      71001.6     -1.00000
      959.000      912.000      49.1707      633.367      2291.71      7796.05      24825.3      40221.0      71107.5     -1.00000
      448.000      584.000      38.6920      590.737      1974.53      6415.64      20548.6      35380.5      70713.5     -1.00000
      1002.00      579.000      24.7192      498.399      1644.66      5540.24      18554.4      32820.1      70698.7     -1.00000
      919.000      199.000      13.1530      670.028      2249.21      7211.97      22398.9      37106.8      70364.2     -1.00000
      208.000      503.000      46.6061      601.792      1887.54      6170.37      19819.4      34452.9      70572.9     -1.00000
      380.000      1.00000      4.94691      582.254      1919.56      6026.75      18914.5      33162.8      70059.3     -1.00000
      44.0000      760.000      43.1073      605.742      1997.50      6804.44      21852.1      37140.2      70533.1     -1.00000
      879.000      826.000      49.0403      510.446      1714.66      5736.52      19363.8      34190.8      70569.9     -1.00000
      380.000      2.00000      3.45751      550.249      1854.86      5816.41      18388.1      32617.0      69854.2     -1.00000
      411.000      683.000      44.7237      515.901      1717.33      5702.00      19137.8      33802.7      70320.0     -1.00000
      293.000      693.000      33.5745      499.153      1695.88      5610.75      18487.3      34044.9      69975.4     -1.00000
      345.000      537.000      39.6829      667.791      2232.78      7265.79      23176.6      38470.6      69808.4     -1.00000
      375.000      759.000      51.5319      502.234      1678.22      5719.73      19250.0      33819.8      69740.6     -1.00000
      838.000      1005.00      46.6166      593.984      2053.32      7180.07      22915.5      38123.6      69919.8     -1.00000
      731.000      536.000      36.3104      589.732      2054.97      6933.62      21818.1      36558.7      69123.0     -1.00000
      535.000      108.000      17.8456      550.432      1867.68      5913.47      18679.7      32693.8      68606.4     -1.00000
      226.000      7.00000      7.48401      587.862      1909.46      5954.75      18660.0      32401.6      68296.0     -1.00000
      248.000      547.000      39.6697      522.858      1642.23      5343.21      18267.7      32088.0      68576.0     -1.00000
      915.000      294.000      20.9629      627.112      2140.32      6684.80      20931.4      35319.7      68325.7     -1.00000
      32.0000      73.0000      21.2962      851.731      2739.06      8382.22      24412.3      39045.0      68145.4     -1.00000
      1003.00      716.000      39.3483      517.883      1762.20      6154.43      20369.7      35237.9      68457.8     -1.00000
      490.000      616.000      40.2442      604.477      2105.65      7207.32      23664.0      35701.8      68298.7     -1.00000
      490.000      59.0000      7.32214      593.178      1969.54      6193.70      19529.2      33517.6      67863.4     -1.00000
      514.000      532.000      37.5072      518.686      1738.45      5949.15      19491.8      33759.4      68135.8     -1.00000
      1000.00      375.000      22.3033      590.348      1949.46      6306.65      19932.8      34008.0      67986.4     -1.00000
      725.000      349.000      31.4601      531.739      1819.66      5881.05      19071.0      33139.5      67905.6     -1.00000
      37.0000      648.000      52.6871      267.814      470.730      871.901      1577.96      8981.87      67891.9     -1.00000
      343.000      527.000      48.9867      270.673      516.927      956.714      1794.51      16581.3      67631.0     -1.00000
      13.0000      316.000      6.31471      529.206      1807.25      5691.35      18251.4      31872.9      67240.9     -1.00000
      488.000      921.000      58.4377      550.232      1792.04      6167.40      19952.0      34175.6      67588.5     -1.00000
      280.000      559.000      41.5917      585.537      1943.64      6574.91      20927.1      35382.3      67306.6     -1.00000
      675.000      332.000      28.2201      625.286      2071.46      6838.78      21073.1      34952.1      66722.1     -1.00000
      947.000      376.000      36.6737      643.052      2115.80      6956.38      21785.9      35879.1      66591.1     -1.00000
      828.000      434.000      24.5442      487.242      1565.54      5105.87      17211.4      30477.5      66255.8     -1.00000
      946.000      1017.00      52.7351      373.133      1215.06      4526.85      16232.6      30672.4      66516.0     -1.00000
      117.000      568.000      48.2058      555.020      1710.63      5699.16      18699.1      32366.8      66181.9     -1.00000
      910.000      238.000      16.0180      539.354      1705.66      5462.19      17751.5      30927.0      65936.1     -1.00000
      683.000      238.000      28.9546      629.264      2179.28      7017.40      22154.0      37242.8      65816.3     -1.00000
      36.0000      188.000      18.3324      624.034      1991.19      6294.15      19751.5      33514.6      65695.5     -1.00000
      499.000      723.000      33.2791      460.674      1536.12      5220.54      18011.3      32000.8      66064.3     -1.00000
      190.000      863.000      41.4611      73.1609      134.533      198.268      328.812      2098.50      66148.7     -1.00000
      149.000      961.000      71.9259      443.170      1390.87      4938.10      17582.5      31256.4      66214.5     -1.00000
      539.000      16.0000      7.31165      654.513      2077.44      6474.34      19761.7      33258.1      65543.5     -1.00000
      577.000      843.000      40.8801      514.900      1738.33      6250.52      20356.4      34595.8      66027.9     -1.00000
      319.000      409.000      19.7708      595.285      1945.99      6318.47      20086.1      34259.7      65675.3     -1.00000
      422.000      362.000      22.3773      579.181      2025.81      6603.84      20622.3      34338.8      65563.0     -1.00000
      816.000      369.000      20.0811      519.990      1699.01      5494.76      18236.0      31919.8      65477.6     -1.00000
      113.000      234.000      25.0491      574.491      1862.62      5914.68      18696.2      32071.0      65294.0     -1.00000
      712.000      768.000      41.2642      499.613      1661.60      5761.44      18953.1      33048.6      65627.8     -1.00000
      967.000      352.000      76.6089      192.313      326.167      541.534      934.172      9371.13      65197.3     -1.00000
      784.000      648.000      28.3919      487.894      1641.52      5601.81      18552.0      32141.5      65141.4     -1.00000
      627.000      336.000      22.6189      561.533      1747.76      5699.02      18450.3      31781.1      64865.9     -1.00000
      598.000      381.000      18.5520      537.277      1727.19      5653.83      18243.7      31478.7      64816.2     -1.00000
      283.000      108.000      16.6160      539.696      1723.71      5550.86      17490.7      30518.1      64617.0     -1.00000
      1019.00      67.0000      8.25671      581.006      1926.28      6202.26      19540.8      33120.6      64542.4     -1.00000
      89.0000      653.000      46.2598      462.551      1453.18      4795.02      16501.3      29868.3      64897.9     -1.00000
      61.0000      145.000      15.1484      612.247      2027.14      6540.50      20080.5      33503.8      64434.3     -1.00000
      942.000      96.0000      16.1633      670.743      2278.96      7101.72      21657.2      35677.3      64293.2     -1.00000
      689.000      806.000      32.3025      76.8358      127.330      201.513      309.370      375.392      64723.2     -1.00000
      8.00000      1008.00   -0.0697057      431.472      1525.19      5765.73      19244.4      32588.6      64790.4     -1.00000
      549.000      831.000      45.5494      494.392      1729.24      6074.98      20061.2      34070.1      64646.9     -1.00000
      540.000      708.000      49.1520      491.428      1660.78      5525.74      18510.4      31846.1      64509.9     -1.00000
      929.000      814.000      42.4958      568.947      2032.82      6801.80      21373.5      34863.1      64426.0     -1.00000
      862.000      420.000      22.1236      432.085      1539.25      8408.41      26859.5      32825.2      64036.6     -1.00000
      748.000      136.000      23.2929      655.235      2078.22      6615.29      19973.0      33301.9      63803.0     -1.00000
      960.000      233.000      19.6185      557.383      1760.49      5872.15      18637.0      31909.7      63842.8     -1.00000
      260.000      747.000      44.2926      529.867      1615.93      5461.27      18280.4      31679.8      64145.3     -1.00000
      471.000      142.000      17.3680      690.874      2302.33      7228.33      21565.4      35332.8      63696.6     -1.00000
      296.000      150.000      20.2235      621.990      2035.09      6320.93      19370.0      32388.8      63700.5     -1.00000
      1003.00      934.000      45.7044      413.686      1420.87      5026.83      17737.6      31130.9      64102.5     -1.00000
      919.000      677.000      35.6672      530.500      1882.42      6266.09      19761.4      33348.6      63717.8     -1.00000
      895.000      34.0000      13.4935      559.108      1886.77      5971.71      18305.6      31353.9      63186.5     -1.00000
      225.000      457.000      28.0202      543.629      1643.52      5303.05      17069.3      29680.9      63402.3     -1.00000
      6.00000      746.000     -25.7394      549.932      2047.08      6941.86      21415.5      35355.0      63341.8     -1.00000
      944.000      67.0000      4.84707      492.451      1739.76      5536.23      17560.0      30208.4      62760.3     -1.00000
      317.000      537.000      26.7904      570.159      1901.95      6164.64      19709.9      32993.6      62996.7     -1.00000
      496.000      706.000      47.4580      522.657      1611.48      5359.27      17849.5      31125.1      63042.6     -1.00000
      325.000      14.0000      15.5801      671.207      2227.25      6819.07      20506.3      33713.7      62575.2     -1.00000
      421.000      545.000      31.9479      598.488      1999.05      6566.21      20479.1      33978.3      62887.1     -1.00000
      163.000      271.000      24.4877      612.949      1949.73      6255.48      19588.1      32843.7      62669.4     -1.00000
      757.000      376.000      18.4744      571.325      1840.40      5825.88      18576.9      31346.4      62697.7     -1.00000
      827.000      830.000      44.1065      530.413      1781.40      6013.31      19265.5      32577.3      62831.8     -1.00000
      777.000      92.0000      18.3572      584.908      1974.02      6141.25      19075.1      31957.8      62196.1     -1.00000
      803.000      749.000      49.4243      554.949      1805.69      5850.31      18579.6      32068.4      62580.6     -1.00000
      456.000      751.000      48.7621      506.073      1600.19      5416.99      38146.5      31462.0      62573.5     -1.00000
      47.0000      361.000      28.3427      188.032      355.824      590.410      1024.61      2275.11      62177.8     -1.00000
      737.000      496.000      38.9885      550.416      1807.38      5788.91      18772.8      31848.0      62265.7     -1.00000
      211.000      97.0000      9.99180      574.770      1909.46      6020.44      18604.7      31439.8      61930.3     -1.00000
      31.0000      122.000      18.3983      535.143      1766.50      5572.50      17511.7      30188.4      61633.6     -1.00000
      608.000      453.000      32.8791      529.607      1710.28      5618.17      17951.0      30772.5      61771.6     -1.00000
      96.0000      524.000      34.0087      549.686      1769.69      5838.34      18195.5      31114.0      61654.8     -1.00000
      921.000      464.000      24.1667      511.174      1739.42      5969.57      19040.9      32074.8      61612.1     -1.00000
      771.000      894.000      45.4444      522.214      1711.28      5853.05      18498.0      31574.3      61889.8     -1.00000
      271.000      430.000      32.7148      465.631      1377.85      4665.11      15559.7      27709.8      60375.3     -1.00000
      514.000      852.000      52.2447      470.973      1517.99      5301.56      17635.9      30520.6      61800.1     -1.00000
      906.000      47.0000      7.14159      543.409      1827.51      5773.61      18188.7      30997.1      61075.5     -1.00000
      851.000      57.0000      12.7118      360.561      1143.27      3570.55      13986.8      27537.0      60958.5     -1.00000
      369.000      243.000      21.1058      463.260      1583.38      5030.83      16482.9      28750.2      61013.3     -1.00000
      764.000      394.000      35.9052      610.245      1958.02      6359.29      19561.5      32418.2      61020.4     -1.00000
      308.000      992.000      57.8947      408.502      1222.45      4164.90      14777.1      26558.5      58944.8     -1.00000
      956.000      9.00000      4.51586      502.733      1679.10      5440.03      17024.1      29568.6      60563.8     -1.00000
      460.000      592.000      32.9736      482.222      1499.58      4928.95      16590.8      29126.4      60925.3     -1.00000
      819.000      249.000      14.5270      471.531      1609.30      5347.87      17469.7      30067.9      60650.9     -1.00000
      434.000      760.000      39.9488      76.6067      137.121      218.542      354.696      397.295      60952.5     -1.00000
      288.000      310.000      15.4984      525.920      1807.45      5937.59      18470.3      31282.2      60571.1     -1.00000
      674.000      433.000      20.0644      423.182      1448.84      4867.93      15906.0      28186.4      60489.2     -1.00000
      343.000      525.000      32.6511      64.2586      143.124      220.559      300.635      12427.7      60326.4     -1.00000
      426.000      873.000      29.7700      500.913      1603.23      5580.10      18388.4      31241.4      60517.9     -1.00000
      520.000      5.00000      9.74881      515.135      1716.52      5412.31      17047.4      29223.1      59778.8     -1.00000
      38.0000      138.000      13.6907      530.406      1708.24      5680.16      17879.2      30356.1      59842.6     -1.00000
      805.000      72.0000      8.56373      573.651      1839.63      5730.26      17605.3      29798.9      59781.5     -1.00000
      841.000      215.000      15.1657      529.453      1728.04      5439.43      17200.4      29664.4      59872.2     -1.00000
      151.000      978.000      56.7487      466.714      900.231      1662.53      2631.12      11806.5      60317.1     -1.00000
      726.000      603.000      50.6002      513.854      1749.80      5736.89      18109.5      30786.0      60041.8     -1.00000
      355.000      891.000      55.1959      462.097      1538.56      4987.83      17247.8      29385.2      60129.9     -1.00000
      285.000      70.0000      7.24115      489.875      1627.81      6551.14      16344.1      28405.7      59600.8     -1.00000
      36.0000      611.000      38.4811      466.661      1460.35      5006.28      16523.6      29126.4      59935.6     -1.00000
      630.000      606.000      37.9798      449.786      1511.96      5214.34      17360.3      29785.3      59772.9     -1.00000
      851.000      931.000      44.1587      428.020      1441.56      4857.60      16169.2      28679.1      59924.5     -1.00000
      776.000      526.000      38.3603      274.460      513.432      865.844      1528.84      12067.0      59540.7     -1.00000
      618.000      611.000      39.9440      501.843      1548.45      5240.59      17140.6      29706.9      59550.4     -1.00000
      531.000      500.000      24.9115      486.192      1569.05      5131.72      16746.4      28986.4      59438.7     -1.00000
      686.000      379.000      25.9397      466.975      1540.70      5051.78      16411.2      28424.0      59358.1     -1.00000
      493.000      627.000      39.7622      490.697      1509.35      5062.75      16529.4      29065.5      59441.1     -1.00000
      873.000      466.000      21.1811      451.888      1441.31      5020.29      16640.0      29076.0      59287.6     -1.00000
      836.000      68.0000      6.17746      503.938      1645.66      5197.80      16545.4      28338.9      59021.2     -1.00000
      434.000      762.000      40.5374      196.927      402.769      718.784      1748.07      6821.94      59441.8     -1.00000
      453.000      511.000      27.7581      472.382      1468.83      5010.38      16664.6      29106.8      59233.9     -1.00000
      705.000      214.000      14.5819      468.624      1534.80      4881.64      15653.5      27349.4      58814.9     -1.00000
      185.000      809.000      44.8368      466.076      1339.78      4102.13      10200.7      27707.9      59185.1     -1.00000
      132.000      518.000      33.4647      520.307      1529.59      4981.15      16000.1      27784.0      58923.0     -1.00000
      904.000      7.00000      10.0313      512.208      1818.83      5713.31      17532.1      29686.7      58315.2     -1.00000
      566.000      807.000      53.5503      495.535      1641.83      5490.90      17825.4      30487.9      58797.0     -1.00000
      63.0000      21.0000      8.33306      585.587      1887.06      5936.83      17919.0      30117.5      58295.5     -1.00000
      235.000      58.0000      8.38546      580.145      1847.11      5767.86      17658.7      29950.7      58266.9     -1.00000
      160.000      332.000      25.0783      509.555      1697.73      5372.25      17017.9      29322.5      58313.6     -1.00000
      347.000      444.000      21.1255      439.849      1578.51      5201.15      17005.3      29076.5      58347.4     -1.00000
      533.000      367.000      30.1222      505.919      1621.66      5257.23      17188.4      29264.4      58296.8     -1.00000
      98.0000      86.0000     -4.34805      35.9880      94.5516      171.187      261.347      7750.38      58039.4     -1.00000
      575.000      337.000      21.8651      449.417      1422.83      4858.32      16125.2      28253.4      58161.8     -1.00000
      331.000      756.000      46.0441      500.921      1669.81      5569.72      18338.2      30735.8      58339.7     -1.00000
      875.000      570.000      30.4098      477.665      1503.35      4861.19      15877.6      27918.4      58153.1     -1.00000
      76.0000      699.000      45.1667      459.065      1468.32      4917.90      16429.0      28338.1      58166.9     -1.00000
      267.000      220.000      18.5485      516.385      1735.47      5601.98      17361.1      29521.7      57831.8     -1.00000
      729.000      475.000      37.5194      825.561      2847.07      9485.40      1993.92      3281.50      57918.5     -1.00000
      244.000      154.000      11.0832      547.182      1718.15      5323.43      16729.6      28734.5      57631.7     -1.00000
      45.0000      536.000      24.4428      545.915      1734.54      5619.56      17674.6      29733.8      57842.3     -1.00000
      732.000      261.000      16.7197      478.408      1527.32      4879.22      15521.7      27099.5      57628.8     -1.00000
      698.000      968.000      68.0385      474.718      1455.46      5202.24      17203.0      29874.5      58063.2     -1.00000
      830.000      978.000      62.6554      529.309      1573.27      5375.81      18032.8      30573.0      57796.3     -1.00000
      500.000      143.000      18.1888      479.700      1556.30      4850.89      15451.8      26946.2      57265.9     -1.00000
      269.000      311.000      35.1304      553.605      1730.40      5540.12      17461.9      29542.7      57248.8     -1.00000
      815.000      457.000      30.9335      406.675      1425.95      4784.79      15800.2      27626.4      57251.7     -1.00000
      278.000      968.000      56.8544      364.295      1210.21      4272.52      15147.5      26855.5      57550.7     -1.00000
      618.000      917.000      52.6318      403.051      1284.40      4362.51      15035.1      26899.5      57355.5     -1.00000
      108.000      548.000      35.1666      534.094      1663.74      5420.09      17200.3      29003.5      57086.9     -1.00000
      796.000      451.000      42.5989      416.872      1460.60      4835.20      15594.5      27335.7      56972.5     -1.00000
      397.000      138.000      68.2098      213.002      380.074      864.269      16011.2      27926.4      56772.0     -1.00000
      641.000      90.0000      11.3283      461.288      1498.07      4741.15      15080.7      26367.4      56678.6     -1.00000
      147.000      776.000      55.4335      558.835      1816.15      5940.83      19796.4      33743.1      57031.9     -1.00000
      1000.00      228.000      23.0944      493.463      1701.84      5461.97      17505.7      29411.5      56647.1     -1.00000
      876.000      104.000      1.50665      551.612      1862.15      5754.60      17697.5      29697.0      56566.9     -1.00000
      363.000      225.000      13.4273      507.424      1483.35      4728.61      15129.3      26350.5      56452.0     -1.00000
      452.000      407.000      29.0452      449.714      1529.88      5002.07      16068.8      27746.4      56547.7     -1.00000
      1023.00      794.000      64.4531      531.790      1593.94      5149.95      16615.8      28679.7      56559.9     -1.00000
      871.000      177.000      14.7092      468.947      1562.95      4992.41      15773.8      26963.9      56164.4     -1.00000
      651.000      116.000      8.43245      604.514      2012.68      6224.64      18545.7      30341.3      56030.3     -1.00000
      311.000      421.000      33.4357      449.062      1513.46      5091.77      16460.4      28198.5      56173.1     -1.00000
      798.000      984.000      53.1550      382.376      1303.17      4578.93      15528.7      27448.1      56480.1     -1.00000
      548.000      186.000      29.7215      567.871      1803.73      5459.22      16978.7      28492.0      55918.2     -1.00000
      926.000      560.000      26.4902      523.707      1730.61      5739.95      18116.1      30252.8      55941.4     -1.00000
      340.000      14.0000      5.56811      596.008      1856.70      5786.05      17652.2      29370.8      55447.6     -1.00000
      417.000      297.000      33.6102      511.078      1549.80      4914.04      15784.2      27413.2      55603.8     -1.00000
      32.0000      223.000      25.0997      566.078      2041.69      6159.60      19161.5      28765.3      55545.7     -1.00000
      142.000      570.000      48.4710      424.605      1284.70      4345.44      14838.3      26046.9      55710.6     -1.00000
      232.000      737.000      54.9710      457.258      1394.32      4710.08      16063.0      27753.2      55770.4     -1.00000
      594.000      443.000      28.0602      434.563      1518.83      5055.06      16218.4      27974.1      55541.1     -1.00000
      2.00000      995.000     -143.068      215.861      1137.14      4477.72      16060.5      28016.3      55830.6     -1.00000
      457.000      161.000      11.5176      510.411      1761.58      5603.13      17126.5      28763.2      55153.9     -1.00000
      582.000      634.000      34.0112      493.105      1555.92      5319.25      17066.6      28756.4      55418.0     -1.00000
      433.000      740.000      47.8814      489.581      1552.76      4986.97      16309.1      28002.9      55406.9     -1.00000
      341.000      130.000      18.5756      500.123      1626.41      5322.73      16462.9      27984.4      54984.6     -1.00000
      44.0000      957.000      45.3857      435.634      1432.05      5008.04      16546.4      28526.6      55438.3     -1.00000
      459.000      237.000      22.2571      490.109      1496.84      4701.65      15393.9      26678.1      55004.8     -1.00000
      265.000      973.000      52.9225      402.267      1165.98      4017.01      14352.2      25812.2      55371.0     -1.00000
      521.000      69.0000      7.78728      544.867      1767.62      5549.24      16979.7      28431.2      54784.4     -1.00000
      169.000      475.000      28.0781      437.766      1390.65      4471.33      14632.7      25631.3      54878.7     -1.00000
      718.000      59.0000      5.49909      556.313      1775.75      5542.67      16869.4      28446.8      54559.9     -1.00000
      915.000      498.000      24.5752      499.293      1560.95      5105.89      16472.6      28044.9      54797.9     -1.00000
      633.000      283.000      21.4621      424.333      1414.43      4474.46      14561.1      25448.7      54668.0     -1.00000
      301.000      102.000      18.3721      486.648      1510.88      4631.92      14678.2      25654.9      54544.3     -1.00000
      774.000      5.00000      8.50395      418.539      1431.92      4554.55      14536.2      25345.9      54417.7     -1.00000
      546.000      746.000      33.4411      50.4452      108.861      195.593      297.317      347.649      54747.8     -1.00000
      366.000      691.000      42.9633      459.582      1433.24      4934.38      16020.3      27427.0      54692.1     -1.00000
      213.000      193.000      22.4200      488.959      1511.15      4832.45      15435.9      26667.9      54334.7     -1.00000
      476.000      420.000      33.4638      504.797      1644.40      5148.95      16252.0      27835.4      54462.0     -1.00000
      189.000      628.000      41.5015      527.851      1699.64      5540.23      17914.5      30030.3      54488.1     -1.00000
      486.000      402.000      47.7444      475.688      1483.12      4943.29      16040.9      27408.7      54340.9     -1.00000
      751.000      60.0000      9.49510      493.468      1615.33      5190.32      16069.5      27324.8      54055.6     -1.00000
      965.000      19.0000    -0.467320      451.873      1498.86      4792.29      15190.9      26430.5      53967.9     -1.00000
      858.000      936.000      38.9931      336.638      1074.06      3909.42      14099.8      25611.4      54441.0     -1.00000
      813.000      237.000      16.1315      522.338      1707.65      5489.74      16942.9      28249.4      53978.8     -1.00000
      397.000      341.000      86.0468      578.146      1619.98      5148.12      16167.3      27431.0      54036.6     -1.00000
      349.000      308.000      34.4462      507.034      1589.11      5076.09      16225.1      27264.6      54010.0     -1.00000
      150.000      401.000      32.6567      925.696      3057.46      9138.41      23842.0      34869.5      54038.1     -1.00000
      527.000      84.0000      14.0498      539.938      1691.98      5325.20      16320.6      27468.8      53736.0     -1.00000
      197.000      216.000      25.0063      444.607      1404.02      4515.28      14432.5      25232.4      53797.5     -1.00000
      983.000      709.000      29.2778      391.534      1357.39      4714.21      16016.7      27417.5      54075.1     -1.00000
      656.000      431.000      29.7496      516.692      1597.28      5058.25      15942.5      27211.1      53872.3     -1.00000
      766.000      378.000      20.1987      478.678      1594.51      5135.05      16134.3      27571.9      53828.1     -1.00000
      1022.00      681.000      30.6826      414.877      1349.22      4785.52      15860.9      27059.3      53946.3     -1.00000
      315.000      861.000      38.6468      416.994      1379.52      4686.65      15920.4      27195.5      53999.4     -1.00000
      202.000      776.000      43.9555      424.624      1361.18      4524.17      15108.5      26378.6      53890.2     -1.00000
      191.000      207.000      26.6809      523.315      1593.89      5106.62      16156.5      27118.7      53517.1     -1.00000
      898.000      710.000      37.3040      410.135      1338.01      4118.55      13948.8      24830.5      53604.1     -1.00000
      587.000      104.000      12.3724      419.931      1717.79      4603.58      14483.0      29011.7      53227.9     -1.00000
      135.000      527.000      44.2551      435.006      1413.38      4597.69      14940.5      25970.5      53360.0     -1.00000
      476.000      545.000      50.2018      484.326      1456.05      4630.79      15303.0      26577.1      53315.2     -1.00000
      64.0000      357.000      39.5162      496.345      1582.66      5164.80      16390.2      27522.8      53124.8     -1.00000
      132.000      477.000      34.5543      493.977      1642.64      5366.28      16862.4      27974.7      53071.3     -1.00000
      533.000      446.000      29.0313      439.437      1363.02      4343.24      14530.6      25210.7      53040.5     -1.00000
      265.000      541.000      37.9289      500.971      1514.84      4942.28      16413.7      26140.9      53069.8     -1.00000
      154.000      877.000      51.0952      419.595      1274.68      4328.17      14613.1      25824.8      53227.4     -1.00000
      544.000      257.000      12.6023      82.5461      187.246      363.388      667.778      941.822      52728.9     -1.00000
      615.000      644.000      39.5860      417.329      1330.19      4603.43      15104.9      25955.9      52869.6     -1.00000
      437.000      816.000      50.4783      382.411      1117.24      3678.87      13446.7      23998.1      52935.9     -1.00000
      232.000      51.0000      9.49829      451.671      1429.81      4460.89      14369.5      24919.8      52381.8     -1.00000
      836.000      954.000      44.7450      398.689      1355.36      4615.51      15453.8      26520.4      52865.2     -1.00000
      360.000      948.000      53.5986      386.857      1323.44      4467.16      14979.6      25957.0      52793.1     -1.00000
      674.000      317.000      17.3269      451.830      1517.61      4880.14      15555.8      26343.7      52309.4     -1.00000
      745.000      379.000      25.2185      472.370      1512.36      4871.28      15475.7      26225.3      52177.0     -1.00000
      308.000      551.000      40.4555      511.834      1679.31      5415.11      16856.5      28043.8      52226.1     -1.00000
      675.000      951.000      52.6869      411.223      1287.98      4275.91      14463.7      25156.7      52118.3     -1.00000
      791.000      818.000      65.6188      400.325      1264.40      4318.08      14996.0      26027.5      52040.9     -1.00000
      939.000      99.0000      7.12955      465.820      1477.28      4698.39      14745.7      25132.7      51440.0     -1.00000
      362.000      982.000      45.0891      298.299      1603.22      2277.69      18567.8      14056.7      51884.1     -1.00000
      898.000      947.000      52.3073      55.2530      119.983      195.131      348.058      366.916      51678.0     -1.00000
      421.000      945.000      54.0749      386.017      1205.56      4062.75      13955.0      24718.4      51560.6     -1.00000
      367.000      595.000      43.5686      401.077      1234.07      4054.17      13282.0      23294.6      50463.8     -1.00000
      771.000      550.000      60.8272      515.544      1571.17      5173.02      15972.5      26622.5      51211.3     -1.00000
      12.0000      187.000      3.22359      371.676      1348.09      4333.66      13732.4      24119.7      50980.2     -1.00000
      58.0000      90.0000      12.4259      499.623      1602.92      4967.40      15219.1      25867.9      50796.1     -1.00000
      401.000      599.000      47.7247      409.823      1434.26      4761.49      15136.2      25980.5      51070.2     -1.00000
      674.000      514.000      39.3734      420.712      1249.93      4217.31      13918.5      24276.8      50981.5     -1.00000
      894.000      182.000      21.8244      428.400      1490.53      4633.72      14962.8      25193.8      50794.9     -1.00000
      527.000      645.000      41.6417      417.610      1264.37      4195.46      14018.4      24554.9      51006.5     -1.00000
      929.000      734.000      37.3619      364.323      1139.37      3939.04      13304.3      23587.6      51016.5     -1.00000
      427.000      580.000      36.0330      384.375      1226.35      4021.49      13560.4      23973.8      50919.8     -1.00000
      684.000      91.0000      7.58872      483.156      1557.56      4891.51      15138.5      25587.2      50650.0     -1.00000
      273.000      252.000      15.2653      467.041      1452.39      4722.44      14838.5      25270.0      50694.5     -1.00000
      658.000      835.000      44.3700      403.229      1206.46      4175.34      14324.8      25104.4      50878.1     -1.00000
      257.000      353.000      26.0273      424.569      1376.91      4383.71      14147.9      24724.2      50590.8     -1.00000
      827.000      817.000      55.1709      370.180      1169.91      3886.61      13204.5      23338.4      50839.7     -1.00000
      219.000      272.000      25.7368      472.695      1580.25      4974.80      15430.7      26191.8      50482.6     -1.00000
      911.000      108.000      3.55168      404.828      1353.61      4377.66      13934.9      24204.7      50352.5     -1.00000
      302.000      331.000      23.0377      434.237      1349.08      4322.25      13991.7      24253.6      50467.7     -1.00000
      102.000      655.000      37.6252      374.045      1290.83      4220.94      13929.1      24543.5      50636.0     -1.00000
      167.000      41.0000      17.5472      502.017      1593.44      4732.35      14650.4      24989.0      50297.2     -1.00000
      754.000      434.000      53.8807      439.563      1426.82      4592.03      14550.8      24846.2      50479.3     -1.00000
      177.000      958.000      57.2048      521.171      1662.02      5787.29      17978.1      32720.1      50706.1     -1.00000
      565.000      263.000      15.0178      58.9607      139.594      234.420      352.773      389.376      50103.9     -1.00000
      139.000      366.000      36.9140      416.225      1319.99      4232.85      13623.9      23805.0      50135.2     -1.00000
      2.00000      414.000     -156.293      197.766      1107.67      4106.53      13782.8      24062.1      50120.5     -1.00000
      232.000      805.000      42.5987      414.764      1351.70      4542.76      14886.4      25548.5      50307.1     -1.00000
      394.000      607.000      27.9722      400.825      1301.53      4245.03      13661.7      23640.1      50170.8     -1.00000
      576.000      165.000      12.9419      428.164      1314.64      4176.95      13508.1      23542.1      49866.9     -1.00000
      37.0000      59.0000      9.58387      409.590      1353.77      4268.47      13614.8      23731.8      49801.2     -1.00000
      317.000      36.0000      8.34031      465.901      1651.14      4633.07      14583.0      24618.6      49736.9     -1.00000
      453.000      128.000      11.8285      456.906      1482.44      4618.38      14442.5      24849.5      49773.8     -1.00000
      210.000      220.000      23.7551      491.062      1579.46      4878.51      14912.0      25167.2      49686.0     -1.00000
      779.000      576.000      30.9934      396.282      1374.63      4729.36      15407.2      25985.8      49835.3     -1.00000
      375.000      676.000      52.4840      368.318      1116.28      3630.11      12966.1      22633.5      49879.6     -1.00000
      665.000      862.000      50.2793      369.794      1108.18      3853.46      13090.5      23333.1      49891.7     -1.00000
      944.000      744.000      47.6319      472.927      1420.56      4566.42      14685.6      25284.4      49823.9     -1.00000
      50.0000      615.000      74.2591      467.063      829.377      1356.10      3522.15      18351.2      49706.1     -1.00000
      957.000      176.000      15.2634      428.852      1434.92      4556.11      14591.0      24814.7      49301.4     -1.00000
      392.000      1015.00      57.4006      382.978      1115.84      3839.44      13631.6      23891.4      49661.3     -1.00000
      240.000      387.000      32.0125      476.547      1398.93      4591.12      14206.9      24586.5      49250.9     -1.00000
      834.000      758.000      40.3336      349.950      1100.04      3844.19      13246.3      23483.4      49430.3     -1.00000
      253.000      463.000      31.6162      402.843      1347.55      4254.00      13923.0      24056.3      49160.4     -1.00000
      920.000      777.000      41.7248      375.358      1205.51      3999.91      13269.6      23527.1      49293.1     -1.00000
      548.000      884.000      51.2732      381.660      1253.19      4120.63      13844.5      23976.9      49289.0     -1.00000
      596.000      412.000      27.8483      547.636      1683.35      5265.24      16142.6      26480.1      49034.1     -1.00000
      635.000      104.000      11.0685      429.700      1410.62      4495.65      14072.2      24168.7      48863.3     -1.00000
      804.000      657.000      153.764      318.412      478.137      634.622      1144.34      14219.9      125446.      6.00000
      37.0000      544.000      28.3203      386.406      1274.46      4501.28      13458.5      24338.7      48987.3     -1.00000
      753.000      91.0000      7.28033      417.280      1404.20      4423.03      13885.8      23950.1      48561.4     -1.00000
      57.0000      35.0000      12.9549      476.080      1432.16      4378.20      13594.5      23620.8      48299.3     -1.00000
      171.000      712.000      44.2725      385.663      1274.31      4284.62      14046.5      24326.6      48566.0     -1.00000
      642.000      131.000      18.0263      438.650      1401.53      4422.37      13834.4      23767.0      48253.9     -1.00000
      876.000      714.000      37.0575      401.697      1183.65      3975.25      13555.9      23699.0      48422.7     -1.00000
      459.000      714.000      55.6554      401.632      1204.60      3903.65      13033.6      22814.5      48381.6     -1.00000
      538.000      183.000      33.3062      490.407      1487.65      4560.60      14073.2      24013.4      48068.1     -1.00000
      307.000      977.000      59.9609      403.376      1259.60      4271.60      14552.9      24741.7      48470.9     -1.00000
      776.000      524.000      25.1438      81.2192      140.919      244.617      426.819      8085.94      48154.4     -1.00000
      817.000      387.000      34.1811      451.224      1420.81      4626.59      14555.9      24563.4      48051.4     -1.00000
      782.000      980.000      50.2972      357.836      1200.12      4094.68      13557.5      23726.7      48300.2     -1.00000
      532.000      774.000      42.7184      354.068      1161.18      3891.58      13364.5      23478.4      48092.2     -1.00000
      403.000      6.00000      8.87645      425.841      1377.12      4392.34      13782.6      23399.6      47584.4     -1.00000
      283.000      341.000      34.6684      428.958      1353.88      4267.29      13478.6      23314.8      47716.8     -1.00000
      505.000      744.000      44.5206      365.306      1208.28      3960.23      13283.6      23286.1      47867.9     -1.00000
      91.0000      134.000      8.74086      399.884      1298.64      4007.50      12836.7      22229.0      47421.0     -1.00000
      1020.00      667.000      26.7442      310.014      982.546      3407.29      12053.5      21771.9      47685.3     -1.00000
      659.000      1008.00      45.7001      404.516      1289.08      4333.01      14557.1      24870.9      47852.5     -1.00000
      143.000      412.000      20.9228      405.987      1300.91      4258.14      13368.3      23268.1      47545.0     -1.00000
      468.000      517.000      29.2843      416.683      1343.08      4270.92      13458.5      23462.3      47530.1     -1.00000
      240.000      881.000      40.5184      386.343      1222.47      4064.32      13564.0      23525.3      47610.8     -1.00000
      440.000      155.000      10.7423      489.702      1581.02      4925.33      14785.8      24651.6      47229.0     -1.00000
      409.000      66.0000      9.37452      402.159      1431.16      4102.03      13511.8      23636.8      47147.6     -1.00000
      777.000      67.0000      8.71010      403.191      1367.05      4407.66      12857.7      22314.1      47451.6     -1.00000
      578.000      689.000      45.6251      380.634      1233.16      3950.25      12932.0      22710.2      47363.9     -1.00000
      836.000      126.000      14.9258      404.878      1332.81      4166.37      13236.4      22873.5      46972.0     -1.00000
      783.000      617.000      32.6177      331.796      1236.81      4261.05      12240.2      21430.5      47061.6     -1.00000
      711.000      653.000      47.4080      505.990      1492.32      4894.24      15166.5      25225.1      47116.0     -1.00000
      456.000      356.000      27.2439      401.072      1243.74      4072.09      12954.1      22714.6      46959.8     -1.00000
      22.0000      21.0000      1.65515      518.764      1627.01      5056.37      15046.9      24766.0      46785.8     -1.00000
      374.000      251.000      21.0905      402.067      1223.57      3904.03      12719.4      22349.0      46858.3     -1.00000
      806.000      201.000      18.8284      477.410      1593.44      4996.31      15114.7      24967.0      46807.2     -1.00000
      643.000      399.000      15.7311      370.666      1266.58      4128.90      13536.2      23169.3      46819.8     -1.00000
      831.000      533.000      43.1905      420.877      1508.76      5543.89      15865.3      25349.1      46887.0     -1.00000
      583.000      974.000      54.0081      378.982      1166.78      3961.00      13295.2      23356.2      47103.1     -1.00000
      346.000      588.000      33.9664      425.345      1274.12      4191.74      13761.3      23502.5      46868.5     -1.00000
      718.000      886.000      50.7886      373.589      1110.74      3694.20      12957.2      22457.8      46958.9     -1.00000
      897.000      1003.00      52.9480      338.117      1037.67      3396.92      12296.8      22059.3      46936.5     -1.00000
      678.000      265.000      15.6902      394.266      1357.70      4469.13      14028.8      23782.9      46540.7     -1.00000
      910.000      744.000      42.1628      363.733      1156.74      3892.39      13112.9      22828.4      46703.3     -1.00000
      915.000      216.000      14.8584      408.815      1399.33      4270.61      13556.5      23056.1      46397.1     -1.00000
      440.000      705.000      50.9190      340.901      1107.54      3674.43      12652.4      22518.3      46640.8     -1.00000
      451.000      1001.00      51.5179      337.416      958.152      3401.56      11937.8      21563.2      46767.1     -1.00000
      177.000      830.000      53.0963      376.211      1159.50      3865.65      12894.9      22664.6      46667.4     -1.00000
      280.000      814.000      45.5954      342.572      1028.65      3546.01      12424.5      22122.8      46640.6     -1.00000
      630.000      790.000      44.2806      394.076      1203.62      4235.98      13775.1      23748.1      46596.9     -1.00000
      1015.00      247.000      15.5204      335.169      1098.01      3642.43      11888.5      21121.4      45727.6     -1.00000
      70.0000      304.000      19.4859      434.082      1338.33      4258.34      13449.6      23016.0      46317.0     -1.00000
      737.000      582.000      32.1592      396.190      1254.96      3969.71      12907.6      22644.8      46452.9     -1.00000
      193.000      867.000      46.0051      320.267      1138.13      3775.70      12911.6      22617.1      46573.1     -1.00000
      178.000      989.000      46.5186      332.230      978.556      3220.66      11189.1      20308.7      44879.8     -1.00000
      934.000      646.000      25.8962      334.147      1045.30      3288.77      11231.1      20517.1      44962.9     -1.00000
      342.000      993.000      55.6571      340.500      970.104      3299.93      11353.2      20517.4      45048.7     -1.00000
      699.000      893.000      46.1542      386.132      1272.39      4288.49      13989.7      23857.8      46376.2     -1.00000
      866.000      299.000      23.7575      381.026      1207.23      3846.91      12605.8      21794.4      45954.8     -1.00000
      685.000      433.000      28.7190      390.930      1299.37      4169.61      13517.7      23290.6      46019.9     -1.00000
      691.000      97.0000      20.0793      426.001      1327.61      4235.33      13188.9      22403.4      45739.6     -1.00000
      807.000      472.000      29.0214      389.781      1256.03      4163.58      13504.0      22906.8      45797.9     -1.00000
      805.000      354.000      14.4298      388.439      1290.74      3996.40      12957.8      22157.3      45655.0     -1.00000
      373.000      928.000      58.3791      411.368      1286.06      4284.93      13889.9      23920.0      45897.7     -1.00000
      274.000      343.000      39.8293      509.980      1484.26      4730.41      14695.4      24511.9      45611.0     -1.00000
      132.000      959.000      48.3794      390.247      1221.52      3806.47      12544.2      22158.1      45893.7     -1.00000
      715.000      409.000      35.1985      392.705      1270.39      4099.57      13134.1      22753.9      45615.2     -1.00000
      808.000      878.000      43.9582      348.999      1091.12      3925.36      13181.5      22723.4      45833.7     -1.00000
      707.000      98.0000      13.6493      401.390      1324.63      4132.57      13032.9      22507.9      45425.4     -1.00000
      424.000      922.000      47.0301      355.683      1070.96      3651.72      12396.5      21950.7      45823.9     -1.00000
      294.000      932.000      52.0700      375.140      1155.54      3929.44      12973.3      22569.7      45795.2     -1.00000
      755.000      69.0000      13.7472      442.522      1372.70      4344.04      13403.7      22805.8      45230.3     -1.00000
      735.000      970.000      47.0446      368.835      1113.22      3846.24      13182.8      22980.1      45639.7     -1.00000
      340.000      293.000      29.1278      431.623      1267.73      4010.76      12645.3      21932.2      45306.8     -1.00000
      940.000      819.000      38.1723      347.695      1163.56      3936.00      13091.1      22424.5      45560.0     -1.00000
      892.000      513.000      34.4916      435.940      1426.59      4467.42      14052.5      23655.4      45393.1     -1.00000
      470.000      291.000      23.9894      391.093      1279.47      4008.37      12750.0      22076.8      45238.9     -1.00000
      188.000      370.000      25.6956      417.393      1320.37      4202.09      13333.9      22797.7      45233.9     -1.00000
      854.000      265.000      17.2864      367.809      1133.95      3616.37      11968.1      21114.2      45148.8     -1.00000
      665.000      677.000      37.8939      359.573      1143.51      3747.80      12602.4      21808.8      45288.0     -1.00000
      589.000      456.000      30.5003      398.124      1200.55      3884.00      12286.8      21639.8      45172.8     -1.00000
      579.000      981.000      52.5376      318.024      935.500      3195.96      11507.8      20718.2      45423.0     -1.00000
      831.000      303.000      17.7126      375.406      1202.55      3829.76      12475.5      21595.5      44966.8     -1.00000
      334.000      25.0000      6.47266      428.874      1348.56      4231.28      13216.6      22406.8      44804.5     -1.00000
      239.000      362.000      23.2591      346.254      1181.12      3766.00      12224.9      21262.7      44927.2     -1.00000
      89.0000      698.000      34.8827      377.106      1213.64      3769.28      12316.2      21483.2      45067.9     -1.00000
      1004.00      434.000      19.0775      377.872      1288.25      4073.62      13172.7      22728.0      44902.6     -1.00000
      831.000      490.000      34.6105      377.140      1150.51      3807.58      12425.5      21851.9      44859.6     -1.00000
      169.000      493.000      26.8274      443.679      1385.57      4366.00      13458.6      22859.8      44813.1     -1.00000
      832.000      980.000      57.9812      311.666      952.713      3138.50      11371.1      20570.7      45039.6     -1.00000
      673.000      846.000      46.3343      285.754      936.675      3069.93      10664.1      19371.9      43063.6     -1.00000
      895.000      420.000      27.2581      346.266      1149.95      3675.52      12193.8      21171.6      44639.4     -1.00000
      168.000      869.000      54.5110      362.254      1123.11      3603.14      11984.6      21038.2      44720.1     -1.00000
      57.0000      857.000      40.0980      345.594      1040.31      3460.39      11639.0      20756.9      44633.5     -1.00000
      459.000      984.000      60.6767      316.670      1031.57      3245.49      11621.2      20737.2      44592.0     -1.00000
      702.000      109.000      11.2544      384.398      1251.98      3947.38      12370.3      21509.6      44153.7     -1.00000
      662.000      1013.00      39.6243      354.120      1087.78      3665.71      12533.5      21842.2      44567.0     -1.00000
      127.000      368.000      28.3037      444.348      1329.87      4076.82      12779.7      21932.5      44210.9     -1.00000
      881.000      92.0000      9.38604      375.997      1194.75      3849.27      12371.7      21530.0      44020.6     -1.00000
      779.000      82.0000      6.76437      349.505      1169.81      3739.57      11938.9      20664.8      43965.9     -1.00000
      1012.00      20.0000      12.9143      373.822      1213.61      3714.21      12161.9      21272.4      43932.2     -1.00000
      975.000      865.000      35.5748      70.9442      115.635      177.794      251.246      312.885      44301.5     -1.00000
      391.000      535.000      28.4177      211.883      605.329      1686.90      5292.17      9083.61      44083.5     -1.00000
      353.000      787.000      48.2414      368.528      1190.71      3934.32      12850.9      22069.5      44152.8     -1.00000
      582.000      787.000      53.7428      360.566      1103.55      3598.90      11824.0      21040.5      44112.2     -1.00000
      52.0000      527.000      29.9948      359.302      1083.74      3560.32      11876.0      21146.6      43939.4     -1.00000
      297.000      838.000      66.2131      369.139      1065.72      3556.95      12048.6      21369.6      44007.9     -1.00000
      363.000      721.000      63.2099      373.937      1118.71      3612.13      11929.8      20873.5      43943.0     -1.00000
      357.000      712.000      48.0761      341.349      974.682      3177.12      10783.9      19348.8      42572.1     -1.00000
      97.0000      550.000      34.9967      396.493      1193.13      3776.37      12143.9      20995.4      43774.2     -1.00000
      47.0000      551.000      39.3930      366.076      1161.98      3785.88      12225.3      21235.3      43731.2     -1.00000
      240.000      264.000      12.7571      361.791      1189.11      3674.26      11801.2      20442.3      43506.8     -1.00000
      716.000      563.000      33.8047      362.380      1093.31      3525.47      11786.2      20847.8      43558.4     -1.00000
      291.000      273.000      18.9649      369.216      1180.34      3651.67      11814.5      20600.9      43376.0     -1.00000
      239.000      141.000      12.8416      402.813      1292.11      4113.44      12702.3      21756.8      43220.9     -1.00000
      187.000      340.000      29.1946      377.165      1191.70      3769.72      11425.7      19660.8      43273.2     -1.00000
      1002.00      443.000      22.0456      372.587      1136.28      3605.09      11712.4      20661.6      43308.1     -1.00000
      1.00000      191.000     -232.180      172.498      1121.09      4089.01      12997.7      22121.0      43124.8     -1.00000
      857.000      398.000      21.1093      365.385      1220.60      3925.68      12618.5      21807.4      43141.9     -1.00000
      504.000      22.0000      14.0596      363.024      1155.11      3654.72      11499.1      20079.7      42988.5     -1.00000
      972.000      900.000      50.8560      307.365      966.551      3235.17      11193.5      19825.3      43358.7     -1.00000
      197.000      559.000      42.0931      359.995      1176.44      3708.22      11949.9      21258.5      43138.6     -1.00000
      569.000      491.000      40.9962      370.587      1065.57      3314.03      11020.8      19535.6      42392.8     -1.00000
      26.0000      620.000      31.0340      334.926      956.306      2967.30      10409.5      18672.1      41432.0     -1.00000
      397.000      136.000      2.70843      44.0623      115.043      204.995      10369.0      20516.1      42700.5     -1.00000
      549.000      47.0000      11.8355      382.406      1246.02      3969.04      12221.9      20940.3      42655.6     -1.00000
      12.0000      288.000      8.05040      349.980      1167.90      3695.33      11858.7      20675.0      42601.7     -1.00000
      601.000      932.000      49.4488      336.240      1049.63      3542.14      11792.3      20692.4      42867.8     -1.00000
      795.000      170.000      22.9095      359.861      1123.72      3506.44      11175.3      19584.2      42089.4     -1.00000
      124.000      976.000      53.2479      311.283      927.415      3105.43      11049.6      19694.9      42811.8     -1.00000
      221.000      117.000      17.9015      416.701      1372.86      4130.66      12774.2      21416.0      42345.9     -1.00000
      1002.00      505.000      24.9850      359.255      1113.78      3661.93      11857.7      20688.0      42498.1     -1.00000
      740.000      488.000      22.0064      403.692      1222.18      3869.47      12374.6      21452.5      42487.1     -1.00000
      589.000      219.000      17.2073      398.887      1249.28      3935.50      12342.8      21318.2      42362.8     -1.00000
