PDS_VERSION_ID         = PDS3
RECORD_TYPE            = STREAM
OBJECT                 = TEXT
  PUBLICATION_DATE     = 2014-02-19
  INTERCHANGE_FORMAT   = ASCII
  NOTE                 = "WAC hot pixel file for epoch 2006.9."
END_OBJECT             = TEXT
END

WAC hot pixel list. Lines 1 and 2 are column headings giving exposure time 
(sec) and gain state (e-/DN), respectively, of source dark images. Starting 
on line 3, first two columns indicate x and y value of hot pixel; columns 3 
through N-1 give median electron counts for each exposure bin, and last (Nth) 
column contains either the index of the exposure bin where saturation first 
occurs, or -1 if no saturation.

\begindata
      0.00000      0.00000      0.00000      10.0000      32.0000      100.000      560.000      1200.00
      0.00000      0.00000      11.7270      11.7270      27.6800      27.6800      27.6800      27.6800
      268.000      77.0000      149.667      13536.6      39841.2      100788.      111369.      111366.      4.00000
      554.000      174.000      193.152      13019.0      38573.2      98242.7      111369.      111368.      4.00000
      833.000      328.000      189.720      13736.5      40430.3      98493.2      111366.      111370.      4.00000
      577.000      598.000      207.235      6487.52      21255.8      61847.4      111370.      111367.      4.00000
      259.000      132.000      112.427      6108.67      19123.7      54804.0      111367.      111368.      4.00000
      685.000      585.000      230.823      7792.18      23463.7      58786.1      111369.      111368.      4.00000
      561.000      116.000      101.329      5997.27      18283.4      49256.6      111371.      111364.      4.00000
      947.000      51.0000     -2.03245      4809.29      15026.0      44543.8      111370.      111367.      4.00000
      962.000      403.000      133.331      5428.89      16873.8      46170.6      111366.      111373.      4.00000
      162.000      1018.00      245.948      3888.11      13137.1      38741.3      111372.      111365.      4.00000
      365.000      612.000      165.264      3506.75      11192.5      33444.6      111371.      111369.      4.00000
      224.000      420.000      55.5654      3159.27      10185.0      31404.6      111367.      111371.      4.00000
      461.000      293.000      51.0727      2101.52      6940.31      21774.0      107603.      111364.      5.00000
      792.000      1007.00      208.401      2550.12      8358.56      25778.7      108221.      111377.      5.00000
      906.000      454.000      155.846      2557.62      8186.84      24597.0      104021.      111364.      5.00000
      971.000      821.000      197.087      2404.26      7967.77      24437.4      104095.      111366.      5.00000
      615.000      629.000      163.051      2302.14      7595.04      23529.8      102498.      111373.      5.00000
      281.000      753.000      184.023      3275.24      10127.8      31408.0      103206.      111361.      5.00000
      707.000      655.000      155.977      2658.54      8635.03      25593.2      96826.9      111361.      5.00000
      787.000      651.000      158.730      1988.76      5796.41      20033.8      89103.4      111368.      5.00000
      268.000      78.0000      50.7687      70.8746      205.636      306.000      75024.1      111370.      5.00000
      662.000      623.000      137.431      1480.66      4904.59      15507.3      83868.9      111373.      5.00000
      630.000      1000.00      205.874      1945.87      6440.65      19693.4      85679.5      111371.      5.00000
      594.000      989.000      172.025      419.309      1221.88      3845.48      78585.5      43222.7     -1.00000
      198.000      682.000      141.267      2523.30      7980.83      22887.2      81353.3      111358.      5.00000
      950.000      163.000      49.3108      1585.59      4912.39      15187.2      76869.4      111370.      5.00000
      27.0000      157.000      55.8479      1760.05      5498.84      16692.6      78054.0      111366.      5.00000
      378.000      87.0000      11.4668      1935.07      6165.98      18102.7      76988.6      111366.      5.00000
      518.000      314.000      97.1796      1802.32      5692.79      17103.1      76310.0      111368.      5.00000
      196.000      915.000      160.082      1516.45      5080.73      16195.3      75895.4      111361.      5.00000
      339.000      693.000      161.009      1442.45      4673.08      14658.3      74720.9      111361.      5.00000
      1007.00      848.000      176.377      1356.83      4391.89      13993.8      70981.7      111370.      5.00000
      822.000      465.000      138.087      1447.72      4881.27      14767.2      70205.3      111369.      5.00000
      293.000      642.000      148.348      1559.56      5216.07      15850.5      70009.1      111366.      5.00000
      204.000      490.000      119.419      1730.76      5475.52      16341.8      69573.4      110187.      5.00000
      569.000      760.000      164.115      1519.19      4894.77      14972.3      66954.2      110002.      5.00000
      372.000      333.000      115.933      1197.33      3975.98      12215.7      65017.0      111367.      5.00000
      107.000      183.000      74.2963      1657.28      5158.76      15396.2      68112.5      111360.      5.00000
      554.000      175.000      58.4874      125.011      250.759      352.099      57506.3      111367.      5.00000
      625.000      654.000      162.220      1335.96      4421.90      13887.6      65450.4      111277.      5.00000
      631.000      4.00000      11.9526      1467.34      4614.93      13840.5      66076.9      111366.      5.00000
      139.000      210.000      58.6164      1657.84      4949.90      14797.6      67078.4      111300.      5.00000
      148.000      20.0000      19.9062      1395.98      4426.35      13432.9      64151.7      111367.      5.00000
      470.000      151.000      71.7835      1152.29      3568.14      11072.5      57554.2      110880.      5.00000
      91.0000      394.000      80.5582      1127.38      3700.11      11518.7      59526.9      108755.     -1.00000
      788.000      101.000      28.0651      1324.60      4129.86      12487.6      60874.2      107387.     -1.00000
      547.000      370.000      98.7772      1740.15      5423.13      16289.0      67357.2      106944.     -1.00000
      22.0000      494.000      108.788      1093.31      3615.20      11434.0      59633.0      106856.     -1.00000
      31.0000      908.000      197.750      1631.44      5219.01      16172.8      74128.2      106975.     -1.00000
      856.000      823.000      157.922      1309.20      4521.99      14226.1      63283.4      105122.     -1.00000
      176.000      663.000      149.857      1122.26      3500.64      10803.1      56631.6      104902.     -1.00000
      378.000      741.000      178.193      1246.11      4016.23      12375.0      59634.3      104592.     -1.00000
      834.000      993.000      226.131      1239.76      4036.77      12445.4      59624.0      104275.     -1.00000
      775.000      945.000      206.376      1355.12      4313.67      13464.0      61651.7      101999.     -1.00000
      460.000      163.000      66.9013      1116.86      3452.00      10646.5      53377.6      100132.     -1.00000
      1000.00      61.0000      9.36176      1067.96      3418.13      10437.0      52581.1      99929.4     -1.00000
      270.000      26.0000      20.3803      1116.09      3505.85      10660.5      53824.9      99222.2     -1.00000
      64.0000      541.000      104.584      1355.83      4301.16      13163.0      59788.5      99135.7     -1.00000
      258.000      770.000      161.455      1825.73      5925.35      17688.6      66461.3      98859.8     -1.00000
      705.000      195.000      53.6278      1258.44      3900.27      11748.8      55736.6      98246.9     -1.00000
      54.0000      76.0000      30.2073      1454.12      4634.88      13449.4      57512.4      95039.3     -1.00000
      718.000      160.000      30.0087      974.070      3196.27      9647.25      50015.6      93328.8     -1.00000
      354.000      280.000      59.2488      814.914      2609.76      7994.21      44655.7      93299.4     -1.00000
      44.0000      6.00000      33.6588      1080.03      3489.06      10547.0      51108.3      92536.8     -1.00000
      896.000      73.0000     -2.04789      1133.23      3673.65      11021.9      52292.9      92219.3     -1.00000
      208.000      776.000      174.302      1020.49      3150.93      9789.11      48381.1      88220.8     -1.00000
      995.000      339.000      33.7257      1220.75      3718.88      11297.8      51171.0      87186.5     -1.00000
      999.000      454.000      24.1066      810.074      2588.20      8028.96      43056.1      85982.4     -1.00000
      689.000      775.000      158.409      805.872      2615.95      8056.63      43112.4      85452.4     -1.00000
      95.0000      485.000      128.816      760.827      2555.52      8023.57      42616.3      84548.0     -1.00000
      668.000      920.000      212.447      859.215      2672.42      8625.59      45107.2      84081.8     -1.00000
      268.000      76.0000      24.3438      67.5110      120.810      243.411      16388.0      84653.7     -1.00000
      631.000      32.0000      10.1014      1079.22      3227.01      9824.18      46853.6      82166.3     -1.00000
      375.000      165.000      32.0938      788.740      2486.58      7564.75      40391.7      82223.5     -1.00000
      602.000      231.000      77.7160      892.133      2765.97      8452.51      43044.2      82241.4     -1.00000
      762.000      536.000      92.5876      984.909      3010.70      9315.91      46609.8      82113.3     -1.00000
      349.000      949.000      208.868      869.689      2790.20      8924.88      44730.6      81698.8     -1.00000
      426.000      434.000      115.449      729.248      2325.06      7351.76      40191.6      80830.8     -1.00000
      996.000      806.000      134.436      820.747      2561.01      7942.43      41951.9      81063.2     -1.00000
      845.000      827.000      145.622      821.314      2592.34      8277.11      43577.6      79961.2     -1.00000
      860.000      925.000      167.598      913.022      2755.45      8587.54      42872.1      79268.1     -1.00000
      193.000      706.000      130.905      821.466      2595.65      7995.53      41741.5      78884.7     -1.00000
      293.000      379.000      72.3046      908.480      3000.38      9078.10      43957.7      78369.6     -1.00000
      358.000      225.000      60.6575      773.795      2238.31      6900.79      37676.2      77549.9     -1.00000
      577.000      599.000      122.711      125.745      342.811      526.295      9222.76      77794.5     -1.00000
      117.000      400.000      106.011      750.234      2490.04      7684.19      40162.1      77560.8     -1.00000
      570.000      705.000      155.124      834.146      2540.55      8029.55      41287.0      77778.7     -1.00000
      947.000      587.000      137.172      744.755      2400.06      7404.18      38975.0      77497.0     -1.00000
      486.000      353.000      98.4013      891.763      2672.23      8168.47      41006.2      76461.5     -1.00000
      149.000      763.000      169.416      836.020      2606.81      8348.82      41313.6      76545.9     -1.00000
      806.000      136.000      33.9941      763.382      2242.16      6908.62      37203.0      75425.9     -1.00000
      842.000      225.000      41.6559      842.731      2677.50      8152.22      40984.6      75250.8     -1.00000
      750.000      336.000      92.6284      721.099      2318.35      7283.16      37810.4      73135.8     -1.00000
      113.000      103.000      14.8190      941.827      2864.54      8423.84      40030.4      72532.8     -1.00000
      800.000      542.000      95.8128      793.411      2508.88      7607.33      38562.3      72371.6     -1.00000
      626.000      890.000      183.869      732.202      2279.65      7177.12      37848.8      71708.3     -1.00000
      894.000      781.000      168.748      790.629      2443.22      7632.88      38740.9      71464.9     -1.00000
      536.000      286.000      59.6719      784.340      2366.23      7318.85      37312.6      70894.1     -1.00000
      585.000      354.000      95.0205      668.756      2120.75      6457.29      34665.8      70291.5     -1.00000
      265.000      275.000      38.8066      880.867      2535.73      7714.48      38265.8      70173.5     -1.00000
      880.000      959.000      186.309      628.807      1956.35      5994.76      33972.9      70593.6     -1.00000
      833.000      329.000      83.5328      142.770      334.825      594.203      34680.0      69015.1     -1.00000
      519.000      951.000      207.454      648.913      2066.78      6421.95      34612.0      69372.1     -1.00000
      493.000      874.000      167.119      828.990      2507.40      7737.10      37799.8      68954.2     -1.00000
      909.000      161.000      20.6031      621.389      2181.47      6176.94      32398.9      68650.2     -1.00000
      431.000      741.000      166.466      753.928      2224.10      6712.56      35219.4      67375.7     -1.00000
      828.000      871.000      174.051      722.642      2208.49      6772.05      34617.1      66884.8     -1.00000
      677.000      370.000      34.2790      677.859      2017.93      6124.90      33024.6      66005.7     -1.00000
      214.000      936.000      202.632      661.033      1825.34      5899.93      33341.1      66022.3     -1.00000
      554.000      173.000      41.9734      67.4759      188.443      296.774      5756.49      65474.0     -1.00000
      333.000      901.000      160.845      667.580      2029.15      6250.34      33295.9      65888.9     -1.00000
      278.000      187.000      24.9109      685.166      2095.58      6279.85      33606.7      65112.2     -1.00000
      356.000      70.0000      22.0205      727.724      2316.62      6750.02      35134.0      64763.1     -1.00000
      813.000      18.0000      9.64506      773.589      2380.81      7177.70      34770.1      64389.2     -1.00000
      990.000      458.000      61.4124      542.119      1846.10      5780.16      31700.5      64314.5     -1.00000
      503.000      279.000      48.9990      644.484      1838.74      5712.19      31259.5      63301.2     -1.00000
      289.000      420.000      108.561      839.224      2490.74      7474.85      35165.4      63070.1     -1.00000
      1002.00      897.000      204.393      642.555      2006.50      6280.76      33344.2      63364.4     -1.00000
      497.000      390.000      96.5604      707.411      2143.63      6507.29      33259.2      62496.5     -1.00000
      597.000      612.000      152.657      838.114      2628.38      7881.95      35888.2      61659.8     -1.00000
      1014.00      619.000      103.885      593.772      1782.85      5521.97      29837.6      60722.5     -1.00000
      888.000      986.000      183.343      623.159      1757.41      5631.31      30436.9      60928.8     -1.00000
      933.000      495.000      117.794      586.990      1819.25      5698.42      30080.2      60448.9     -1.00000
      674.000      645.000      148.778      735.291      2261.79      7204.02      33999.8      60520.9     -1.00000
      524.000      366.000      49.1049      680.444      2236.33      6545.21      32196.0      60084.1     -1.00000
      683.000      149.000      25.9192      622.372      1992.35      6176.75      30883.8      59766.3     -1.00000
      690.000      144.000      46.0987      681.540      2165.58      6441.43      32189.9      59693.6     -1.00000
      783.000      337.000      64.0355      629.753      1927.46      5707.87      29700.4      59753.7     -1.00000
      971.000      755.000      127.266      582.197      1740.59      5322.74      29727.7      60011.2     -1.00000
      206.000      104.000      16.2524      608.663      1978.26      5904.66      30611.9      59351.1     -1.00000
      75.0000      421.000      31.6653      641.265      1921.08      5687.66      30710.0      59455.5     -1.00000
      601.000      457.000      131.301      626.174      1880.96      5571.63      29635.5      59219.1     -1.00000
      643.000      899.000      190.196      496.506      1589.14      4876.85      27566.4      59475.9     -1.00000
      94.0000      466.000      90.1993      631.594      1836.48      5767.29      30170.0      59051.4     -1.00000
      529.000      804.000      164.855      711.576      1999.84      5767.99      31638.8      59125.9     -1.00000
      1002.00      695.000      129.745      594.043      1923.36      5786.21      29676.2      58609.2     -1.00000
      97.0000      627.000      125.781      632.762      1931.67      5771.16      30042.0      58007.2     -1.00000
      952.000      695.000      129.745      568.583      1648.67      5142.70      28471.1      57917.4     -1.00000
      911.000      112.000      40.3970      587.006      1849.00      5217.32      28019.6      57357.6     -1.00000
      899.000      837.000      152.234      546.432      1687.34      5278.26      28608.2      57504.2     -1.00000
      449.000      680.000      107.634      607.670      1751.62      5524.21      29631.0      57388.8     -1.00000
      814.000      283.000      3.36896      699.699      2060.83      6161.46      30392.8      56537.0     -1.00000
      537.000      652.000      146.848      564.574      1716.92      5322.15      28290.0      56637.1     -1.00000
      538.000      317.000      40.7195      634.345      1877.12      5815.50      29562.2      56330.2     -1.00000
      475.000      445.000      116.282      574.222      1790.86      5281.66      27707.8      55741.4     -1.00000
      292.000      308.000      77.0436      532.610      1630.37      4900.61      26525.5      55654.8     -1.00000
      878.000      293.000      67.8774      577.365      1783.10      5319.35      27893.9      55619.4     -1.00000
      911.000      478.000      90.3710      623.519      1930.54      5693.72      28997.4      55654.0     -1.00000
      991.000      946.000      176.581      549.419      1676.87      5243.90      28428.9      55770.6     -1.00000
      441.000      22.0000      16.5497      504.093      1647.10      4833.22      26274.1      55141.6     -1.00000
      515.000      681.000      155.250      633.172      1832.96      5709.92      29174.0      55128.8     -1.00000
      583.000      9.00000      19.4845      505.165      1571.57      4750.28      25824.4      54583.7     -1.00000
      641.000      14.0000     -5.89905      562.521      1832.52      5406.73      27540.1      54145.9     -1.00000
      213.000      240.000      40.5553      616.893      1785.67      5240.95      27433.3      54247.7     -1.00000
      694.000      40.0000      7.06012      659.472      2029.58      5735.07      29177.9      52963.6     -1.00000
      604.000      268.000      60.8770      498.444      1482.13      4604.05      24875.3      52614.9     -1.00000
      87.0000      181.000      30.9473      569.889      1643.79      5077.13      26181.6      51811.8     -1.00000
      735.000      955.000      161.965      559.227      1711.52      5175.10      26987.4      52068.7     -1.00000
      164.000      894.000      172.664      537.698      1759.41      5308.61      27090.5      51945.5     -1.00000
      73.0000      633.000      140.343      492.343      1479.49      4639.25      25187.7      51496.1     -1.00000
      979.000      968.000      148.378      558.787      1703.64      5246.87      26855.8      51613.1     -1.00000
      835.000      717.000      152.740      559.335      1657.19      4849.29      25987.3      51377.7     -1.00000
      457.000      691.000      142.856      592.356      1821.39      5393.04      27211.2      51319.2     -1.00000
      589.000      469.000      108.819      555.037      1712.71      5072.40      26318.9      51169.9     -1.00000
      705.000      439.000      114.683      575.606      1607.74      4944.70      26022.9      51124.3     -1.00000
      383.000      257.000      53.3644      604.422      1699.81      5042.41      25859.2      50677.9     -1.00000
      457.000      201.000      47.1385      553.976      1587.75      4757.53      25181.1      50381.2     -1.00000
      552.000      971.000      202.144      477.497      1352.63      4120.20      23262.3      50010.0     -1.00000
      506.000      560.000      117.803      707.964      2051.37      6379.10      31607.9      49362.5     -1.00000
      101.000      753.000      175.365      510.050      1575.93      4853.18      25263.9      48990.5     -1.00000
      149.000      759.000      168.975      522.105      1514.37      4734.50      24920.0      48411.2     -1.00000
      1002.00      688.000      158.691      1623.69      5026.82      13370.0      36517.9      48257.1     -1.00000
      259.000      133.000      53.6546      82.9729      204.047      341.650      2044.12      47892.1     -1.00000
      179.000      886.000      142.313      508.901      1566.81      4661.95      24398.3      48245.5     -1.00000
      280.000      597.000      120.246      548.941      1560.06      4691.83      24334.7      47868.0     -1.00000
      760.000      722.000      145.811      477.849      1398.06      4287.41      23664.1      47902.5     -1.00000
      117.000      372.000      68.3495      417.559      1353.48      4036.27      21960.1      46763.4     -1.00000
      619.000      494.000      113.868      480.009      1569.31      4686.03      24117.7      46788.2     -1.00000
      85.0000      62.0000     -3.93548      508.524      1397.27      4178.46      22233.5      46127.2     -1.00000
      1002.00      785.000      139.148      462.644      1429.60      4412.83      23174.2      46329.4     -1.00000
      382.000      814.000      168.012      466.602      1381.95      4313.84      23584.4      46178.5     -1.00000
      830.000      608.000      103.728      455.221      1349.90      3858.04      21518.3      45774.3     -1.00000
      341.000      275.000      64.7334      470.457      1426.53      4199.09      22114.8      45185.4     -1.00000
      912.000      647.000      124.706      452.741      1344.21      3918.34      21367.0      45252.3     -1.00000
      730.000      825.000      161.305      510.412      1395.79      4168.81      22285.5      45310.3     -1.00000
      712.000      848.000      170.513      485.895      1425.43      4292.38      22500.5      45222.0     -1.00000
      947.000      52.0000      23.2995      30.5101      149.946      238.111      844.773      44637.8     -1.00000
      377.000      252.000      58.6761      524.674      1572.73      4641.17      24136.1      44216.3     -1.00000
      528.000      812.000      191.418      475.580      1382.94      4091.58      22085.3      44385.0     -1.00000
      168.000      603.000      102.810      493.017      1502.09      4494.75      23083.3      44278.7     -1.00000
      994.000      577.000      183.522      486.706      1371.16      4270.61      22441.5      44173.5     -1.00000
      505.000      972.000      215.737      467.408      1249.47      3729.09      20775.2      44262.9     -1.00000
      418.000      472.000      46.8479      471.586      1380.90      4144.09      21976.1      43955.9     -1.00000
      831.000      25.0000     -3.95544      429.158      1437.99      4299.33      22137.6      43654.5     -1.00000
      734.000      62.0000      11.8862      502.747      1484.33      4293.86      22289.6      43487.1     -1.00000
      679.000      128.000      36.3421      467.926      1359.23      4138.34      21784.8      42964.4     -1.00000
      472.000      475.000      75.5958      455.161      1288.38      3991.39      21367.4      43004.2     -1.00000
      115.000      807.000      144.180      474.962      1348.17      4124.61      21704.2      43021.7     -1.00000
      914.000      523.000      145.929      457.645      1401.10      4113.82      21591.5      42786.6     -1.00000
      949.000      865.000      162.844      400.995      1156.77      3563.55      20495.1      42844.3     -1.00000
      785.000      438.000      50.1430      419.631      1243.56      3707.34      20275.0      42634.9     -1.00000
      474.000      539.000      134.362      471.554      1397.96      4027.60      21381.3      42661.9     -1.00000
      6.00000      370.000      80.4276      480.613      1460.50      4316.82      21990.6      42243.4     -1.00000
      330.000      298.000      73.7980      415.569      1439.02      4122.94      21247.6      42154.3     -1.00000
      843.000      346.000      86.9507      433.987      1315.31      3903.41      20725.7      42168.3     -1.00000
      283.000      219.000      42.8424      381.367      1290.71      3811.15      20177.2      42050.4     -1.00000
      140.000      452.000      145.540      455.677      1271.96      3827.45      20463.9      41570.7     -1.00000
      893.000      504.000      107.979      446.484      1282.24      3995.46      20685.8      41586.3     -1.00000
      914.000      586.000      142.542      453.003      1291.79      3767.50      20468.5      41604.4     -1.00000
      719.000      114.000      46.1831      496.347      1568.19      4608.33      22238.1      41298.7     -1.00000
      783.000      105.000      25.0397      409.318      1319.93      3880.77      20454.3      41283.3     -1.00000
      246.000      899.000      189.214      437.233      1213.59      3533.96      19899.3      41477.3     -1.00000
      780.000      518.000      100.000      452.299      1364.54      3968.78      20882.8      41261.9     -1.00000
      806.000      942.000      198.184      437.796      1176.10      3447.02      19414.0      41224.6     -1.00000
      849.000      118.000      42.3838      393.645      1253.49      3802.07      19871.7      40776.5     -1.00000
      833.000      327.000      3.32597      65.3982      154.394      258.148      709.511      40432.1     -1.00000
      549.000      715.000      161.733      469.406      1349.70      3820.34      20424.1      40536.9     -1.00000
      939.000      660.000      128.825      395.474      1252.53      3792.02      20181.6      40392.3     -1.00000
      865.000      883.000      181.893      427.098      1207.81      3654.66      19680.7      39623.5     -1.00000
      604.000      844.000      165.142      397.987      1235.86      3535.24      18563.6      39549.4     -1.00000
      496.000      782.000      156.505      407.684      1169.08      3442.11      19034.9      39300.7     -1.00000
      125.000      390.000      80.4122      409.021      1217.58      3626.51      19198.5      38935.5     -1.00000
      664.000      607.000      127.176      377.515      1095.06      3462.80      18707.5      38853.6     -1.00000
      582.000      882.000      167.053      484.770      1401.05      4118.19      18835.6      38730.7     -1.00000
      487.000      919.000      197.281      402.601      1146.57      3344.68      18293.3      38492.3     -1.00000
      528.000      749.000      163.795      444.398      1269.02      3619.60      19174.3      38397.1     -1.00000
      876.000      717.000      124.022      406.682      1158.95      3575.87      19140.1      38381.7     -1.00000
      669.000      867.000      187.087      418.145      1190.70      3698.41      19682.3      38438.7     -1.00000
      601.000      504.000      133.415      416.944      1207.32      3624.33      18756.4      38275.6     -1.00000
      751.000      394.000      68.9410      399.962      1175.03      3414.36      18348.0      38041.0     -1.00000
      908.000      592.000      111.163      539.729      1328.35      3659.99      19758.6      38095.4     -1.00000
      496.000      7.00000      6.23577      399.521      1164.21      3467.33      18264.0      37857.3     -1.00000
      995.000      502.000      108.400      389.895      1086.19      3166.79      17106.1      36230.1     -1.00000
      333.000      596.000      122.542      407.029      1216.91      3725.22      19233.3      37787.8     -1.00000
      298.000      451.000      102.118      423.654      1273.99      3783.31      19681.2      37711.9     -1.00000
      940.000      335.000      16.8491      431.753      1208.66      3449.02      18407.5      37646.5     -1.00000
      574.000      827.000      137.507      380.940      1124.74      3260.46      17896.1      37779.4     -1.00000
      657.000      33.0000    -0.681318      415.123      1265.12      3602.49      18710.5      37325.6     -1.00000
      453.000      804.000      176.582      388.163      1123.39      3321.73      18266.7      37466.6     -1.00000
      874.000      751.000      167.604      385.027      1131.43      3330.33      17910.1      37311.8     -1.00000
      426.000      950.000      213.332      401.990      1146.31      3354.61      18055.8      37047.9     -1.00000
      939.000      387.000      86.3195      493.036      1398.88      4077.05      19290.2      36707.3     -1.00000
      773.000      74.0000     -7.42653      428.589      1184.16      3449.61      18031.8      36328.5     -1.00000
      555.000      3.00000      24.5601      329.432      1098.96      3273.38      17337.1      36161.2     -1.00000
      586.000      247.000      65.9623      373.047      1134.84      3243.88      17163.3      36085.4     -1.00000
      1.00000      565.000      126.752      435.968      1314.56      3745.09      18996.7      35700.2     -1.00000
      795.000      810.000      175.360      356.691      1044.35      3003.30      16958.5      35362.2     -1.00000
      757.000      656.000      128.945      395.072      1073.79      3067.39      16747.7      35207.2     -1.00000
      943.000      136.000      44.7735      427.522      1345.98      4045.89      19144.2      34785.5     -1.00000
      729.000      676.000      121.879      373.603      1124.83      3152.36      16398.9      34963.5     -1.00000
      640.000      724.000      163.758      376.682      1030.90      2907.99      16454.1      34773.1     -1.00000
      719.000      37.0000      14.4368      376.497      1086.21      3203.21      16735.8      34393.0     -1.00000
      541.000      363.000      17.9540      380.639      1065.53      3110.47      16454.5      34496.3     -1.00000
      53.0000      546.000      57.1403      397.067      1131.82      3237.27      17341.1      34560.0     -1.00000
      589.000      648.000      146.671      386.570      1145.88      3318.56      17126.3      34557.5     -1.00000
      306.000      247.000      19.0545      363.572      1107.43      3266.37      17022.7      34401.5     -1.00000
      549.000      500.000      132.996      353.382      1070.77      3053.77      16258.9      34432.1     -1.00000
      373.000      677.000      148.484      363.978      1095.15      3102.95      16652.3      34465.1     -1.00000
      267.000      6.00000     -1.52205      359.310      1078.34      3271.59      16798.5      34088.4     -1.00000
      449.000      291.000      33.9354      400.453      1129.58      3334.29      16975.4      34119.7     -1.00000
      742.000      246.000      64.0967      361.106      1076.10      3133.12      16451.8      34005.6     -1.00000
      158.000      413.000      52.1847      401.467      1154.02      3215.91      16636.9      34022.1     -1.00000
      508.000      324.000      87.7635      325.305      1062.68      3039.84      16669.1      33922.3     -1.00000
      704.000      1022.00      1785.26      133.149      194.587      290.674      522.593      692.804     -1.00000
      300.000      655.000      131.634      445.032      1067.33      3229.01      16633.1      33910.0     -1.00000
      487.000      773.000      153.948      359.073      966.094      2829.93      15601.3      33943.0     -1.00000
      1.00000      865.000      167.741      374.745      1059.55      3134.73      16813.7      33930.5     -1.00000
      404.000      219.000      59.2383      353.931      1054.88      3107.53      16384.6      33557.3     -1.00000
      30.0000      148.000      46.8744      396.205      1132.99      3274.84      16545.9      33168.7     -1.00000
      676.000      139.000      28.8921      335.013      1058.43      3061.51      16033.0      32994.9     -1.00000
      918.000      895.000      157.020      419.199      1165.11      3355.66      17427.5      33205.5     -1.00000
      14.0000      1023.00      172.676      366.745      1027.33      3044.18      16063.0      33001.0     -1.00000
      469.000      19.0000      2.44090      391.201      1094.04      3118.98      16348.1      32596.6     -1.00000
      991.000      235.000      36.0539      359.706      1086.83      3091.11      16242.3      32516.6     -1.00000
      536.000      746.000      131.837      392.902      994.923      2857.57      15775.2      32690.4     -1.00000
      734.000      477.000      147.595      371.814      1058.44      3036.36      15943.5      32548.5     -1.00000
      693.000      648.000      166.206      385.903      1035.44      2928.13      15534.2      32576.4     -1.00000
      907.000      84.0000     0.716467      345.901      1092.85      3125.17      16213.8      32370.3     -1.00000
      878.000      182.000      55.3416      309.118      955.452      2915.27      15375.6      32336.6     -1.00000
      620.000      217.000      44.5269      329.724      1029.05      3000.70      15700.0      32343.2     -1.00000
      846.000      830.000      159.368      440.184      1269.23      3710.99      18262.5      32463.2     -1.00000
      160.000      554.000      113.194      358.415      1035.15      2953.65      15488.7      32314.1     -1.00000
      526.000      583.000      140.451      371.856      1075.41      3024.52      15700.0      32208.8     -1.00000
      883.000      9.00000     -3.96940      361.598      1073.05      3114.13      16106.6      32005.2     -1.00000
      438.000      617.000      126.732      342.376      1012.67      2909.14      15455.5      32203.0     -1.00000
      282.000      969.000      207.491      384.141      1009.07      2896.71      15432.4      32291.4     -1.00000
      655.000      969.000      188.519      362.013      986.320      2864.43      15465.6      32173.0     -1.00000
      656.000      264.000      8.55003      361.463      987.896      2866.25      15195.5      31749.3     -1.00000
      599.000      149.000      72.8270      365.290      1036.98      2974.43      15590.9      31701.5     -1.00000
      74.0000      253.000      7.90050      333.885      990.068      2828.96      14976.0      31789.9     -1.00000
      830.000      669.000      139.306      315.813      987.805      2921.17      15374.4      31723.8     -1.00000
      802.000      833.000      146.057      351.138      1016.75      3024.98      15845.7      31684.9     -1.00000
      800.000      273.000      13.5211      265.835      821.047      2382.32      12267.2      25646.6     -1.00000
      433.000      445.000      92.8284      397.965      1089.91      3127.19      15875.4      31406.7     -1.00000
      337.000      269.000      53.5339      371.734      1104.48      3116.66      16291.8      31275.2     -1.00000
      823.000      997.000      201.166      338.423      962.184      2772.88      14942.4      31404.5     -1.00000
      99.0000      868.000      193.124      349.225      987.290      2655.39      14984.9      31241.9     -1.00000
      914.000      805.000      149.197      339.928      976.298      2733.52      15068.1      31211.2     -1.00000
      528.000      635.000      158.426      334.952      989.515      2723.85      14787.2      31115.4     -1.00000
      655.000      666.000      131.601      345.175      1009.66      2711.15      14911.0      31110.2     -1.00000
      742.000      390.000      32.0622      374.586      1299.23      3724.90      17953.3      30943.6     -1.00000
      84.0000      903.000      184.736      332.095      897.374      2702.15      14571.9      30869.0     -1.00000
      490.000      624.000      133.685      355.812      921.593      2640.19      14393.1      30605.1     -1.00000
      441.000      823.000      146.958      380.444      1021.92      2957.69      15439.4      30593.1     -1.00000
      323.000      931.000      169.408      367.040      1018.14      2843.76      15060.0      30600.8     -1.00000
      605.000      658.000      130.519      299.152      991.322      2795.55      14807.0      30461.6     -1.00000
      710.000      19.0000      20.0313      291.309      977.486      2896.71      14853.2      30230.2     -1.00000
      577.000      747.000      190.398      353.033      1015.94      2904.93      15096.1      30463.9     -1.00000
      401.000      676.000      151.196      327.147      961.684      2828.77      14863.1      30340.6     -1.00000
      935.000      624.000      145.412      317.442      958.356      2681.16      14489.0      30248.5     -1.00000
      696.000      962.000      208.728      384.941      1059.88      2941.46      15163.9      30181.6     -1.00000
      63.0000      866.000      177.290      383.447      1072.95      3196.22      15609.7      29858.6     -1.00000
      119.000      869.000      141.662      349.977      934.733      2665.42      14498.6      29856.6     -1.00000
      92.0000      857.000      154.958      333.666      923.446      2606.69      14040.6      29697.5     -1.00000
      902.000      897.000      178.509      336.595      967.478      2682.69      14422.0      29707.0     -1.00000
      282.000      250.000      54.8579      348.540      1005.82      2858.76      14613.5      29492.0     -1.00000
      644.000      586.000      121.494      316.907      920.597      2588.99      13715.6      29488.4     -1.00000
      650.000      551.000      169.288      351.575      960.976      2688.30      14229.7      29347.9     -1.00000
      987.000      41.0000     -3.52924      296.211      899.296      2644.34      13871.4      29414.5     -1.00000
      15.0000      161.000      32.4050      260.082      818.157      2288.13      12021.2      25261.1     -1.00000
      603.000      145.000      25.9264      333.466      953.278      2762.89      14337.7      29053.9     -1.00000
      833.000      731.000      318.762      375.290      991.406      2739.98      14409.0      29230.7     -1.00000
      153.000      15.0000      1.87916      297.851      1008.85      2967.84      14725.4      28832.5     -1.00000
      20.0000      913.000      147.261      302.829      907.634      2529.83      13803.4      29091.5     -1.00000
      29.0000      803.000      160.790      322.539      977.744      2723.90      14168.6      29026.0     -1.00000
      432.000      406.000      91.9191      358.513      1036.96      2879.40      14686.7      28877.1     -1.00000
      282.000      199.000      31.0912      392.042      1028.64      2824.81      14347.5      28807.1     -1.00000
      619.000      866.000      177.011      337.999      895.782      2500.73      13586.9      28999.7     -1.00000
      471.000      91.0000      41.6286      330.752      953.726      2730.22      14166.6      28711.1     -1.00000
      228.000      447.000      78.6669      350.294      941.539      2731.95      14137.4      28802.2     -1.00000
      736.000      479.000      138.275      323.818      964.889      2676.49      13842.2      28761.0     -1.00000
      844.000      704.000      159.801      336.863      1057.72      2927.56      14818.1      28747.1     -1.00000
      911.000      557.000      141.146      299.619      1003.33      2828.50      14593.7      28682.2     -1.00000
      333.000      827.000      172.563      285.634      874.204      2515.62      13607.9      28671.6     -1.00000
      610.000      850.000      174.518      325.416      906.929      2495.83      13717.7      28631.5     -1.00000
      313.000      809.000      173.664      361.550      984.079      2604.40      14189.8      28600.5     -1.00000
      587.000      354.000      89.1570      322.960      937.771      2619.55      13560.0      28660.5     -1.00000
      77.0000      269.000      6.73306      286.110      937.675      2764.19      13968.3      28407.8     -1.00000
      996.000      905.000      155.861      248.388      818.111      2383.31      13500.7      28549.2     -1.00000
      521.000      499.000      108.860      312.833      870.243      2396.14      12747.0      26816.2     -1.00000
      777.000      947.000      199.203      373.108      980.477      2606.07      13684.2      28476.6     -1.00000
      244.000      451.000      49.3470      316.392      914.700      2576.21      13632.1      28305.5     -1.00000
      839.000      552.000      126.810      324.452      883.016      2728.61      14213.4      28323.7     -1.00000
      882.000      758.000      137.311      308.694      847.878      2451.65      13281.9      28314.8     -1.00000
      608.000      453.000      85.4875      359.324      910.112      2538.70      13346.3      28213.4     -1.00000
      1.00000      406.000      38.7404      255.348      818.213      2098.67      10583.3      21864.9     -1.00000
      585.000      646.000      149.230      289.645      843.323      2447.88      13209.1      28140.1     -1.00000
      81.0000      332.000      71.9081      304.278      937.510      2656.20      13676.3      28018.1     -1.00000
      213.000      47.0000      5.30553      288.996      922.865      2646.29      13652.8      27917.7     -1.00000
      264.000      275.000      49.2076      369.826      1021.35      2781.43      14026.2      27973.6     -1.00000
      595.000      845.000      159.898      290.802      883.336      2378.02      13248.1      28140.7     -1.00000
      614.000      300.000      53.8047      280.140      895.220      2554.36      13349.3      27952.2     -1.00000
      385.000      377.000      83.2959      313.435      934.850      2641.68      13686.9      27946.1     -1.00000
      202.000      892.000      163.437      349.169      1019.59      2790.00      13942.4      27995.3     -1.00000
      103.000      635.000      124.370      351.355      906.870      2572.85      13743.5      27895.0     -1.00000
      447.000      680.000      138.256      349.054      980.322      2738.25      13877.0      27827.3     -1.00000
      856.000      296.000      65.3291      281.950      898.384      2622.62      13491.7      27682.4     -1.00000
      249.000      742.000      158.870      312.475      902.160      2506.03      13382.2      27754.1     -1.00000
      518.000      858.000      164.484      355.386      908.256      2510.24      13549.9      27715.1     -1.00000
      990.000      742.000      124.244      270.056      885.747      2628.70      13640.1      27644.2     -1.00000
      895.000      903.000      169.239      349.736      952.205      2637.97      13930.2      27663.5     -1.00000
      358.000      228.000      67.0434      340.593      899.464      2594.44      13351.6      27430.7     -1.00000
      78.0000      397.000      81.9656      281.339      885.016      2482.26      12976.4      27489.5     -1.00000
      704.000      599.000      147.518      321.766      935.052      2617.26      13452.0      27356.6     -1.00000
      554.000      313.000      85.5349      315.523      905.287      2499.76      13208.9      27245.4     -1.00000
      404.000      78.0000      9.72433      270.233      898.675      2562.06      13260.3      27151.4     -1.00000
      201.000      681.000      137.586      346.409      974.883      2742.94      13852.2      27160.4     -1.00000
      668.000      562.000      90.1341      303.815      783.025      2167.48      11933.7      25235.2     -1.00000
      951.000      621.000      132.684      296.877      868.221      2382.05      12923.9      27059.8     -1.00000
      835.000      964.000      184.574      311.156      894.190      2451.57      13145.8      27147.0     -1.00000
      516.000      1007.00      179.084      309.435      872.604      2496.81      13096.5      27147.5     -1.00000
      0.00000      253.000      96.3146      474.506      1232.85      3087.41      13768.8      26892.6     -1.00000
      372.000      114.000      41.0640      244.402      738.343      2067.44      10662.7      22292.8     -1.00000
      46.0000      624.000      139.548      344.645      906.071      2542.25      13197.1      26805.8     -1.00000
      288.000      610.000      108.149      383.771      997.554      2767.45      13901.7      26679.7     -1.00000
      409.000      357.000      16.2262      287.880      924.976      2535.47      12854.1      26589.6     -1.00000
      519.000      500.000      74.3607      347.047      898.262      2444.15      12906.2      26485.8     -1.00000
      934.000      407.000      41.7272      284.029      817.204      2480.93      12978.3      26259.7     -1.00000
      536.000      336.000      84.0634      235.286      793.852      2237.60      11647.0      24472.1     -1.00000
      508.000      661.000      148.079      322.126      892.272      2456.09      12814.6      26062.7     -1.00000
      744.000      427.000      69.0636      310.949      852.569      2491.22      12719.7      25947.3     -1.00000
      871.000      40.0000      36.3775      328.928      840.211      2419.48      12451.4      25809.5     -1.00000
      84.0000      6.00000      16.2867      312.403      858.626      2420.94      12480.4      25770.3     -1.00000
      7.00000      729.000      135.247      290.028      828.681      2304.00      12094.6      25818.0     -1.00000
      487.000      774.000      142.653      292.210      874.213      2342.53      12321.5      25871.9     -1.00000
      873.000      722.000      122.823      325.399      843.839      2420.60      12673.1      25839.2     -1.00000
      258.000      180.000      74.8605      260.150      827.957      2352.25      12428.7      25644.1     -1.00000
      397.000      807.000      148.647      336.117      905.294      2475.44      12723.1      25812.4     -1.00000
      233.000      474.000      61.9119      299.920      819.850      2273.89      11505.8      25454.0     -1.00000
      726.000      492.000      91.1328      359.779      879.846      2312.01      12205.1      25450.0     -1.00000
      258.000      429.000      135.609      281.144      798.194      2279.15      12152.5      25414.3     -1.00000
      543.000      118.000      48.2472      287.528      854.235      2393.01      12346.5      25279.4     -1.00000
      169.000      977.000      162.405      297.854      800.424      2307.89      12234.7      25504.0     -1.00000
      343.000      842.000      175.588      303.411      909.523      2517.93      12774.8      25462.0     -1.00000
      794.000      636.000      117.020      286.689      798.828      2278.62      12051.0      25307.3     -1.00000
      295.000      423.000      78.3777      227.914      741.312      2084.00      16456.6      25156.1     -1.00000
      631.000      548.000      124.570      278.194      836.348      2313.30      12263.8      25146.0     -1.00000
      871.000      37.0000      14.4368      270.954      766.405      2369.76      12148.6      24993.6     -1.00000
      642.000      820.000      148.724      302.841      843.265      2393.14      12380.3      25087.2     -1.00000
      950.000      834.000      162.078      272.415      795.304      2181.43      11932.0      24974.5     -1.00000
      583.000      453.000      106.930      322.168      866.812      2492.76      12127.4      24854.7     -1.00000
      864.000      864.000      147.209      313.750      813.867      2307.19      11971.3      24895.0     -1.00000
      937.000      995.000      192.091      308.190      799.702      2296.74      12458.3      24923.8     -1.00000
      737.000      541.000      81.1300      309.240      867.733      2351.60      12148.2      24597.4     -1.00000
      236.000      397.000      58.5117      278.222      793.337      2296.02      11749.8      24434.7     -1.00000
      696.000      514.000      124.127      318.105      844.025      2305.99      11597.8      24587.4     -1.00000
      254.000      281.000      42.6367      205.872      402.586      1089.86      5158.90      24375.1     -1.00000
      90.0000      1000.00      175.737      292.250      793.416      2226.36      11886.4      24535.2     -1.00000
      401.000      0.00000     -15.7613      273.004      848.431      2387.02      11957.0      24266.9     -1.00000
      848.000      835.000      129.104      356.395      937.513      2840.75      14584.3      24480.4     -1.00000
      506.000      190.000      52.2929      270.624      824.774      2349.21      11799.6      24298.7     -1.00000
      853.000      858.000      182.075      294.613      730.528      2398.66      11958.9      24471.0     -1.00000
      248.000      323.000      70.6387      258.253      838.360      2268.62      11693.1      24228.5     -1.00000
      407.000      36.0000      13.2322      280.835      783.790      2307.70      11707.0      24139.4     -1.00000
      597.000      503.000      135.792      280.198      796.344      2210.58      11374.9      24269.2     -1.00000
      981.000      632.000      124.903      283.505      802.057      2259.15      11826.5      24209.0     -1.00000
      483.000      353.000      13.4745      336.797      823.709      2369.12      11929.0      24124.8     -1.00000
      5.00000      543.000      128.641      259.432      819.821      2240.12      11669.3      24143.0     -1.00000
      1000.00      773.000      137.155      290.463      784.864      2321.53      11807.6      24143.3     -1.00000
      879.000      235.000      12.6000      242.436      737.904      2001.75      10573.7      22127.6     -1.00000
      515.000      638.000      135.935      297.815      904.906      2676.50      12475.9      23892.0     -1.00000
      656.000      940.000      156.208      284.065      761.458      2041.87      11088.3      23758.7     -1.00000
      844.000      115.000      37.8389      261.373      762.140      2256.47      11330.0      23505.4     -1.00000
      516.000      918.000      187.366      295.113      765.013      2120.65      11202.4      23702.1     -1.00000
      845.000      878.000      193.120      277.656      782.864      2260.00      11554.0      23689.0     -1.00000
      764.000      390.000      80.4122      264.850      747.294      2121.27      11223.6      23490.3     -1.00000
      172.000      59.0000      7.80276      159.209      594.576      1601.69      7714.10      15657.3     -1.00000
      442.000      172.000      8.97403      195.403      654.579      1693.24      8535.19      17560.9     -1.00000
      827.000      332.000      55.2382      255.628      716.642      1970.00      9969.72      20710.3     -1.00000
      691.000      42.0000      7.40975      244.514      766.508      2140.82      11176.4      23014.7     -1.00000
      399.000      826.000      166.658      309.164      799.122      2130.70      11151.6      23172.7     -1.00000
      518.000      381.000      71.1798      278.848      806.658      2246.51      11251.4      23060.9     -1.00000
      772.000      486.000      134.217      247.843      758.129      2091.21      11080.5      23030.6     -1.00000
      705.000      1022.00      1212.73      124.449      201.311      273.689      413.188      429.170     -1.00000
      576.000      474.000      76.8562      284.886      815.484      2190.05      11286.6      22928.0     -1.00000
      476.000      930.000      230.488      293.877      770.841      2062.37      11141.1      23010.3     -1.00000
      174.000      934.000      160.639      287.608      743.572      1997.05      10569.2      22976.3     -1.00000
      487.000      107.000      44.9523      256.189      775.828      2170.61      11154.6      22729.9     -1.00000
      217.000      284.000      15.5518      323.276      818.640      2225.70      11312.3      22763.7     -1.00000
      519.000      948.000      198.211      266.113      727.695      2005.15      10393.7      22608.0     -1.00000
      856.000      763.000      131.479      284.113      717.982      1988.49      10836.6      22611.0     -1.00000
      453.000      667.000      127.311      307.267      768.718      2103.86      10941.3      22552.9     -1.00000
      235.000      338.000      56.0451      320.774      816.257      2288.65      11220.5      22413.7     -1.00000
      538.000      1018.00      178.929      267.598      720.132      2010.80      10577.9      22488.1     -1.00000
      169.000      539.000      106.002      299.515      783.710      2193.43      11028.5      22882.4     -1.00000
      499.000      950.000      181.026      310.328      840.448      2343.99      10831.3      22354.4     -1.00000
      437.000      113.000      51.5377      245.829      745.754      2036.27      10618.2      22400.9     -1.00000
      276.000      54.0000      27.5303      288.763      817.254      2293.41      11555.2      22130.6     -1.00000
      137.000      284.000      84.1348      266.210      792.067      2185.85      10873.5      22184.7     -1.00000
      343.000      276.000      44.8357      264.298      791.157      2147.95      10884.5      22155.7     -1.00000
      845.000      724.000      111.084      267.183      736.011      2075.56      10692.4      22151.4     -1.00000
      740.000      212.000      39.6982      284.055      757.065      2097.12      10617.1      22012.3     -1.00000
      737.000      554.000      85.2867      308.603      721.914      2023.36      10452.2      22133.2     -1.00000
      947.000      169.000      43.6579      247.173      748.535      2067.44      10548.0      22211.5     -1.00000
      292.000      146.000      53.7858      257.390      769.937      2256.54      10961.4      21921.3     -1.00000
      894.000      257.000      66.5801      229.042      715.888      2042.23      10502.3      21888.7     -1.00000
      467.000      651.000      139.114      307.633      773.148      2039.08      10518.0      21854.6     -1.00000
      849.000      208.000      47.0649      268.914      711.407      2069.42      10567.3      21727.6     -1.00000
      281.000      307.000      76.6096      259.919      786.371      2085.93      10919.6      21741.0     -1.00000
      803.000      134.000      26.7959      284.928      763.347      2136.95      10611.9      22147.6     -1.00000
      180.000      864.000      172.139      312.768      759.253      2195.37      10886.8      21808.6     -1.00000
      864.000      553.000      104.786      250.094      705.319      2009.94      10443.3      21924.4     -1.00000
      178.000      169.000      19.2844      204.291      720.855      2024.44      10391.4      21577.5     -1.00000
      696.000      66.0000     -9.39500      233.530      738.524      2034.55      10393.9      21415.8     -1.00000
      599.000      572.000      107.027      252.331      711.749      1977.53      10115.4      21551.6     -1.00000
