PDS_VERSION_ID         = PDS3
RECORD_TYPE            = STREAM
OBJECT                 = TEXT
  PUBLICATION_DATE     = 2017-12-05
  INTERCHANGE_FORMAT   = ASCII
  NOTE                 = "WAC hot pixel file for epoch 2017.3."
END_OBJECT             = TEXT
END

WAC hot pixel list. Lines 1 and 2 are column headings giving exposure time 
(sec) and gain state (e-/DN), respectively, of source dark images. Starting 
on line 3, first two columns indicate x and y value of hot pixel; columns 3 
through N-1 give median electron counts for each exposure bin, and last (Nth) 
column contains either the index of the exposure bin where saturation first 
occurs, or -1 if no saturation.

\begindata
      0.00000      0.00000      0.00000      10.0000      32.0000      100.000      560.000      1200.00
      0.00000      0.00000      11.7270      11.7270      27.6800      27.6800      27.6800      27.6800
      64.0000      68.0000      156.718      21887.0      64850.0      113493.      113496.      113498.      3.00000
      792.000      1007.00      187.007      21224.0      58777.9      110601.      113497.      113493.      3.00000
      554.000      174.000      87.0682      12846.5      38903.9      101705.      113499.      113492.      4.00000
      833.000      328.000      100.816      12741.0      38512.1      97160.2      113495.      113487.      4.00000
      413.000      578.000      94.0781      10106.9      30972.4      79285.5      113499.      113492.      4.00000
      511.000      126.000      55.9464      7654.07      24399.3      72674.8      113501.      113499.      4.00000
      473.000      457.000      96.2396      11081.4      32822.6      76925.9      113493.      113487.      4.00000
      423.000      955.000      118.109      6334.31      21785.0      64896.8      113491.      113492.      4.00000
      518.000      858.000      98.1710      6148.15      21383.6      64333.7      113497.      113494.      4.00000
      476.000      670.000      80.8531      5837.59      19746.8      55703.1      113494.      113493.      4.00000
      685.000      585.000      97.6436      7179.86      21998.5      56805.7      113496.      113501.      4.00000
      561.000      116.000      52.5263      6740.40      20543.3      54749.3      113491.      113487.      4.00000
      648.000      531.000      60.4776      5171.49      16870.5      50586.0      113495.      113496.      4.00000
      259.000      132.000      25.1549      5364.54      17341.9      50497.0      113491.      113496.      4.00000
      556.000      197.000      39.4638      5308.13      17400.3      50153.4      113499.      113488.      4.00000
      231.000      20.0000      31.6645      5390.65      16709.6      47209.1      113498.      113491.      4.00000
      108.000      289.000      54.3169      4631.17      14850.3      42334.5      113497.      113492.      4.00000
      962.000      403.000      36.0685      4550.18      14737.8      42139.3      113495.      113492.      4.00000
      541.000      168.000      15.3110      4148.29      13746.0      40255.9      113493.      113502.      4.00000
      891.000      939.000      76.6820      3835.56      13249.9      39360.8      113497.      113496.      4.00000
      349.000      771.000      78.0907      3668.91      12427.9      38514.3      113502.      113497.      4.00000
      804.000      646.000      49.8950      3970.99      13012.0      38101.0      113492.      113493.      4.00000
      339.000      693.000      53.0887      3376.46      12025.4      37067.9      113501.      113493.      4.00000
      947.000      51.0000      3.66900      3425.14      11006.9      34239.7      113493.      113502.      4.00000
      441.000      853.000      73.5664      2657.81      10050.5      33221.3      113498.      113502.      4.00000
      365.000      612.000      57.5774      2969.87      9999.43      31834.4      113492.      113490.      4.00000
      162.000      1018.00      80.9917      2465.08      9751.83      31629.9      111521.      113500.      4.00000
      139.000      781.000      71.9587      3082.02      10379.2      31505.6      112151.      113496.      4.00000
      354.000      544.000      32.9853      2814.56      9749.39      30558.4      113501.      113500.      4.00000
      224.000      420.000      29.8471      2668.61      9343.67      29885.3      113496.      113491.      4.00000
      474.000      416.000      44.7961      2707.66      9288.27      29045.1      113494.      113497.      4.00000
      98.0000      390.000      40.5801      2411.54      8433.03      27061.3      110390.      113496.      4.00000
      114.000      405.000      36.0543      2456.55      8435.17      26915.5      113496.      113488.      4.00000
      640.000      997.000      85.2521      2197.50      8037.41      26462.6      112786.      113492.      4.00000
      594.000      21.0000      9.23086      2551.30      8388.59      26074.6      113497.      113491.      4.00000
      91.0000      394.000      30.3664      2196.66      7598.69      24379.5      111427.      113495.      4.00000
      842.000      712.000      44.7741      1878.37      7025.11      23361.6      113502.      113501.      4.00000
      343.000      726.000      53.9520      1901.25      6816.58      22786.2      113493.      113489.      4.00000
      689.000      775.000      64.9533      1609.62      6025.79      19917.3      105476.      113503.      5.00000
      666.000      481.000      36.5698      2828.57      9403.87      28058.8      107303.      113489.      5.00000
      143.000      272.000      26.2060      2490.69      8135.21      25115.3      104449.      113489.      5.00000
      87.0000      781.000      42.1955      2393.60      8527.94      26647.7      104963.      112514.      5.00000
      861.000      577.000      45.1457      2096.89      7307.00      22974.9      102402.      113490.      5.00000
      1000.00      61.0000      7.26691      2216.53      7553.43      23074.6      103747.      113485.      5.00000
      971.000      821.000      35.6697      1945.94      6926.24      22492.0      101448.      113488.      5.00000
      663.000      382.000      32.0766      1995.66      6828.60      21306.6      101320.      113484.      5.00000
      615.000      629.000      40.4313      1797.34      6525.71      21375.3      99705.5      113495.      5.00000
      577.000      598.000      55.5463      2004.79      7214.95      22825.6      98600.1      113494.      5.00000
      437.000      830.000      80.2340      1495.50      5527.53      18481.9      1307.59      2510.31     -1.00000
      237.000      376.000      16.5279      1841.60      6420.69      20595.6      93764.6      113501.      5.00000
      188.000      899.000      58.8028      704.705      2394.11      8251.71      86881.9      113037.      5.00000
      826.000      799.000      63.2774      1944.26      6709.27      21432.1      93699.1      113492.      5.00000
      358.000      225.000      38.3838      1550.62      5318.46      16457.2      88640.1      113493.      5.00000
      55.0000      294.000      28.2463      3178.05      9919.73      27226.6      94807.3      113496.      5.00000
      570.000      705.000      40.9706      1478.74      5427.03      18082.7      90233.3      113489.      5.00000
      815.000      104.000      7.93027      2045.18      6641.47      20108.9      91359.0      113491.      5.00000
      807.000      61.0000      13.5865      1566.29      5074.30      14596.0      85079.6      113485.      5.00000
      261.000      351.000      19.5532      1757.24      5990.92      19093.5      89275.8      113496.      5.00000
      787.000      651.000      37.7224      1453.50      6068.31      17478.0      87300.2      113491.      5.00000
      950.000      163.000      57.0064      1463.99      5062.23      16105.1      83619.1      113490.      5.00000
      906.000      454.000      38.4519      1757.82      5961.35      18825.2      86996.2      113493.      5.00000
      83.0000      762.000      56.0828      1183.07      4317.80      14316.9      72380.5      111552.      5.00000
      630.000      1000.00      69.8674      1482.46      5594.91      18727.3      85210.7      113501.      5.00000
      562.000      825.000      66.0803      1848.25      6571.36      20311.9      83197.6      113491.      5.00000
      54.0000      76.0000      9.67711      2033.70      6505.73      19435.6      82116.4      113493.      5.00000
      372.000      333.000      26.2446      1335.65      4471.24      14535.0      79326.3      113495.      5.00000
      124.000      967.000      57.2685      1343.26      4439.06      15375.6      80078.0      110569.      5.00000
      594.000      989.000      65.5056      1385.76      5378.85      17975.4      81568.4      113492.      5.00000
      78.0000      277.000      39.5354      1741.04      5846.51      17990.1      80605.9      113494.      5.00000
      631.000      4.00000      6.60006      1773.81      5660.53      17082.9      80768.6      113487.      5.00000
      486.000      334.000      40.7096      1502.28      4983.08      15781.0      78620.4      113495.      5.00000
      991.000      762.000      65.1452      1022.01      3875.62      13492.1      76354.7      113492.      5.00000
      119.000      316.000      44.6033      1939.96      6516.12      19635.0      78809.4      113498.      5.00000
      27.0000      157.000      25.9226      1548.50      5152.29      15977.3      77050.8      113485.      5.00000
      519.000      951.000      73.1652      1378.17      4830.01      16060.1      77154.9      113492.      5.00000
      1012.00      563.000      18.8779      1142.95      4065.41      13801.5      74120.9      113499.      5.00000
      210.000      792.000      69.2919      1404.96      5021.96      16473.3      76695.5      113501.      5.00000
      598.000      415.000      58.5207      1443.96      4962.96      15968.4      76118.0      113499.      5.00000
      353.000      817.000      78.1841      1080.94      3874.23      13486.1      73370.1      113495.      5.00000
      206.000      72.0000      5.94745      1571.24      5183.57      15804.3      74490.5      113501.      5.00000
      554.000      175.000      17.3557      127.804      285.662      413.522      64095.6      113491.      5.00000
      518.000      314.000      19.3849      1578.06      5291.15      16408.2      75023.2      113496.      5.00000
      212.000      543.000      29.4179      1075.67      3713.31      12398.5      70693.3      113498.      5.00000
      597.000      612.000      41.0722      2096.86      7081.48      21353.1      75893.3      110666.      5.00000
      289.000      987.000      52.2626      1196.12      4271.95      14202.8      71129.0      113345.      5.00000
      238.000      409.000      32.3105      1006.51      3797.62      12602.5      64295.0      112862.      5.00000
      239.000      948.000      67.1314      1073.39      4066.87      13965.5      70164.9      112520.      5.00000
      196.000      538.000      53.9527      1003.08      3749.61      12455.9      68750.4      113489.      5.00000
      176.000      663.000      47.6241      1008.14      3715.16      12600.4      68257.5      113498.      5.00000
      293.000      642.000      53.9064      1399.50      4822.35      15514.2      70885.6      113499.      5.00000
      29.0000      605.000      40.5491      1267.73      4416.62      14064.0      68829.0      110122.      5.00000
      685.000      840.000      72.8602      1195.92      4305.91      13839.3      68258.0      113488.      5.00000
      232.000      277.000      15.2066      1279.83      4506.63      13880.1      67703.4      113494.      5.00000
      630.000      841.000      46.2046      1067.36      3967.53      13341.4      66528.8      113463.      5.00000
      239.000      526.000      58.6252      977.265      3497.97      11522.6      63846.5      113502.      5.00000
      898.000      537.000      38.6164      1066.22      3970.29      13235.5      65392.0      113170.      5.00000
      110.000      1007.00      56.0309      507.297      3798.32      13188.2      65369.3      110198.      5.00000
      655.000      969.000      64.7113      887.199      3324.67      11580.7      64049.2      113496.      5.00000
      139.000      210.000      15.2883      1415.16      4734.69      14230.3      66229.9      112603.      5.00000
      732.000      346.000      32.1637      1363.55      4467.82      13879.5      65453.8      111090.      5.00000
      278.000      928.000      78.2436      955.174      3570.04      12026.9      63635.3      110678.      5.00000
      675.000      364.000      29.1784      1198.67      4253.49      13462.9      64981.3      113226.      5.00000
      633.000      123.000    0.0685882      1415.09      4696.14      14276.7      65433.4      111308.      5.00000
      804.000      537.000      27.4966      1191.15      4289.56      13566.8      64691.3      111964.      5.00000
      625.000      654.000      37.7742      1095.49      3834.52      12868.6      63892.3      110733.      5.00000
      57.0000      393.000      35.6191      1156.70      4020.45      12725.8      63193.3      109820.      5.00000
      632.000      453.000      16.2063      957.973      3541.50      11752.3      62029.0      110716.      5.00000
      239.000      74.0000      13.2177      1401.27      4693.67      14345.2      64809.7      112049.      5.00000
      178.000      169.000      25.5192      1050.05      3609.30      11200.0      60717.0      113502.      5.00000
      295.000      583.000      44.7768      922.427      3379.04      10909.2      59564.2      109777.      5.00000
      864.000      553.000      32.7298      898.526      3124.12      10481.0      57776.2      110741.      5.00000
      999.000      454.000      34.0932      820.423      3000.77      9883.57      54471.9      108844.     -1.00000
      569.000      760.000      55.2973      1168.55      4231.04      13672.9      64433.0      108947.     -1.00000
      547.000      370.000      35.9666      1553.79      5245.38      16034.2      67545.3      108492.     -1.00000
      86.0000      392.000      22.6533      990.346      3459.83      11109.3      58981.6      107658.     -1.00000
      190.000      25.0000      5.64912      1228.71      4242.01      12892.0      60447.1      107128.     -1.00000
      131.000      429.000      29.5491      940.216      3475.56      11309.6      57795.5      106685.     -1.00000
      31.0000      908.000      58.5985      1184.83      4343.12      14681.5      71694.6      106859.     -1.00000
      13.0000      426.000      51.7677      1148.17      4105.57      13159.1      62285.4      106275.     -1.00000
      911.000      495.000      51.7467      778.881      2752.74      9133.28      52861.7      105686.     -1.00000
      974.000      903.000      43.2134      906.718      3379.22      11522.9      59558.5      106122.     -1.00000
      268.000      77.0000      2.29630      1430.61      4664.22      13838.9      61274.0      104624.     -1.00000
      264.000      275.000      20.4747      1546.13      5208.64      15640.6      65431.3      104386.     -1.00000
      743.000      333.000      12.8070      1208.65      4274.92      13551.9      62404.2      104412.     -1.00000
      465.000      787.000      49.0917      854.240      3046.57      10030.4      55120.2      104804.     -1.00000
      131.000      610.000      43.8666      907.002      3242.68      10794.1      56130.5      104229.     -1.00000
      198.000      682.000      60.7742      1969.93      6789.17      20213.3      71422.7      103352.     -1.00000
      398.000      742.000      37.7797      909.508      3930.44      12650.0      59891.9      102299.     -1.00000
      185.000      14.0000      6.43446      1548.65      5078.74      14926.2      61573.1      101255.     -1.00000
      482.000      17.0000      21.2482      1006.33      3447.29      10865.5      50536.3      101044.     -1.00000
      270.000      26.0000      15.3806      981.875      3432.46      10598.9      54072.3      100907.     -1.00000
      912.000      647.000      21.9755      652.469      2301.52      8012.85      47544.9      101160.     -1.00000
      208.000      776.000      52.0907      852.856      2976.28      10204.6      54131.9      101268.     -1.00000
      378.000      741.000      56.9771      854.839      3112.67      10731.5      55144.5      99752.3     -1.00000
      162.000      666.000      51.3548      829.137      3093.39      10541.9      54889.5      98905.9     -1.00000
      690.000      244.000      14.2383      1054.28      3705.76      11623.3      55301.2      97554.4     -1.00000
      682.000      926.000      71.3543      794.689      2778.88      9675.49      52083.4      96538.7     -1.00000
      996.000      806.000      42.7555      725.775      2632.04      9066.97      49574.3      95931.0     -1.00000
      95.0000      485.000      24.0428      765.563      2635.35      8856.58      48086.4      95353.1     -1.00000
      204.000      490.000      34.4236      1098.20      3707.79      11732.4      54921.5      94823.5     -1.00000
      1016.00      482.000      32.0889      890.675      2899.35      9559.56      49457.8      94553.1     -1.00000
      887.000      678.000      23.8572      734.001      2603.50      8923.63      48826.0      94586.0     -1.00000
      511.000      127.000      14.3428      90.4411      199.684      395.995      41240.0      93987.8     -1.00000
      641.000      14.0000     -7.64862      898.029      3136.27      9784.95      49760.9      93679.3     -1.00000
      718.000      160.000      8.02270      870.463      2939.55      9325.48      49267.8      93540.0     -1.00000
      899.000      604.000      35.5744      1160.70      4127.50      13259.7      56038.1      93905.9     -1.00000
      518.000      859.000      65.2505      341.291      617.778      1205.35      40071.9      113492.      5.00000
      44.0000      6.00000      28.1844      1011.23      3404.83      10461.7      50815.9      93243.7     -1.00000
      691.000      62.0000      22.5610      1044.10      3550.46      10890.4      51889.3      92851.8     -1.00000
      343.000      725.000      41.7750      346.952      1103.98      3925.67      31778.9      92837.9     -1.00000
      107.000      183.000      13.4610      966.534      3433.12      10661.9      51255.6      92059.9     -1.00000
      393.000      618.000      38.6686      731.057      2534.74      8657.52      47938.9      91608.5     -1.00000
      319.000      366.000      21.3523      1122.69      3780.13      11660.3      54429.3      91055.5     -1.00000
      390.000      983.000      63.7628      811.358      2922.52      9816.17      50621.1      91548.4     -1.00000
      646.000      910.000      65.4361      765.707      2689.63      9319.48      49137.7      91277.9     -1.00000
      25.0000      584.000      25.7824      780.690      2687.41      9058.92      47943.3      90783.3     -1.00000
      175.000      25.0000      6.73385      715.114      2423.56      7671.26      42496.0      90137.8     -1.00000
      588.000      255.000      11.3512      785.350      2705.10      8823.50      46850.2      89920.1     -1.00000
      1018.00      380.000      10.5850      795.565      2859.68      9447.82      49126.8      89622.7     -1.00000
      511.000      125.000      14.6148      45.5961      126.551      217.660      2820.73      89128.0     -1.00000
      44.0000      269.000      22.5476      874.905      3011.96      9259.95      47251.9      88808.6     -1.00000
      586.000      155.000     -7.55416      1004.10      3715.21      11305.2      51374.1      88248.2     -1.00000
      149.000      763.000      51.4225      789.916      2769.71      9614.41      48925.2      88799.8     -1.00000
      784.000      8.00000     -5.92948      882.069      3082.11      9543.35      47316.9      87654.1     -1.00000
      273.000      174.000      17.2067      1048.61      3525.30      10739.1      50305.6      87620.2     -1.00000
      329.000      198.000      11.8194      835.060      2866.52      9127.48      46674.5      87431.0     -1.00000
      651.000      746.000      48.6351      683.828      2376.98      8127.07      45300.4      87780.0     -1.00000
      719.000      37.0000      6.51905      761.200      2640.04      8320.50      44502.2      86843.1     -1.00000
      952.000      923.000      46.0953      660.178      2463.79      8571.62      47076.9      87270.5     -1.00000
      589.000      469.000      26.3828      803.232      2724.12      8815.51      46304.1      86262.9     -1.00000
      907.000      84.0000      2.83929      983.764      3469.57      10712.9      49505.9      85702.7     -1.00000
      466.000      39.0000     -3.81958      941.711      3292.30      10039.1      47773.7      85630.1     -1.00000
      213.000      194.000      28.9973      878.595      3016.84      9615.97      48007.0      85312.6     -1.00000
      544.000      961.000      55.1251      654.678      2407.10      8277.13      46001.7      85980.7     -1.00000
      117.000      400.000      35.3904      722.215      2580.37      8468.50      44759.0      85218.9     -1.00000
      62.0000      417.000      16.4524      947.976      3210.26      10133.4      48523.3      84691.9     -1.00000
      856.000      823.000      48.1716      697.242      2681.44      9356.61      47350.5      84875.7     -1.00000
      732.000      177.000      59.7363      840.380      2837.57      8839.15      44927.1      83706.1     -1.00000
      631.000      32.0000      22.0834      852.132      3042.22      9502.87      46577.2      83397.1     -1.00000
      762.000      536.000      19.7984      702.496      2664.55      9812.43      46424.8      83724.0     -1.00000
      302.000      482.000      21.2447      541.817      1662.09      5489.67      42612.8      83537.0     -1.00000
      365.000      473.000      23.5699      734.953      2634.06      8595.76      44515.9      83310.8     -1.00000
      748.000      440.000      16.5310      748.713      2739.99      9000.62      45485.0      81969.9     -1.00000
      624.000      974.000      79.1687      574.149      2028.80      6955.09      40966.2      82364.8     -1.00000
      65.0000      222.000      40.4783      879.526      3010.85      9409.23      45458.4      81447.9     -1.00000
      20.0000      627.000      27.7870      711.428      2255.52      7580.64      42113.2      81769.4     -1.00000
      193.000      706.000      29.7684      620.969      2168.92      7518.40      42234.5      81373.3     -1.00000
      476.000      192.000      50.0149      738.416      2495.68      8029.31      41992.8      80848.8     -1.00000
      775.000      945.000      50.8040      625.866      2100.24      7355.77      42117.0      81285.7     -1.00000
      776.000      274.000      37.6290      613.468      2081.30      6720.35      36957.0      79799.9     -1.00000
      19.0000      355.000      16.8415      742.535      2436.10      7924.57      41425.8      79533.5     -1.00000
      554.000      173.000     -2.61933      56.7986      145.290      236.732      10050.2      78922.7     -1.00000
      426.000      434.000      28.4127      597.346      2082.62      6663.44      38449.8      79109.4     -1.00000
      17.0000      419.000      23.6503      702.191      2516.12      8062.88      42114.1      78878.9     -1.00000
      113.000      103.000      28.7670      915.253      2966.43      9115.40      43531.2      78511.3     -1.00000
      172.000      77.0000      7.66138      734.114      2575.48      8183.90      41785.9      78112.0     -1.00000
      662.000      623.000      41.0686      590.376      1987.20      6759.81      39203.5      78534.4     -1.00000
      751.000      394.000      22.6570      646.451      2231.45      7201.08      39446.3      78271.7     -1.00000
      126.000      439.000      23.5720      516.670      1900.70      6433.96      37546.6      78190.7     -1.00000
      602.000      231.000      14.0887      655.131      2376.43      7618.23      40341.1      77989.8     -1.00000
      40.0000      513.000      29.5882      714.778      2393.90      7699.08      40399.1      78071.8     -1.00000
      486.000      353.000      62.8274      738.422      2574.80      8029.95      41329.9      77838.1     -1.00000
      508.000      950.000      61.5544      501.116      1668.44      6186.97      38795.1      78237.1     -1.00000
      281.000      753.000      46.7147      585.573      2091.20      7066.79      39256.9      77743.1     -1.00000
      707.000      655.000      39.1228      198.950      799.596      5515.92      59071.5      77497.9     -1.00000
      670.000      99.0000      31.4906      761.878      2582.92      7774.92      39915.5      76952.4     -1.00000
      348.000      584.000      27.0408      581.080      1940.17      6627.92      38062.5      77276.2     -1.00000
      911.000      112.000      3.08015      570.230      1991.44      6492.89      36853.5      76804.7     -1.00000
      785.000      198.000      21.1516      839.527      2966.28      9198.74      43382.8      76743.1     -1.00000
      845.000      827.000      39.7584      585.115      1985.63      7292.14      41091.5      77058.6     -1.00000
      235.000      338.000      20.2147      853.784      2909.02      9555.10      44257.4      76514.9     -1.00000
      732.000      351.000      20.6950      801.909      2718.04      8452.88      41694.9      76404.8     -1.00000
      323.000      210.000      7.66564      741.873      2356.57      7657.80      39884.1      76205.7     -1.00000
      357.000      203.000      8.64745      753.031      2506.97      8084.02      41199.0      75879.6     -1.00000
      175.000      26.0000     -3.67490      556.800      1973.45      6260.68      35023.4      75496.9     -1.00000
      750.000      895.000      47.5426      623.966      2168.21      7449.71      41072.1      76037.4     -1.00000
      552.000      971.000      60.6424      441.503      1512.22      5365.26      33161.6      73145.7     -1.00000
      475.000      445.000      23.6617      577.583      2014.86      6804.37      37816.7      75331.3     -1.00000
      137.000      284.000      18.3197      726.968      2519.44      7947.99      40114.9      75097.7     -1.00000
      746.000      648.000      34.5987      564.219      1867.99      6294.71      36450.3      75314.2     -1.00000
      379.000      609.000      34.9067      588.947      2173.11      6885.00      37824.8      75023.8     -1.00000
      155.000      378.000      26.5014      598.196      2024.87      6868.11      37812.9      74806.2     -1.00000
      869.000      247.000      9.02318      649.653      2198.76      7097.31      38443.3      74653.0     -1.00000
      210.000      476.000      37.3047      614.025      2123.19      7144.00      38804.0      74783.1     -1.00000
      560.000      414.000      25.5182      544.468      2408.39      7805.10      40435.2      74661.0     -1.00000
      896.000      456.000      46.1531      574.302      2258.20      7510.89      39601.6      74596.6     -1.00000
      781.000      619.000      26.7596      636.886      2237.38      7570.99      40400.5      73997.9     -1.00000
      250.000      121.000      11.4552      657.839      2365.38      7482.48      38354.8      73574.4     -1.00000
      854.000      69.0000      5.42333      673.294      2429.99      7701.99      39024.6      73100.6     -1.00000
      860.000      925.000      38.3606      532.726      1958.98      6908.35      37879.2      73379.2     -1.00000
      907.000      991.000      67.0675      859.773      3172.42      10277.1      45709.2      72998.1     -1.00000
      468.000      653.000      43.8369      586.601      1874.64      6463.35      36356.4      72534.8     -1.00000
      522.000      40.0000     -6.70288      528.653      1841.89      6740.60      35352.0      72002.4     -1.00000
      813.000      18.0000      1.83212      731.090      2522.38      7816.85      38859.3      71889.1     -1.00000
      816.000      564.000      18.9846      482.767      1604.70      5443.45      33236.1      72102.0     -1.00000
      899.000      837.000      54.5661      518.266      1866.84      6378.38      36177.3      72152.0     -1.00000
      1014.00      619.000      43.5216      509.339      1732.48      5964.08      35567.8      71774.9     -1.00000
      515.000      977.000      45.7047      543.591      1895.14      6666.49      36812.6      71654.5     -1.00000
      449.000      291.000      18.2547      632.212      2263.04      7302.42      37512.3      71118.9     -1.00000
      982.000      15.0000      13.7768      687.582      2565.67      7878.79      38662.3      70687.8     -1.00000
      646.000      641.000      51.2984      518.993      1736.01      6058.87      34907.4      70718.6     -1.00000
      820.000      198.000      39.2522      612.205      2081.12      6682.26      35562.1      69947.8     -1.00000
      833.000      329.000      24.2493      251.880      439.997      759.487      36272.7      70044.3     -1.00000
      837.000      172.000      1.27101      713.860      2453.05      7860.22      38246.1      69805.0     -1.00000
      894.000      781.000      62.9513      571.141      1994.24      6871.21      37244.4      70133.2     -1.00000
      626.000      890.000      64.3783      500.305      1776.05      6270.31      35885.0      69849.7     -1.00000
      750.000      336.000      16.0314      570.614      2026.40      6766.13      36128.1      69419.4     -1.00000
      55.0000      906.000      64.3855      621.655      2185.62      7353.29      38317.1      69827.1     -1.00000
      604.000      532.000      51.8573      577.740      2030.97      6627.92      35612.3      69406.5     -1.00000
      9.00000      136.000      6.42661      598.215      2006.44      6468.31      34703.7      68981.4     -1.00000
      797.000      220.000     -3.89253      571.271      2185.71      7067.99      36789.1      68959.5     -1.00000
      349.000      949.000      60.2899      527.864      1933.86      6827.09      36570.1      69448.5     -1.00000
      580.000      753.000      44.4253      568.420      1850.42      6497.76      35938.9      69124.7     -1.00000
      489.000      675.000      46.6559      616.526      2209.58      7397.31      37536.1      68839.2     -1.00000
      783.000      337.000      9.43460      639.966      2029.77      6382.43      34394.2      68246.4     -1.00000
      350.000      2.00000      28.5000      725.400      2408.28      7364.57      37267.8      67718.9     -1.00000
      94.0000      466.000      28.6562      541.100      1864.46      6339.07      34758.9      67560.7     -1.00000
      268.000      314.000      22.0829      504.817      1754.45      5838.14      32654.5      67153.2     -1.00000
      97.0000      627.000      34.8723      571.885      1956.94      6510.77      35151.8      66992.6     -1.00000
      812.000      397.000      23.0027      574.142      1971.56      6630.60      34478.6      66824.9     -1.00000
      826.000      893.000      46.4143      541.555      1781.74      5904.41      33315.8      66704.4     -1.00000
      668.000      920.000      54.7551      460.095      1480.70      6179.28      37463.4      66626.2     -1.00000
      74.0000      330.000      40.7971      593.346      2062.27      6580.58      34546.7      66038.7     -1.00000
      358.000      224.000      18.4334      314.389      1068.52      3424.97      24025.0      65779.7     -1.00000
      108.000      686.000      54.3275      530.635      1784.12      5983.93      33069.1      66104.6     -1.00000
      293.000      379.000      15.2745      596.871      1940.17      6571.23      34697.3      65698.2     -1.00000
      677.000      370.000      30.6668      467.365      1674.30      5640.71      32360.3      65626.2     -1.00000
      3.00000      851.000      36.4064      557.430      1863.72      6220.31      34367.3      65799.0     -1.00000
      200.000      374.000      20.6351      568.651      1861.73      6205.05      33311.6      65335.2     -1.00000
      896.000      374.000      15.1115      557.568      1978.63      6538.15      34645.2      65138.6     -1.00000
      339.000      789.000      68.5825      557.426      1815.32      6045.62      32978.3      64834.0     -1.00000
      253.000      50.0000      12.9829      581.328      1943.21      6151.51      32474.2      64314.3     -1.00000
      995.000      339.000      33.8967      667.437      2293.38      7603.69      36688.7      64369.8     -1.00000
      278.000      187.000      11.8361      540.811      1741.41      5747.28      30574.1      64215.9     -1.00000
      125.000      477.000      31.6470      590.730      1960.51      6529.19      33954.1      64215.3     -1.00000
      154.000      725.000      38.0478      485.281      1612.71      5506.30      31723.0      64380.5     -1.00000
      494.000      322.000      33.3558      420.392      1932.65      4821.71      30923.6      63919.7     -1.00000
      150.000      648.000      28.3125      496.081      1749.69      5850.39      31981.7      63971.4     -1.00000
      238.000      96.0000      12.2890      717.016      2475.33      7826.15      36163.4      63501.0     -1.00000
      841.000      382.000      31.5399      525.757      1849.40      6145.10      33150.5      63646.0     -1.00000
      493.000      874.000      56.0475      570.405      1840.43      6321.00      33957.3      63956.9     -1.00000
      683.000      149.000      5.24099      570.107      1934.27      6162.21      32409.2      63232.5     -1.00000
      160.000      635.000      32.3866      564.461      1984.00      6639.15      34424.5      63561.0     -1.00000
      411.000      51.0000      31.1000      563.409      1901.41      6022.45      32050.6      62976.2     -1.00000
      506.000      560.000      30.9973      754.734      2683.06      8906.48      45039.1      63284.1     -1.00000
      356.000      70.0000      9.96234      520.024      1890.91      6378.49      33292.1      62903.8     -1.00000
      359.000      223.000      12.8223      503.762      1870.90      5928.48      31801.2      62989.9     -1.00000
      106.000      252.000      30.9709      724.433      2466.18      7742.73      36034.1      62550.7     -1.00000
      339.000      302.000      18.7270      628.970      2225.13      6984.53      34683.6      62511.3     -1.00000
      107.000      799.000      45.7842      428.927      1450.78      5243.75      30978.3      62745.3     -1.00000
      585.000      354.000      23.4055      461.952      1588.17      5312.42      30564.4      62090.2     -1.00000
      418.000      237.000      20.0895      637.601      2199.27      6804.29      33738.8      62004.6     -1.00000
      386.000      21.0000      8.86537      591.183      1902.85      6054.29      31490.5      61675.2     -1.00000
      990.000      458.000      20.2474      374.484      1429.93      5102.35      29882.7      61868.7     -1.00000
      474.000      559.000      24.3779      573.416      1878.32      6167.15      32255.1      61518.5     -1.00000
      529.000      804.000      55.4543      510.541      1676.40      5548.80      31261.0      61429.1     -1.00000
      154.000      319.000      26.0433      545.220      1954.39      6222.46      32141.7      60972.1     -1.00000
      193.000      305.000      15.9314      480.482      1685.07      5572.97      30395.5      60680.3     -1.00000
      333.000      901.000      51.7223      439.654      1507.51      5143.53      29909.1      60994.9     -1.00000
      648.000      532.000      31.1110      190.006      375.612      654.503      3112.61      60692.2     -1.00000
      497.000      390.000      13.1906      540.723      1876.52      6120.78      31834.7      60587.2     -1.00000
      909.000      161.000      1.44772      403.868      1503.86      5195.20      29001.3      60420.5     -1.00000
      330.000      195.000      19.0268      531.815      1820.99      5688.84      30149.1      60334.6     -1.00000
      868.000      257.000      26.2480      456.188      1537.77      5092.11      28631.1      60294.6     -1.00000
      289.000      420.000      21.4522      595.238      2066.53      6631.27      32947.0      60126.2     -1.00000
      602.000      587.000      53.5130      536.242      1730.33      5728.81      29813.7      60230.3     -1.00000
      1002.00      897.000      56.3047      412.177      1478.95      5309.31      30661.0      60253.5     -1.00000
      922.000      786.000      44.3075      402.252      1345.45      4461.05      26473.7      58051.6     -1.00000
      75.0000      421.000      14.0234      479.120      1625.36      5382.41      29937.7      59471.8     -1.00000
      420.000      156.000      31.5882      503.969      1681.17      5539.20      29785.2      59251.5     -1.00000
      431.000      741.000      40.3261      502.396      1622.76      5312.33      29884.5      59526.3     -1.00000
      679.000      128.000      15.6806      493.435      1760.97      5683.33      30036.6      58902.6     -1.00000
      600.000      592.000      46.4399      503.958      1669.14      5640.04      30714.3      59175.2     -1.00000
      413.000      579.000      30.6792      248.061      513.954      908.781      8979.40      59064.2     -1.00000
      382.000      161.000      25.8407      418.783      1491.99      4868.39      27668.1      58607.4     -1.00000
      800.000      542.000      33.9542      498.652      1738.49      5700.10      30515.5      58760.4     -1.00000
      971.000      46.0000      10.5377      496.387      1729.61      5554.12      29534.6      58241.8     -1.00000
      674.000      645.000      22.4238      556.316      1859.53      6488.33      32621.0      58437.6     -1.00000
      140.000      452.000      19.0962      323.021      1029.10      3327.56      28714.3      57846.4     -1.00000
      206.000      104.000      9.04099      491.603      1803.36      5572.12      29636.8      57488.8     -1.00000
      556.000      198.000      14.5713      100.962      230.750      384.969      1713.32      57409.3     -1.00000
      473.000      458.000      40.5603      250.144      465.552      774.031      10276.1      57348.4     -1.00000
      940.000      335.000      9.89627      474.908      1596.79      5315.47      28842.0      57201.9     -1.00000
      366.000      50.0000      4.82606      476.198      1593.98      5049.27      27846.5      56990.4     -1.00000
      213.000      240.000      21.1978      474.250      1626.49      5379.89      28686.4      57001.4     -1.00000
      287.000      352.000      14.1139      438.129      1379.69      4529.41      26583.4      56765.1     -1.00000
      482.000      844.000      58.7335      419.610      1404.75      5060.23      28547.5      57007.6     -1.00000
      888.000      986.000      47.0284      370.508      1253.54      4457.34      28149.6      57088.6     -1.00000
      83.0000      250.000     -4.28461      595.265      1930.38      6271.84      30838.5      56578.1     -1.00000
      833.000      136.000      12.8844      487.445      1654.81      5434.77      28688.6      56204.1     -1.00000
      991.000      946.000      53.5355      397.431      1359.46      4759.46      28191.7      56562.5     -1.00000
      349.000      978.000      56.4671      425.033      1481.21      5040.14      28105.5      56519.3     -1.00000
      300.000      655.000      47.0189      406.148      1464.98      4369.24      26667.2      56130.7     -1.00000
      893.000      627.000      50.6157      670.140      1712.14      5366.01      27840.2      56046.0     -1.00000
      354.000      280.000      35.1758      416.328      1426.49      4536.28      25958.0      55662.5     -1.00000
      971.000      755.000      39.4501      410.441      1407.53      4854.60      28080.9      55724.5     -1.00000
      733.000      26.0000      1.61995      467.328      1573.24      5086.33      27300.4      55209.2     -1.00000
      791.000      327.000      14.0593      471.988      1708.00      5527.46      28777.7      55364.3     -1.00000
      1013.00      608.000      25.4018      445.533      1560.21      5240.27      28347.0      55347.0     -1.00000
      537.000      652.000      37.4202      412.913      1301.97      4634.47      27223.2      55357.2     -1.00000
      952.000      695.000      26.0057      405.769      1307.41      4523.25      26620.6      55349.3     -1.00000
      538.000      317.000      15.9378      471.843      1656.87      5422.75      28259.3      54754.0     -1.00000
      441.000      22.0000      23.6299      429.255      1439.31      4708.91      25948.0      54537.5     -1.00000
      234.000      803.000      40.0356      443.111      1469.59      4848.49      27292.2      54857.2     -1.00000
      1012.00      1007.00      50.5636      367.457      1244.67      4559.22      27395.5      54831.6     -1.00000
      423.000      956.000      89.3122      312.820      607.657      1200.22      13504.7      54705.1     -1.00000
      817.000      923.000      65.1854      415.445      1354.93      4760.68      27460.4      54546.5     -1.00000
      437.000      657.000      42.7673      397.075      1329.47      4603.15      26734.9      54360.0     -1.00000
      298.000      451.000      27.8699      473.696      1576.45      5279.83      28220.1      54057.3     -1.00000
      1022.00      161.000      8.36729      456.504      1600.04      5283.63      27791.9      53878.8     -1.00000
      180.000      418.000      24.7548      437.991      1483.90      4978.59      27048.3      54010.6     -1.00000
      814.000      283.000      10.6402      542.322      1785.24      5737.31      28723.7      53804.0     -1.00000
      933.000      495.000      24.1769      382.209      1346.59      4517.63      25819.4      53483.8     -1.00000
      722.000      564.000      37.5611      435.379      1393.75      4685.39      26410.4      53408.9     -1.00000
      223.000      974.000      69.5643      459.464      1426.62      4983.54      28067.2      53549.0     -1.00000
      196.000      915.000      64.6294      393.670      1235.54      4188.72      25262.2      53456.2     -1.00000
      548.000      845.000      64.8229      388.678      1299.87      4455.66      26168.1      53354.2     -1.00000
      684.000      898.000      66.9462      370.812      1181.58      4100.65      25668.3      53020.0     -1.00000
      802.000      375.000      17.5723      424.528      1411.56      4644.35      25836.8      52579.5     -1.00000
      113.000      618.000      48.8129      411.559      1306.18      4506.25      25884.3      52534.8     -1.00000
      124.000      972.000      65.7841      569.406      1780.02      5698.27      28346.7      52466.4     -1.00000
      87.0000      181.000      5.87954      436.089      1550.87      4918.32      26182.5      51822.2     -1.00000
      72.0000      178.000      36.5645      470.983      1213.84      3900.99      25400.8      51744.4     -1.00000
      779.000      712.000      42.1880      371.291      1173.14      3716.89      21931.3      48756.8     -1.00000
      999.000      196.000      21.6170      447.102      1477.34      4763.46      25782.2      51608.9     -1.00000
      413.000      34.0000      6.34147      406.159      1415.17      4545.66      23311.5      51509.1     -1.00000
      828.000      681.000      35.2319      457.903      1441.95      4803.36      26294.9      51623.8     -1.00000
      471.000      552.000      24.2850      420.037      1430.37      4840.21      26237.3      51530.3     -1.00000
      399.000      297.000      6.28707      458.209      1530.12      5036.65      26596.5      51215.4     -1.00000
      48.0000      920.000      46.9716      356.100      1131.92      3895.09      23496.4      51070.9     -1.00000
      13.0000      288.000      15.1802      429.816      1411.69      4636.87      25633.4      50666.9     -1.00000
      449.000      824.000      48.2744      389.806      1295.32      4486.60      25619.2      50910.0     -1.00000
      636.000      793.000      35.5618      460.728      1433.10      4864.37      26904.6      50863.6     -1.00000
      229.000      941.000      53.0729      374.750      1195.16      3986.03      24198.1      50894.3     -1.00000
      523.000      664.000      56.5005      395.220      1183.00      3576.26      23295.0      50735.1     -1.00000
      163.000      159.000      11.8345      459.625      1478.93      4915.08      25614.7      50450.7     -1.00000
      173.000      344.000      23.6179      387.209      1303.60      4320.70      23647.6      50429.3     -1.00000
      974.000      538.000      24.7299      383.753      1277.75      4264.08      24547.7      50484.1     -1.00000
      961.000      252.000      40.9763      396.498      1368.15      4477.77      24503.3      50213.5     -1.00000
      583.000      9.00000     -20.2222      353.362      1309.63      4280.86      23304.9      49944.2     -1.00000
      358.000      228.000      8.85353      443.062      1453.77      4629.78      24421.3      49952.4     -1.00000
      690.000      144.000      22.1392      496.309      1671.96      5399.95      27050.6      49647.5     -1.00000
      403.000      37.0000      12.2103      326.916      1251.57      4321.32      23306.4      49533.8     -1.00000
      897.000      155.000      4.22007      410.310      1441.81      4631.29      24883.3      49527.2     -1.00000
      276.000      938.000      51.1863      436.443      1322.69      4843.50      28098.8      49772.9     -1.00000
      618.000      759.000      34.6915      372.491      1188.82      3960.68      23709.3      49612.5     -1.00000
      728.000      585.000      42.3769      412.960      1287.08      4313.40      24537.6      49343.9     -1.00000
      248.000      662.000      24.3497      121.969      276.323      783.175      23474.0      49040.3     -1.00000
      691.000      696.000      36.7617      388.202      1267.94      4219.84      24246.3      49049.9     -1.00000
      749.000      834.000      63.4166      390.962      1215.21      4106.84      23722.7      48867.4     -1.00000
      735.000      955.000      59.9785      388.662      1224.33      4093.26      24214.3      48811.6     -1.00000
      313.000      809.000      47.6875      399.576      1382.68      4321.92      24349.1      48733.1     -1.00000
      807.000      918.000      61.5055      375.166      1081.76      3815.01      23492.1      48714.9     -1.00000
      712.000      848.000      61.7836      371.317      1223.50      3910.75      23080.1      48540.4     -1.00000
      855.000      1021.00      53.8434      364.157      1140.39      3880.69      23291.6      48467.8     -1.00000
      963.000      861.000      58.1326      349.345      1137.77      3909.73      23838.9      48214.4     -1.00000
      548.000      36.0000      1.18766      415.919      1441.25      4567.09      24160.7      47783.4     -1.00000
      85.0000      62.0000      5.24990      407.183      1325.79      4160.96      22940.3      47796.0     -1.00000
      902.000      703.000      35.7146      398.342      1315.00      4479.73      24435.3      47908.4     -1.00000
      501.000      563.000      24.1764      347.202      1194.83      3939.12      23081.7      47820.0     -1.00000
      221.000      285.000      17.5383      381.227      1369.31      4545.36      24049.3      47674.5     -1.00000
      460.000      163.000     -2.24151      391.769      1365.24      4308.84      23475.7      47572.5     -1.00000
      474.000      539.000      59.2305      363.735      1115.92      3687.35      23726.5      47694.4     -1.00000
      49.0000      686.000      35.9631      466.410      1453.95      4985.71      25623.1      47690.6     -1.00000
      179.000      886.000      50.6613      397.183      1225.42      4242.63      23608.8      47594.4     -1.00000
      477.000      11.0000      1.16930      408.929      1439.68      4506.60      23612.4      47027.0     -1.00000
      378.000      87.0000      12.5030      421.432      1425.97      4614.22      24091.7      47039.4     -1.00000
      40.0000      721.000      40.4473      354.836      1198.43      3925.82      22449.1      47220.7     -1.00000
      403.000      218.000      22.6388      355.817      1271.34      4094.24      22459.4      46794.1     -1.00000
      349.000      772.000      58.0564      202.731      437.410      823.291      1789.82      46996.8     -1.00000
      394.000      73.0000      12.2238      378.780      1274.71      4092.97      22281.1      46629.7     -1.00000
      703.000      458.000      28.5039      392.405      1319.50      4132.00      23247.6      46772.7     -1.00000
      258.000      770.000      50.9842      417.439      1382.48      4794.84      25383.0      46909.4     -1.00000
      734.000      62.0000      30.9439      394.342      1376.34      4376.18      23338.2      46149.5     -1.00000
      397.000      374.000      20.4766      405.051      1287.14      4137.49      22784.9      46227.8     -1.00000
      259.000      133.000      11.1447      88.9929      207.060      361.887      1454.29      46078.1     -1.00000
      842.000      713.000      38.2431      149.155      335.567      533.110      1469.25      46351.7     -1.00000
      540.000      163.000      5.97960      373.557      1204.91      3903.20      21790.7      46005.6     -1.00000
      117.000      372.000      6.91069      339.554      1105.36      3705.75      21387.8      46210.9     -1.00000
      53.0000      501.000      29.3033      366.171      1093.27      3773.44      21926.5      46075.4     -1.00000
      637.000      443.000      24.8365      353.612      1144.58      3816.98      21632.8      46029.2     -1.00000
      673.000      38.0000     -1.83851      388.363      1303.52      4193.85      22496.3      45792.3     -1.00000
      938.000      389.000      3.80204      437.665      1342.86      4432.68      23526.7      45961.5     -1.00000
      573.000      498.000      36.3985      397.093      1222.94      4040.82      22619.2      45932.8     -1.00000
      785.000      438.000      25.1059      360.382      1122.93      3693.05      21278.3      45906.2     -1.00000
      810.000      104.000      44.6003      373.157      1313.19      4266.27      22586.4      45657.1     -1.00000
      46.0000      175.000      33.5901      410.309      1388.34      4460.21      23642.5      45644.7     -1.00000
      38.0000      338.000      20.8842      430.719      1435.61      4588.08      23797.8      45579.4     -1.00000
      889.000      953.000      41.2364      357.087      1184.37      3924.18      22777.2      45681.8     -1.00000
      394.000      914.000      44.5054      362.414      1074.11      3737.64      22391.4      48931.4     -1.00000
      965.000      673.000      37.1826      344.031      1088.24      3524.57      21117.9      45400.2     -1.00000
      164.000      894.000      51.0054      384.490      1163.87      4047.53      23157.2      45452.8     -1.00000
      788.000      101.000      8.41654      361.142      1212.11      4199.51      22385.1      45013.8     -1.00000
      160.000      554.000      18.0859      347.194      1217.16      3982.57      21996.4      45079.6     -1.00000
      846.000      830.000      59.4746      404.830      1248.71      4247.17      23180.9      45170.2     -1.00000
      549.000      728.000      54.9514      402.568      1244.10      4147.43      22383.0      45087.2     -1.00000
      147.000      861.000      51.5950      391.192      1191.09      4039.20      22753.7      45050.3     -1.00000
      619.000      494.000      27.3377      380.561      1243.58      4172.51      22601.5      44784.9     -1.00000
      868.000      13.0000      16.8043      414.580      1481.34      4625.65      23286.9      44370.2     -1.00000
      732.000      577.000      59.2781      392.404      1117.96      3765.24      21574.0      44608.6     -1.00000
      383.000      257.000      16.6532      366.137      1210.48      3912.27      21821.5      44424.3     -1.00000
      538.000      619.000      40.8631      318.201      1023.33      3495.00      20722.5      44479.1     -1.00000
      472.000      475.000      22.1114      348.306      1105.51      3824.85      21702.3      44367.7     -1.00000
      582.000      354.000      17.8497      362.319      1196.83      3896.15      21507.8      44156.1     -1.00000
      806.000      136.000      1.36316      336.964      1122.05      3746.74      20910.1      44032.4     -1.00000
      858.000      215.000      45.3058      344.161      1196.58      3994.14      21795.6      44034.8     -1.00000
      423.000      954.000      48.8538      93.3486      172.249      243.180      494.325      44293.6     -1.00000
      524.000      212.000      18.4831      406.762      1386.68      4493.81      22873.1      43882.7     -1.00000
      72.0000      429.000      18.5277      381.739      1196.60      3919.33      21773.5      43786.8     -1.00000
      22.0000      494.000      24.6983      345.341      1144.50      3564.43      20547.5      43530.9     -1.00000
      894.000      576.000      19.2583      338.345      1109.38      3774.89      21134.0      43549.8     -1.00000
      249.000      519.000      32.2388      354.782      1170.78      3999.35      21792.4      43452.8     -1.00000
      973.000      578.000      24.8731      360.886      1193.70      3770.03      21635.6      43432.2     -1.00000
      330.000      298.000      8.49719      394.277      1275.67      4086.24      21685.1      43268.3     -1.00000
      324.000      751.000      37.1436      343.262      1054.63      3607.36      21345.3      43428.5     -1.00000
      283.000      219.000      10.2605      345.182      1135.46      3679.56      20473.7      43025.0     -1.00000
      515.000      290.000      52.1903      382.725      1379.03      4425.89      21546.5      43021.8     -1.00000
      650.000      233.000      12.5071      357.013      1251.46      4035.40      21635.3      42991.8     -1.00000
      385.000      611.000      79.1948      339.963      1109.71      3697.37      21045.7      43136.5     -1.00000
      994.000      577.000      11.4840      362.094      1087.16      3776.61      21425.4      43111.8     -1.00000
      934.000      993.000      36.6382      322.826      1052.15      3733.23      21775.7      43298.0     -1.00000
      856.000      763.000      39.1743      333.849      985.946      3486.35      21108.1      43172.2     -1.00000
      1003.00      454.000      23.4238      370.026      1306.50      4424.41      23171.8      42992.9     -1.00000
      1002.00      785.000      17.9655      348.670      1088.30      3693.39      21069.0      43141.5     -1.00000
      920.000      186.000      6.96646      350.315      1296.74      4273.39      22257.5      42615.9     -1.00000
      400.000      356.000      23.6781      365.162      1134.73      3770.26      21530.3      42668.5     -1.00000
      62.0000      367.000      23.6619      345.140      1228.14      3857.46      20967.5      42669.8     -1.00000
      536.000      286.000      21.5512      373.966      1275.59      3983.36      21462.9      42541.8     -1.00000
      541.000      1015.00      74.0104      327.675      1052.79      3710.47      21733.3      42870.7     -1.00000
      939.000      660.000      26.1719      308.228      1005.77      3575.31      21039.6      42631.6     -1.00000
      498.000      299.000      17.3909      316.817      1075.25      3484.79      20033.4      42412.6     -1.00000
      833.000      327.000      2.10093      48.6213      158.439      213.102      599.349      42358.3     -1.00000
      78.0000      987.000      41.3267      345.567      998.007      3265.94      20068.6      42606.0     -1.00000
      864.000      864.000      57.2327      347.272      1076.68      3568.94      20817.5      42520.2     -1.00000
      874.000      37.0000     -9.75550      351.238      1198.17      3824.17      20666.3      42128.9     -1.00000
      83.0000      346.000      20.6729      324.255      1061.85      3580.72      20165.0      42158.5     -1.00000
      434.000      738.000      62.8985      324.933      1047.92      3503.60      20492.6      42300.9     -1.00000
      417.000      397.000      30.7382      391.230      1274.51      4086.02      21474.1      42090.1     -1.00000
      897.000      560.000      42.4197      364.866      1164.68      3650.33      20719.4      42059.9     -1.00000
      572.000      255.000      29.9064      488.613      1560.34      4988.69      23027.3      41803.3     -1.00000
      670.000      45.0000      1.33346      392.924      1297.80      4169.69      21436.5      41612.4     -1.00000
      663.000      668.000      39.4349      380.147      1198.64      3895.43      21232.7      41873.0     -1.00000
      794.000      178.000     -1.93213      304.358      1087.46      3434.29      19854.1      41650.0     -1.00000
      705.000      439.000      23.3578      348.000      1139.47      3847.28      20431.1      41743.9     -1.00000
      84.0000      806.000      46.5431      195.571      564.149      1707.84      10066.9      41865.9     -1.00000
      377.000      252.000      11.8673      349.268      1227.98      3778.63      20455.5      41547.5     -1.00000
      383.000      635.000      35.0109      348.872      1065.35      3687.91      21560.6      41704.2     -1.00000
      719.000      114.000      19.8792      394.405      1423.44      4433.58      22149.3      41436.9     -1.00000
      586.000      158.000      10.0688      363.133      1188.08      3753.68      20090.5      41322.0     -1.00000
      505.000      972.000      49.7077      333.708      972.369      3122.35      19201.5      41604.7     -1.00000
      979.000      968.000      35.9394      314.350      1037.59      3691.47      20495.4      41558.5     -1.00000
      601.000      457.000      33.9449      309.278      1040.01      3424.95      19658.7      41292.5     -1.00000
      740.000      184.000      23.8604      358.919      1166.86      3747.19      20246.2      41168.3     -1.00000
      45.0000      2.00000      13.7953      403.646      1356.03      4290.41      21470.8      40990.1     -1.00000
      456.000      288.000      13.8563      361.830      1221.77      4161.62      21883.0      41052.6     -1.00000
      159.000      202.000      26.3851      395.251      1275.45      4089.33      21060.7      40940.4     -1.00000
      914.000      523.000      41.1523      340.502      1086.26      3499.25      20032.1      41001.1     -1.00000
      611.000      392.000      26.1611      348.685      1020.62      3376.21      19341.3      40830.3     -1.00000
      168.000      603.000      35.5743      357.700      1074.20      3714.53      21424.0      40891.6     -1.00000
      849.000      118.000      30.2694      313.091      1102.78      3514.22      19648.0      40571.6     -1.00000
      436.000      910.000      54.8025      313.213      986.231      3356.36      19955.2      40915.8     -1.00000
      947.000      52.0000      17.1813      28.8173      125.929      180.918      504.405      40465.9     -1.00000
      672.000      145.000     -4.52985      350.552      1156.95      3705.64      19559.6      40376.6     -1.00000
      921.000      744.000      39.5199      339.402      1111.61      3763.02      20538.9      40597.2     -1.00000
      515.000      915.000      53.4873      323.778      946.227      3368.98      19701.5      40630.3     -1.00000
      789.000      426.000      20.0051      329.281      1035.45      3468.40      19194.3      40232.2     -1.00000
      567.000      524.000      59.7168      368.540      1117.07      3698.16      20118.1      40246.4     -1.00000
      910.000      1005.00      44.4090      281.463      826.135      3028.88      18983.6      40412.0     -1.00000
      438.000      617.000      46.1429      349.894      1034.76      3431.24      19456.6      40185.1     -1.00000
      780.000      518.000      33.8698      338.215      1035.96      3478.89      19691.1      40042.8     -1.00000
      70.0000      198.000      40.0250      344.345      1106.87      3594.50      19434.7      39794.3     -1.00000
      1002.00      688.000      51.0822      852.029      3048.12      9250.68      29352.7      39946.1     -1.00000
      487.000      773.000      48.0237      275.551      814.714      2638.93      16541.8      37397.0     -1.00000
      1011.00      303.000      6.99798      313.448      985.067      3276.02      18495.1      39811.1     -1.00000
      203.000      156.000     0.460268      327.730      1063.88      3544.82      19226.2      39638.9     -1.00000
      177.000      167.000      36.9124      322.035      1057.86      3503.53      19130.5      39386.6     -1.00000
      38.0000      370.000      22.9769      347.501      1136.95      3644.41      19275.7      39466.8     -1.00000
      464.000      883.000      41.9720      318.881      951.022      3201.36      19286.4      39677.4     -1.00000
      180.000      840.000      50.6020      297.874      878.014      3026.52      18203.8      39646.5     -1.00000
      792.000      1008.00      82.5823      648.144      1162.03      1787.29      17380.5      39678.3     -1.00000
      661.000      848.000      60.0015      308.299      991.292      3122.65      18687.5      39609.0     -1.00000
      364.000      114.000      3.79870      424.561      1309.38      4074.37      20749.7      39252.0     -1.00000
      536.000      746.000      51.6502      316.880      969.059      3160.45      18737.5      39510.5     -1.00000
      721.000      540.000      61.1617      340.843      1011.49      3361.65      19138.6      39338.1     -1.00000
      639.000      538.000      27.1291      333.240      955.737      3124.72      18155.7      39124.7     -1.00000
      535.000      689.000      38.3933      354.366      1090.31      3484.50      19534.1      39117.4     -1.00000
      379.000      843.000      40.4238      288.677      1025.17      3517.28      19787.2      39140.9     -1.00000
      373.000      677.000      47.6178      312.441      975.228      3176.61      18556.7      38996.9     -1.00000
      549.000      715.000      36.8103      368.715      1024.78      3310.19      19067.1      39003.7     -1.00000
      553.000      1019.00      71.3199      289.979      871.343      3057.96      18608.8      39104.5     -1.00000
      482.000      595.000      28.5457      310.454      930.711      3245.58      18816.4      38871.2     -1.00000
      125.000      390.000      56.1349      324.448      1025.66      3292.05      18524.1      38464.8     -1.00000
      791.000      209.000     0.545387      322.764      1144.14      3580.82      19105.3      38231.1     -1.00000
      449.000      680.000      43.5724      291.234      933.949      3215.00      18598.4      38325.8     -1.00000
      848.000      835.000      38.0523      345.380      966.089      3328.24      19545.9      38383.1     -1.00000
      769.000      358.000      16.4610      301.325      987.463      3153.90      17956.9      38173.5     -1.00000
      181.000      101.000      17.3164      357.557      1243.00      4067.31      19865.4      37893.7     -1.00000
      496.000      782.000      37.4477      276.262      906.476      2964.30      17866.1      38123.4     -1.00000
      615.000      147.000      13.1058      333.942      1087.19      3514.91      18839.3      37798.0     -1.00000
      909.000      125.000      12.7613      287.838      1054.19      3369.68      18258.7      37760.5     -1.00000
      793.000      110.000      20.6678      321.385      1156.71      3594.33      19032.7      37696.1     -1.00000
      567.000      295.000      13.6283      305.445      1077.08      3346.96      18536.6      37582.2     -1.00000
      149.000      759.000      32.0778      339.571      1007.02      3351.18      18614.4      37635.5     -1.00000
      657.000      33.0000     -9.63326      332.228      1114.78      3466.52      18494.2      37247.6     -1.00000
      112.000      357.000      18.2700      339.025      1066.21      3548.64      18702.6      37347.5     -1.00000
      740.000      212.000      2.45996      328.698      1131.75      3417.55      18284.9      37239.4     -1.00000
      408.000      578.000      30.8341      317.484      981.145      3101.76      17934.7      37359.6     -1.00000
      321.000      839.000      45.1860      283.151      844.585      2819.95      17364.9      37431.9     -1.00000
      908.000      592.000      18.8319      324.655      951.201      3232.71      18158.9      37301.5     -1.00000
      371.000      307.000      9.15702      301.682      1024.04      3185.42      17683.5      37143.0     -1.00000
      574.000      827.000      47.9537      313.374      919.830      2884.77      17330.4      37336.9     -1.00000
      669.000      867.000      52.5759      320.645      988.937      3210.81      18401.0      37287.7     -1.00000
      382.000      814.000      40.1258      314.613      866.936      2874.09      17887.2      37218.6     -1.00000
      306.000      131.000      13.4512      308.694      989.859      3243.82      17666.7      36946.4     -1.00000
      169.000      539.000      12.6100      322.100      1001.43      3246.94      18006.2      37098.9     -1.00000
      765.000      21.0000     -3.40862      308.682      1043.73      3294.51      17825.4      36857.3     -1.00000
      89.0000      922.000      50.6858      284.139      850.107      2639.11      16419.3      36027.8     -1.00000
      987.000      41.0000      5.02696      274.559      944.242      3038.08      17110.9      36588.2     -1.00000
      537.000      256.000      15.4375      315.867      997.278      3287.64      17959.1      36618.7     -1.00000
      742.000      83.0000      16.9294      278.116      1030.70      3170.04      17368.6      36471.1     -1.00000
      1.00000      565.000      23.3841      321.884      1104.73      3570.60      18967.3      36384.8     -1.00000
      876.000      717.000      42.4004      293.110      879.668      3008.74      17502.7      36360.7     -1.00000
      734.000      477.000      28.5470      308.344      980.295      3131.37      17721.7      36138.8     -1.00000
      603.000      359.000      3.60384      273.155      900.248      2790.48      16253.0      35369.9     -1.00000
      403.000      664.000      39.0717      335.441      1046.44      3376.07      18157.7      36141.2     -1.00000
      2.00000      121.000      16.7377      419.569      1506.90      4781.66      20069.9      35901.9     -1.00000
      365.000      371.000      24.8314      333.354      1024.87      3224.32      17477.8      35956.6     -1.00000
      294.000      860.000      53.3045      276.415      892.527      2877.26      17062.8      36133.3     -1.00000
      773.000      74.0000      33.5396      300.791      1030.25      3279.22      17512.5      35743.3     -1.00000
      710.000      19.0000      11.0291      314.403      1059.27      3382.65      17647.9      35709.8     -1.00000
      760.000      189.000      10.7039      296.603      987.771      3066.00      17090.6      35761.6     -1.00000
      491.000      212.000      9.57757      312.441      1011.49      3240.20      17528.4      35763.8     -1.00000
      795.000      138.000      9.49963      336.003      1104.15      3416.15      17916.7      35724.9     -1.00000
      154.000      972.000      53.9763      315.776      930.509      3030.16      17664.2      35787.8     -1.00000
      959.000      282.000      7.31368      296.534      973.324      3199.50      17281.4      35505.8     -1.00000
      876.000      0.00000      9.00413      315.827      1009.90      3206.90      17059.1      35288.9     -1.00000
      879.000      843.000      53.3785      252.111      775.907      2504.63      15615.5      34381.9     -1.00000
      343.000      727.000      36.2506      172.773      339.117      625.123      1640.46      35448.3     -1.00000
      590.000      970.000      59.2002      266.669      825.239      2633.89      16666.7      35529.1     -1.00000
      84.0000      903.000      56.5920      263.231      796.484      2535.85      15541.0      34250.4     -1.00000
      339.000      709.000      45.3802      330.202      1031.71      3211.59      17149.5      35309.0     -1.00000
      943.000      136.000      13.2376      350.348      1216.68      3939.20      19123.2      35084.7     -1.00000
      98.0000      470.000      20.0305      275.055      996.333      2919.54      16964.9      35117.6     -1.00000
      825.000      762.000      43.6556      276.778      866.977      2735.56      16393.6      35223.6     -1.00000
      806.000      942.000      46.1168      279.674      864.444      2601.10      16811.3      35255.7     -1.00000
      55.0000      182.000      16.7064      314.488      1039.81      3299.24      17428.4      34897.0     -1.00000
      193.000      502.000      45.4035      277.680      877.217      2900.36      16966.0      35013.3     -1.00000
      538.000      1018.00      47.4033      258.515      737.803      2618.83      16227.0      35201.7     -1.00000
      487.000      919.000      45.7573      272.612      814.913      2594.94      16203.5      35151.5     -1.00000
      515.000      238.000      22.9770      287.050      1051.94      3257.19      17094.9      34846.7     -1.00000
      311.000      339.000      10.7995      294.945      950.642      2905.54      16047.7      34463.7     -1.00000
      1015.00      105.000      10.7795      236.553      959.434      2877.64      16057.6      34525.6     -1.00000
      64.0000      676.000      46.3197      303.873      923.613      2903.37      16795.4      34955.4     -1.00000
      23.0000      356.000      15.5770      316.977      959.536      3197.79      17538.4      34813.0     -1.00000
      942.000      660.000      28.8855      270.920      875.818      2773.22      16601.0      34918.0     -1.00000
      445.000      249.000      20.8553      311.370      1014.69      3124.98      17109.5      34762.8     -1.00000
      695.000      759.000      45.1721      290.541      796.852      2645.36      16120.5      34944.5     -1.00000
      73.0000      633.000      32.1362      287.500      854.146      2637.77      16446.4      34803.7     -1.00000
      872.000      545.000      21.0585      281.495      872.159      2941.81      16867.6      34726.3     -1.00000
      267.000      6.00000      9.08036      299.983      972.540      3053.88      16685.2      34412.1     -1.00000
      991.000      306.000      43.3206      279.692      900.013      2979.25      16556.1      34501.2     -1.00000
      777.000      947.000      66.9537      334.126      871.291      2840.74      16335.7      34649.0     -1.00000
      833.000      676.000      49.3821      293.475      874.030      2716.22      16126.9      34541.1     -1.00000
      1.00000      475.000      23.4938      269.194      843.714      2500.27      13629.3      34450.1     -1.00000
      127.000      884.000      49.8766      282.285      826.071      2560.48      16397.4      34479.0     -1.00000
      511.000      590.000      44.1018      290.393      849.032      2794.41      16000.3      34288.8     -1.00000
      727.000      350.000      2.30601      298.121      926.892      2890.32      16247.7      34200.3     -1.00000
      158.000      413.000      37.4131      321.310      969.920      2963.77      16349.5      34205.4     -1.00000
      280.000      597.000      46.3667      314.372      909.053      2970.14      16477.3      34258.6     -1.00000
      939.000      387.000      14.6599      343.612      1131.33      3734.86      18795.9      34158.3     -1.00000
      453.000      804.000      41.6403      292.727      822.476      2706.31      16694.7      34288.9     -1.00000
      644.000      586.000      38.0079      271.784      863.693      2673.28      15484.5      33592.1     -1.00000
      992.000      488.000      28.3900      254.636      774.296      2624.08      15787.8      34102.7     -1.00000
      988.000      295.000      12.5076      276.107      960.424      3000.92      16565.4      34000.7     -1.00000
      549.000      500.000      27.9752      279.563      800.315      2487.25      14902.2      32729.6     -1.00000
      669.000      1020.00      55.8661      246.873      719.255      2399.94      14924.8      32780.1     -1.00000
      163.000      9.00000      5.96187      269.397      969.101      2978.64      15997.9      33445.5     -1.00000
      742.000      246.000      20.7516      285.591      937.418      2890.76      15985.1      33512.1     -1.00000
      669.000      255.000      16.2178      259.150      872.684      2744.78      15686.7      33471.6     -1.00000
      879.000      131.000      5.39585      201.744      762.536      2403.76      16551.6      33392.7     -1.00000
      389.000      1000.00      62.4844      304.651      843.186      2654.08      16418.5      33679.3     -1.00000
      883.000      9.00000      4.72304      292.174      969.101      3117.39      16590.7      33304.5     -1.00000
      364.000      221.000      12.9937      305.968      914.176      2761.26      15312.4      32637.2     -1.00000
      621.000      835.000      42.9097      283.620      666.669      2514.48      16157.5      33583.3     -1.00000
      603.000      463.000      25.9422      285.664      926.710      2931.09      16192.3      33449.5     -1.00000
      172.000      1000.00      64.8143      272.913      789.517      2550.19      16178.5      33638.9     -1.00000
      618.000      559.000      39.9981      308.665      906.342      2869.31      16682.9      33434.5     -1.00000
      416.000      834.000      54.4119      289.167      795.405      2546.04      15886.4      33480.4     -1.00000
      179.000      406.000      20.0891      285.467      955.917      3045.24      16570.0      33256.4     -1.00000
      589.000      648.000      25.6117      329.281      890.842      2952.86      16136.2      33340.6     -1.00000
      554.000      313.000      30.0828      314.045      958.694      2929.22      15715.1      33089.8     -1.00000
      567.000      595.000      34.3267      272.225      821.419      2662.19      15448.2      33319.6     -1.00000
      640.000      724.000      48.4342      254.532      808.362      2516.46      15400.0      33162.3     -1.00000
      783.000      105.000      8.94065      263.630      938.468      2914.38      15926.3      32924.4     -1.00000
      803.000      678.000      34.8830      273.858      749.965      2456.23      14601.0      32054.5     -1.00000
      131.000      122.000      1.67446      266.818      898.994      2908.92      15738.9      32715.3     -1.00000
      522.000      263.000      38.4882      290.415      954.973      2904.36      15740.8      32722.5     -1.00000
      230.000      58.0000      2.93934      280.090      958.802      3068.02      15983.5      32617.1     -1.00000
      517.000      520.000      61.1395      294.056      918.104      2867.05      16108.2      32727.2     -1.00000
      103.000      37.0000      11.7669      223.350      855.729      2689.11      14944.2      31870.3     -1.00000
      202.000      892.000      66.0883      304.299      850.526      2767.33      16226.2      32789.0     -1.00000
      337.000      35.0000      1.56535      276.722      932.633      2980.80      15942.1      32393.7     -1.00000
      833.000      731.000      53.2650      290.128      879.856      2819.26      15666.4      32518.3     -1.00000
      20.0000      913.000      51.0120      287.940      800.607      2497.88      15098.1      32565.5     -1.00000
      961.000      917.000      46.2127      275.461      870.094      2676.77      15875.6      32483.7     -1.00000
      629.000      934.000      43.4960      303.539      828.539      2671.80      15365.9      32388.2     -1.00000
      78.0000      372.000      8.38769      154.436      456.543      1236.23      6338.94      32184.9     -1.00000
      104.000      128.000      23.9610      284.838      925.459      2795.78      15189.5      32085.1     -1.00000
      213.000      47.0000      5.80103      290.389      918.816      2869.69      15523.7      31970.4     -1.00000
      35.0000      313.000      8.88500      314.089      985.836      2871.33      15687.5      31991.1     -1.00000
      795.000      545.000      29.6466      249.455      819.848      2647.14      15486.2      32003.9     -1.00000
      581.000      323.000      21.1293      278.034      888.411      2693.02      15095.4      31818.4     -1.00000
      620.000      217.000      16.4388      286.042      850.471      2758.16      15330.5      31771.7     -1.00000
      547.000      947.000      50.4485      253.193      678.856      2283.96      14150.2      31045.7     -1.00000
      518.000      857.000      52.5629      80.6090      148.772      225.469      1640.95      31968.2     -1.00000
      727.000      464.000      20.8110      295.520      848.045      2521.10      15047.9      32510.1     -1.00000
      704.000      599.000      31.9629      309.673      876.758      2733.46      15507.4      31768.3     -1.00000
      888.000      368.000      25.3842      235.878      797.068      2604.93      15203.3      31684.2     -1.00000
      586.000      247.000      18.8477      275.016      847.986      2692.01      14894.2      31599.6     -1.00000
      651.000      352.000      25.4283      281.535      874.825      2823.36      15238.1      31623.5     -1.00000
      147.000      807.000      50.4290      257.230      748.142      2346.63      14062.4      30814.1     -1.00000
      590.000      545.000      26.0224      302.276      866.742      2772.07      15326.7      31601.0     -1.00000
      360.000      600.000      24.4804      283.842      905.160      2823.26      15685.9      31543.3     -1.00000
      742.000      390.000      24.4374      350.325      1088.34      3607.45      17982.6      31390.4     -1.00000
      683.000      788.000      44.8626      243.601      724.608      2408.68      14178.8      30843.5     -1.00000
      317.000      218.000    -0.799712      254.582      855.793      2652.15      14855.9      31295.4     -1.00000
      863.000      166.000      5.98788      213.877      817.500      2621.64      14715.3      31256.5     -1.00000
      1008.00      157.000      4.11424      244.708      849.187      2639.06      14713.4      31233.1     -1.00000
      802.000      772.000      47.5608      302.340      867.615      2720.87      15578.0      31431.5     -1.00000
      599.000      149.000      31.9606      249.363      880.535      2734.35      15011.5      31188.6     -1.00000
      615.000      201.000      6.88586      270.446      911.359      2818.10      15287.3      31175.5     -1.00000
      736.000      479.000      13.0819      273.351      770.857      2537.28      15000.3      31260.8     -1.00000
      729.000      676.000      50.9900      270.025      826.204      2616.34      14459.3      31001.3     -1.00000
