PDS_VERSION_ID         = PDS3
RECORD_TYPE            = STREAM
OBJECT                 = TEXT
  PUBLICATION_DATE     = 2014-02-19
  INTERCHANGE_FORMAT   = ASCII
  NOTE                 = "WAC hot pixel file for epoch 2004.8."
END_OBJECT             = TEXT
END

WAC hot pixel list. Lines 1 and 2 are column headings giving exposure time 
(sec) and gain state (e-/DN), respectively, of source dark images. Starting 
on line 3, first two columns indicate x and y value of hot pixel; columns 3 
through N-1 give median electron counts for each exposure bin, and last (Nth) 
column contains either the index of the exposure bin where saturation first 
occurs, or -1 if no saturation.

\begindata
      0.00000      0.00000   0.00500000      10.0000      22.0000      32.0000      100.000      220.000      320.000      460.000      1200.00
      0.00000      0.00000      27.6800      27.6800      27.6800      27.6800      27.6800      27.6800      27.6800      27.6800      27.6800
      577.000      934.000      174.295      168.193      163.584      57500.0      29746.5      56772.9      397.184      56823.5      477.608     -1.00000
      554.000      848.000      296.735      25452.2      161.153      304.595      311.197      383.039      381.659      459.845      511.298     -1.00000
      833.000      1002.00      352.759      26360.7      144.454      294.576      323.482      354.599      344.511      407.885      416.661     -1.00000
      554.000      174.000      162.728      13534.9      28884.1      40032.2      100841.      111385.      111386.      111389.      111381.      5.00000
      268.000      751.000      308.595      17866.3      135.508      296.865      290.955      382.395      409.481      422.781      465.916     -1.00000
      833.000      328.000      169.554      13905.9      29372.7      40873.9      99250.1      111383.      111371.      111380.      111383.      5.00000
      224.000      756.000      144.829      153.047      136.098      34568.1      17188.4      33793.0      392.215      34054.3      472.403     -1.00000
      259.000      806.000      283.068      15517.4      193.766      280.491      333.640      385.572      399.568      425.799      486.351     -1.00000
      268.000      77.0000      114.674      9444.97      20084.0      28052.1      72496.1      111384.      111379.      111384.      111380.      5.00000
      577.000      598.000      138.177      6554.78      15005.3      20682.3      61937.0      110203.      111372.      111386.      111379.      5.00000
      561.000      790.000      341.856      12327.7      164.352      332.545      327.303      387.816      341.027      426.536      453.228     -1.00000
      259.000      132.000      79.3278      7975.94      14228.3      20348.1      57499.6      111373.      111384.      111385.      111379.      5.00000
      906.000      790.000      170.987      143.830      163.215      22294.7      11963.9      21296.3      354.867      21282.8      476.661     -1.00000
      554.000      510.000      74.4077      120.190      167.668      95232.4      48092.5      97488.7      384.860      94970.6      527.916     -1.00000
      787.000      987.000      166.600      171.185      151.258      17905.8      8859.56      16668.7      357.058      16657.4      507.229     -1.00000
      44.0000      680.000      246.580      7056.17      141.353      280.845      280.678      348.591      350.230      405.267      442.548     -1.00000
      685.000      585.000      166.746      7943.05      17051.6      23822.4      59344.4      98704.1      111386.      111384.      111389.      6.00000
      561.000      116.000      63.2306      6476.88      13662.2      19411.1      51722.1      90627.7      111379.      111384.      111383.      6.00000
      75.0000      757.000      128.660      141.754      171.475      10701.9      5174.57      10698.4      340.274      10654.6      459.767     -1.00000
      365.000      612.000      111.191      3575.88      7927.83      11639.7      34265.8      68124.9      92210.6      111387.      111386.      7.00000
      224.000      420.000      87.1569      3847.31      8279.75      12057.4      35956.9      70635.6      94156.0      111385.      111376.      7.00000
      962.000      403.000      102.005      5453.74      11683.3      16575.1      45337.6      81345.3      103741.      111385.      111383.      7.00000
      44.0000      6.00000      35.1221      3610.99      7748.60      11293.8      33506.8      66477.8      90190.5      111383.      111375.      7.00000
      259.000      468.000      71.7659      119.114      178.117      55173.8      27656.5      55311.1      369.162      55199.7      561.747     -1.00000
      631.000      4.00000      15.7687      2000.75      3517.55      4932.74      14136.9      40875.0      39589.6      77784.1      111383.      8.00000
      912.000      768.000      138.449      177.394      161.143      306.891      13941.7      358.621      76203.0      398.409      497.449     -1.00000
      631.000      678.000      283.569      4099.69      145.184      295.056      283.657      367.381      384.810      418.571      466.181     -1.00000
      971.000      821.000      159.264      1887.32      5717.85      7173.69      24622.0      35664.0      68274.0      67269.1      111382.      8.00000
      833.000      664.000      89.3891      137.781      148.986      95344.1      47852.0      95883.7      378.046      96439.7      504.754     -1.00000
      554.000      175.000      55.4293      138.552      177.972      218.360      348.463      806.316      10193.7      45295.3      111380.      8.00000
      1019.00      939.000      136.664      167.891      114.788      231.562      259.961      281.291      66117.0      309.285      362.724     -1.00000
      356.000      406.000      30.9891      87.8704      112.811      6373.06      2917.12      5690.58      370.629      6054.29      468.211     -1.00000
      615.000      629.000      90.4993      2348.45      5270.77      7699.38      23565.1      48573.2      67004.7      88644.8      111382.      8.00000
      27.0000      831.000      267.939      3442.16      135.960      268.203      307.032      343.689      357.864      386.189      443.148     -1.00000
      281.000      753.000      224.221      3548.38      7407.74      11249.0      32016.1      60410.2      76992.1      95123.1      111381.      8.00000
      518.000      988.000      318.533      3575.90      142.974      285.380      304.659      357.392      360.569      405.404      464.362     -1.00000
      268.000      413.000      64.1330      106.778      173.547      70686.8      35454.7      70703.3      346.317      70898.4      476.886     -1.00000
      787.000      651.000      84.3987      2277.47      5009.20      6437.41      19333.9      39356.1      53767.1      73496.5      111389.      8.00000
      289.000      420.000      82.7402      2074.76      5456.94      7248.85      22684.4      36326.5      42464.3      63491.7      111375.      8.00000
      950.000      837.000      308.325      3046.12      151.509      277.071      300.828      398.793      382.744      447.139      483.896     -1.00000
      378.000      87.0000      10.8150      66.1479      140.131      142.108      1840.11      320.476      46178.5      400.705      495.464     -1.00000
      683.000      485.000      42.2195      82.7530      149.599      5534.78      3023.28      5378.19      376.901      5424.88      469.971     -1.00000
      630.000      1000.00      203.091      2113.18      4596.02      6751.00      20199.0      40991.6      56286.5      74704.1      111387.      8.00000
      139.000      884.000      336.587      2966.32      145.263      274.741      306.460      346.713      361.695      384.573      435.863     -1.00000
      950.000      163.000      35.5561      1584.91      3337.42      4935.76      15213.8      32669.4      46238.9      64575.8      111374.      8.00000
      909.000      497.000      58.0698      110.515      141.398      5200.29      2540.98      4916.68      352.663      5093.84      448.873     -1.00000
      27.0000      157.000      30.4895      1751.56      3854.87      5467.53      16654.1      34916.2      49026.8      66561.8      111375.      8.00000
      547.000      370.000      85.4278      1918.78      4350.60      6162.18      17590.0      36005.2      45509.3      63163.5      109777.      8.00000
      196.000      915.000      183.343      1655.00      3580.02      5372.09      16509.2      35031.6      48601.2      65947.7      110012.      8.00000
      518.000      314.000      44.6478      1818.72      3971.83      5705.32      17309.8      35375.8      48743.9      65527.7      111383.      8.00000
      788.000      775.000      252.286      2551.55      149.921      262.058      279.373      350.692      383.047      386.982      440.126     -1.00000
      198.000      682.000      172.000      2683.64      5644.04      8158.70      23148.4      43969.9      57870.5      72714.7      109626.      8.00000
      176.000      663.000      87.2581      1353.37      2907.62      4286.53      13322.9      28785.3      39815.8      56923.4      110249.      8.00000
      365.000      948.000      169.538      165.507      143.243      32247.3      16428.2      32719.7      374.743      32565.0      502.468     -1.00000
      705.000      869.000      292.366      2525.68      137.152      276.028      293.466      360.684      347.333      409.261      450.512     -1.00000
      293.000      642.000      86.2388      1663.62      3660.27      5325.75      15977.3      32703.0      45093.1      60380.8      110808.      8.00000
      270.000      700.000      329.762      2266.32      117.455      276.082      304.261      374.154      365.534      387.834      429.758     -1.00000
      29.0000      803.000      169.445      170.493      141.754      294.527      4831.31      367.186      38608.5      389.184      443.465     -1.00000
      685.000      921.000      156.155      180.341      129.836      57469.9      28907.2      57406.0      341.096      57953.5      452.247     -1.00000
      906.000      454.000      58.7570      2368.50      5134.22      8957.77      28415.2      45784.0      74497.0      84268.8      111377.      8.00000
      569.000      760.000      185.123      1671.95      3535.68      5205.32      15433.8      31432.8      43181.3      57729.3      109415.      8.00000
      625.000      654.000      97.9694      1416.47      3034.59      4597.97      14028.2      29222.5      41234.0      55816.6      110525.      8.00000
      561.000      452.000      57.8392      119.089      136.539      49352.2      24928.3      49684.1      353.204      49764.6      476.066     -1.00000
      917.000      320.000      30.7357      88.9574      114.942      157.868      257.580      316.597      33133.4      394.240      454.389     -1.00000
      995.000      1013.00      339.124      2331.15      141.637      226.881      268.211      264.943      231.697      288.868      330.186     -1.00000
      718.000      834.000      329.690      2018.02      152.907      283.358      299.048      360.888      358.417      402.104      427.736     -1.00000
      1000.00      735.000      266.679      1882.59      155.182      259.152      295.222      376.234      386.971      409.108      520.473     -1.00000
      813.000      692.000      312.403      1781.12      165.256      270.771      299.469      355.065      364.781      433.810      444.371     -1.00000
      358.000      225.000      35.7155      116.025      2111.42      174.268      14283.0      392.357      56152.6      557.841      108394.     -1.00000
      139.000      210.000      21.9497      1541.77      3240.65      4632.18      13863.4      28684.1      39583.0      54105.1      107861.     -1.00000
      64.0000      541.000      63.3729      1804.18      3930.41      5798.30      17289.7      34665.4      48640.4      62998.0      107812.     -1.00000
      35.0000      307.000      32.1351      1065.38      2262.68      3195.71      9960.66      21532.8      31228.4      44409.2      106866.     -1.00000
      631.000      706.000      333.520      1723.17      155.459      301.819      280.728      412.235      390.914      455.799      495.285     -1.00000
      962.000      739.000      136.150      165.261      166.637      43341.5      21840.8      43634.3      394.240      43789.4      536.206     -1.00000
      788.000      101.000      18.8230      1305.68      2854.06      4045.35      12384.1      25799.5      36623.2      49713.1      105302.     -1.00000
      735.000      955.000      187.809      1493.30      3151.19      4545.51      9605.54      28504.5      15574.6      54600.6      107502.     -1.00000
      662.000      623.000      85.8313      143.564      2115.01      2554.93      15685.7      390.730      71017.8      755.217      105366.     -1.00000
      312.000      784.000      316.444      1768.72      151.117      309.051      307.282      384.610      380.033      451.845      501.883     -1.00000
      31.0000      908.000      138.003      1699.72      3541.79      5314.22      16183.2      34240.8      47513.9      63725.2      105118.     -1.00000
      631.000      340.000      37.5346      81.7595      143.418      14263.5      7281.97      19179.6      367.858      19091.6      466.903     -1.00000
      856.000      823.000      173.130      1468.51      2981.22      4631.83      14514.8      28766.6      41898.5      53320.1      103892.     -1.00000
      896.000      747.000      272.710      1698.44      141.809      271.810      290.014      371.002      356.851      432.280      438.438     -1.00000
      14.0000      1023.00      164.464      1549.35      3183.68      4696.40      12068.5      30547.6      29896.9      58173.4      103292.     -1.00000
      602.000      905.000      300.370      1833.11      144.251      274.731      290.519      380.812      341.672      395.511      450.353     -1.00000
      270.000      26.0000      9.94847      1159.52      2436.04      3568.45      10787.6      23525.6      32454.2      45811.5      99301.1     -1.00000
      911.000      478.000      61.0877      110.911      139.901      298.503      4610.04      360.226      26990.2      410.673      468.839     -1.00000
      705.000      195.000      36.6507      1274.15      2697.46      3912.63      11873.4      24712.3      34738.7      47428.5      98461.5     -1.00000
      354.000      954.000      363.174      1822.24      166.658      285.515      295.484      368.983      384.983      382.996      443.569     -1.00000
      496.000      681.000      307.734      1550.41      137.061      276.074      290.499      386.902      378.544      402.602      456.277     -1.00000
      800.000      542.000      73.5073      1161.40      2531.85      3712.22      11071.1      22932.0      33051.3      44903.7      96165.7     -1.00000
      208.000      776.000      169.475      1417.90      2872.95      4310.82      12687.2      25728.7      38510.2      48131.3      96798.6     -1.00000
      806.000      810.000      292.314      1635.93      149.510      293.144      317.707      370.449      369.357      409.979      472.573     -1.00000
      198.000      1018.00      156.764      138.379      140.718      22036.4      11114.1      22220.3      297.953      22204.9      416.342     -1.00000
      718.000      160.000      34.7987      1020.86      2265.83      3200.41      9844.79      21102.2      30068.5      42400.4      94185.9     -1.00000
      354.000      280.000      15.6378      891.089      1817.37      2831.62      8578.33      19717.4      25522.1      40646.1      94236.7     -1.00000
      1000.00      61.0000      24.9603      893.205      1991.69      2884.61      8937.13      19278.1      27203.3      38970.9      93299.2     -1.00000
      536.000      960.000      277.115      1749.38      140.097      312.297      276.802      360.202      350.604      379.041      421.051     -1.00000
      378.000      741.000      176.299      1107.36      2481.90      3393.11      10381.5      21542.3      31979.4      42392.3      93123.6     -1.00000
      999.000      454.000      61.2160      840.280      1860.71      2791.44      8400.73      17930.4      26001.4      36832.5      88400.8     -1.00000
      995.000      339.000      57.0669      1216.44      2586.07      3786.64      11227.7      23089.7      32634.9      43168.1      87932.6     -1.00000
      356.000      744.000      332.678      1448.27      151.312      313.988      323.317      388.395      403.401      462.627      518.122     -1.00000
      689.000      775.000      160.853      862.968      1782.35      2651.48      7940.44      17149.2      25024.1      35208.3      85882.7     -1.00000
      318.000      560.000      71.3717      312.579      569.214      943.497      4931.29      4566.78      22942.9      9244.86      22415.6     -1.00000
      547.000      706.000      140.186      147.078      164.921      17389.9      8848.10      17623.1      386.569      17554.7      524.283     -1.00000
      375.000      793.000      136.830      391.445      1773.93      1721.16      7622.90      4459.03      23504.6      8969.27      22761.0     -1.00000
      44.0000      342.000      20.1973      83.9075      128.729      31865.1      16119.1      31945.9      360.930      31994.8      466.559     -1.00000
      602.000      231.000      30.3977      928.337      1882.56      2801.88      8517.90      18537.9      25562.2      36609.6      82401.2     -1.00000
      694.000      40.0000      9.55450      262.486      348.624      673.448      4575.30      3896.04      21919.3      7866.44      19454.4     -1.00000
      761.000      624.000      73.2271      745.839      235.692      2541.01      4377.63      16117.7      1715.32      33224.4      6482.09     -1.00000
      426.000      434.000      47.4134      807.631      1636.51      2537.41      7539.82      16341.5      23685.0      33537.5      81375.4     -1.00000
      486.000      353.000      39.2874      982.968      2154.32      3173.16      8632.36      19658.3      23030.3      38659.8      81232.1     -1.00000
      129.000      236.000      22.7477      112.274      126.638      171.524      1845.67      335.045      21664.8      368.911      459.709     -1.00000
      312.000      110.000      30.3675      890.749      1925.58      2743.73      8099.53      17728.0      23898.1      35318.4      80051.2     -1.00000
      896.000      73.0000      19.2527      891.464      1895.10      2792.30      8414.72      17952.1      25539.4      35418.3      79903.5     -1.00000
      133.000      848.000      171.663      177.289      2014.61      302.351      8933.77      380.451      23204.0      431.275      79992.4     -1.00000
      845.000      827.000      183.457      921.271      1867.25      2803.08      8460.22      18265.0      26137.5      36497.7      79570.5     -1.00000
      577.000      599.000      66.2631      171.584      264.383      430.468      561.404      842.779      905.807      2425.08      78648.1     -1.00000
      193.000      706.000      158.583      893.080      1745.95      2641.45      7911.14      16962.7      24331.3      34167.4      77667.1     -1.00000
      631.000      32.0000      21.6230      889.287      2006.08      2731.23      8732.79      17384.1      25892.3      33844.9      75292.3     -1.00000
      475.000      445.000      56.2232      807.137      1727.86      2430.35      4787.33      15969.8      23178.2      32282.3      75620.9     -1.00000
      806.000      136.000      32.4889      799.019      1604.99      2555.51      8063.59      17039.7      21584.5      34850.0      75205.3     -1.00000
      206.000      778.000      272.213      1279.61      138.410      320.184      319.407      387.629      403.838      444.451      478.139     -1.00000
      214.000      936.000      153.834      856.046      1550.48      2322.72      8490.82      15623.1      30910.2      31885.5      75788.4     -1.00000
      153.000      15.0000      31.7736      1075.14      2383.22      3332.31      9829.46      20153.6      27718.1      37406.4      74029.6     -1.00000
      149.000      763.000      147.453      889.069      1734.25      2698.69      8101.67      17336.3      24596.1      34207.9      75208.0     -1.00000
      75.0000      421.000      34.3313      1132.54      1373.20      3736.88      9013.39      23524.5      18512.3      46261.5      73492.3     -1.00000
      584.000      626.000      74.4840      770.204      1603.41      2411.16      7401.06      16032.4      22987.1      32316.8      73745.5     -1.00000
      496.000      7.00000      7.75582      780.878      1641.10      2363.83      6355.94      15767.4      16639.6      31790.4      72858.2     -1.00000
      64.0000      877.000      157.394      167.780      151.728      16145.2      8225.41      16419.0      344.961      16346.2      505.096     -1.00000
      641.000      688.000      308.431      1174.60      169.870      295.183      347.916      393.028      397.095      429.477      476.113     -1.00000
      554.000      173.000      22.1322      88.6385      109.966      159.899      269.478      400.433      496.278      1013.86      71346.6     -1.00000
      860.000      925.000      158.786      896.196      1801.18      2638.71      7602.09      16304.7      22365.7      32290.7      72719.0     -1.00000
      536.000      286.000      36.0341      917.726      1678.46      2403.58      7473.97      18153.1      22343.3      35637.5      70975.2     -1.00000
      894.000      781.000      148.513      907.134      1765.49      2636.40      7807.79      16647.0      23656.2      32624.3      71231.8     -1.00000
      626.000      890.000      188.101      842.613      1643.02      2495.51      7321.61      15870.2      22365.5      31497.4      71321.1     -1.00000
      683.000      823.000      296.826      1219.39      151.833      291.047      294.512      362.694      385.152      420.083      449.470     -1.00000
      833.000      329.000      38.6752      180.374      278.137      308.209      527.675      803.022      1978.00      18496.3      69051.5     -1.00000
      349.000      949.000      167.564      172.350      177.458      341.812      3396.86      379.576      19759.1      420.362      494.413     -1.00000
      97.0000      627.000      62.3884      807.780      1704.77      2586.74      7426.38      15827.2      18106.4      31102.8      68537.0     -1.00000
      991.000      946.000      143.396      178.060      139.770      239.537      3218.80      327.381      19567.4      313.002      528.453     -1.00000
      431.000      741.000      154.326      807.933      1568.87      2325.69      6661.89      14647.0      20795.3      29671.5      67923.3     -1.00000
      139.000      546.000      64.5322      98.3764      113.565      13199.7      6735.83      13243.1      346.613      13191.3      474.001     -1.00000
      213.000      914.000      336.522      1219.18      157.457      283.320      290.005      359.674      361.220      390.056      444.387     -1.00000
      677.000      370.000      65.8387      703.786      1482.54      2149.99      6306.35      13526.8      19529.1      27530.0      66209.5     -1.00000
      278.000      187.000      26.9213      674.270      1458.32      2089.04      6355.67      13449.3      19181.4      26821.1      65245.7     -1.00000
      460.000      837.000      308.325      1135.65      151.746      303.190      321.696      394.295      380.969      428.811      466.987     -1.00000
      813.000      18.0000      31.3176      918.556      3265.68      3603.82      12248.2      18036.9      30956.8      36256.9      111362.      8.00000
      0.00000      253.000      95.5854      951.393      1977.30      2730.51      7875.10      15868.5      22121.1      30131.2      64432.1     -1.00000
      333.000      901.000      166.394      775.105      1511.72      2201.20      6223.69      13747.8      22315.2      27661.3      65522.7     -1.00000
      888.000      986.000      154.062      1037.04      1465.52      2390.66      6436.31      22739.5      19236.3      43666.7      65671.9     -1.00000
      912.000      647.000      61.0696      638.871      1297.74      1961.83      5711.78      12212.9      18015.8      25148.0      64772.2     -1.00000
      356.000      70.0000      27.0289      696.241      1702.57      2208.41      6626.06      13827.6      19429.8      28190.7      63253.9     -1.00000
      589.000      469.000      54.1635      814.680      1577.45      2318.24      7198.38      16669.7      19207.8      32888.5      63462.7     -1.00000
      313.000      809.000      148.024      753.513      1440.67      2180.61      6116.64      13535.4      18590.6      27343.6      64155.0     -1.00000
      1014.00      619.000      62.7496      755.206      305.672      2494.15      3321.54      16144.4      18096.9      32892.0      63151.8     -1.00000
      497.000      390.000      43.6775      766.509      1690.10      2361.79      6964.59      14098.9      22386.1      27954.0      62340.2     -1.00000
      1002.00      897.000      142.481      722.831      1438.22      2080.40      6293.60      13602.1      19433.9      27463.1      62781.8     -1.00000
      234.000      844.000      280.708      1083.51      143.269      275.773      287.666      363.511      338.768      403.378      454.293     -1.00000
      952.000      695.000      140.336      663.670      1314.61      1949.68      5706.71      12368.5      17774.7      25189.1      61850.3     -1.00000
      909.000      161.000      31.8187      606.603      931.146      1861.98      5333.42      11984.4      17538.3      24824.9      60842.4     -1.00000
      914.000      805.000      141.642      174.420      139.728      268.481      2919.57      341.766      17282.6      381.267      443.087     -1.00000
      493.000      874.000      161.422      803.304      1577.59      2353.97      6738.16      14149.5      20019.8      27881.4      61680.1     -1.00000
      990.000      458.000      75.3403      551.429      1233.62      1868.42      5480.76      11930.1      24329.8      24545.1      60424.7     -1.00000
      168.000      603.000      61.4103      720.235      1772.97      2397.10      6509.73      14535.2      20443.2      27757.5      60707.6     -1.00000
      674.000      645.000      60.4261      856.954      1963.06      2562.39      7641.87      15750.0      21905.0      29948.9      60738.9     -1.00000
      947.000      587.000      56.8296      592.843      1324.64      1929.18      5453.30      12268.0      16534.6      24824.6      60531.1     -1.00000
      357.000      761.000      306.778      1007.87      153.916      288.571      308.689      341.763      347.035      409.752      425.654     -1.00000
      683.000      149.000      23.4619      616.537      1412.30      1992.11      6100.26      11792.5      18432.9      23349.4      59688.9     -1.00000
      1007.00      848.000      152.178      756.743      1199.29      2127.38      7001.30      12050.4      23887.3      23752.4      62700.6     -1.00000
      643.000      899.000      173.570      609.974      1167.62      1725.21      5045.56      10915.0      16535.7      22933.5      60564.9     -1.00000
      293.000      379.000      61.8912      747.613      1489.16      2176.60      6418.46      13609.9      19187.7      26650.5      59329.5     -1.00000
      206.000      104.000      25.0048      639.272      1377.62      1939.36      5963.64      12670.8      18253.1      25524.1      59121.2     -1.00000
      538.000      991.000      343.769      1130.41      152.791      292.853      281.590      343.519      382.490      399.207      443.217     -1.00000
      94.0000      466.000      56.8466      640.185      1329.70      1968.89      5897.40      12625.3      18060.2      25304.2      59114.7     -1.00000
      68.0000      774.000      106.205      999.392      151.656      86.6644      159.807      124.269      175.989      159.216      215.082     -1.00000
      918.000      895.000      154.972      166.018      166.169      259.340      300.521      362.489      16710.2      378.621      445.304     -1.00000
      529.000      804.000      174.021      695.448      1305.83      1935.57      5772.86      12205.9      17455.0      24321.7      58110.4     -1.00000
      909.000      835.000      347.294      1002.77      139.473      270.666      288.846      363.907      396.927      423.373      486.175     -1.00000
      213.000      240.000      36.4343      637.308      1344.14      1893.23      5280.38      12076.5      16230.2      24239.5      56958.5     -1.00000
      604.000      942.000      297.974      1057.75      159.392      283.819      309.621      352.717      373.988      389.229      421.667     -1.00000
      537.000      652.000      76.1831      617.659      1216.60      1894.73      5360.87      11586.8      16682.9      23601.6      56731.6     -1.00000
      270.000      362.000      47.1198      63.9699      147.705      10372.3      5705.41      10520.7      371.650      10484.5      498.435     -1.00000
      601.000      457.000      46.8827      395.174      1279.39      1228.94      5323.65      6760.89      16546.8      13657.2      56190.1     -1.00000
      899.000      837.000      148.020      610.337      1220.59      1799.56      5240.88      11139.4      16622.5      23061.4      56451.4     -1.00000
      858.000      560.000      55.2733      142.034      153.599      302.288      2649.24      389.635      16078.4      401.260      55521.1     -1.00000
      176.000      999.000      160.604      145.581      136.873      11983.7      6383.23      12803.6      324.670      12787.4      491.476     -1.00000
      460.000      163.000      33.7822      563.096      1192.04      1725.43      5188.05      11174.1      16013.0      22499.9      53990.2     -1.00000
      641.000      14.0000      4.57826      578.887      1201.74      1794.48      5260.75      11661.1      16005.7      23342.8      53567.9     -1.00000
      783.000      779.000      267.337      913.217      134.887      275.571      278.413      340.934      333.433      399.381      443.646     -1.00000
      604.000      268.000      33.0771      559.250      1147.82      1659.59      5031.27      10741.8      15854.1      21999.4      53662.5     -1.00000
      615.000      965.000      183.995      147.681      114.894      22392.7      8854.29      22593.5      349.793      22746.0      494.176     -1.00000
      99.0000      868.000      147.008      589.646      1108.69      1739.58      4599.91      10796.3      13291.5      22004.0      53527.8     -1.00000
      586.000      921.000      309.147      969.091      150.315      289.161      326.529      373.682      382.616      406.020      464.534     -1.00000
      357.000      87.0000      25.2594      500.956      1081.11      1524.72      2984.82      9943.93      3911.57      20484.1      52331.6     -1.00000
      1013.00      608.000      54.8526      608.428      1260.67      1892.90      5345.56      11447.4      16235.3      22877.4      52487.1     -1.00000
      73.0000      633.000      58.7126      506.794      1011.87      1596.92      4481.83      9942.43      13993.1      20521.5      51213.7     -1.00000
      705.000      439.000      61.1441      550.127      1149.73      1719.60      5108.66      10811.8      15209.6      21554.6      50731.5     -1.00000
      349.000      747.000      294.600      839.569      167.372      287.491      309.589      348.556      343.006      394.499      440.208     -1.00000
      709.000      483.000      59.2349      136.110      150.500      304.099      2292.67      357.293      13677.4      407.897      491.632     -1.00000
      404.000      219.000      33.6199      109.461      361.027      156.983      2198.30      368.202      13335.4      406.053      12464.8     -1.00000
      814.000      352.000      46.5811      592.857      1167.84      1803.62      5116.76      10568.1      16213.6      20960.7      49551.2     -1.00000
      828.000      871.000      154.624      436.315      1089.06      1087.58      6325.67      5890.24      23776.1      12407.8      49679.7     -1.00000
      234.000      170.000      32.0842      536.342      1242.17      1557.53      4818.24      10629.9      12695.5      21283.2      51155.3     -1.00000
      662.000      959.000      145.205      146.792      168.514      614.651      4553.32      355.903      342.366      414.448      459.412     -1.00000
      259.000      133.000      16.0049      110.893      183.828      200.422      340.575      443.468      541.478      1051.65      48313.5     -1.00000
      280.000      597.000      64.2351      538.993      1160.84      1718.19      4796.95      10247.7      14584.3      20459.9      48362.4     -1.00000
      179.000      886.000      143.508      610.655      1162.90      1705.42      4820.78      10253.7      14513.0      20254.6      48354.2     -1.00000
      586.000      247.000      38.6653      499.891      989.951      1445.93      4238.13      9379.36      13580.0      19152.5      46879.7     -1.00000
      1002.00      688.000      146.797      1727.22      3523.09      5211.62      13102.6      22640.3      27677.6      32686.4      47272.1     -1.00000
      623.000      532.000      60.8832      540.134      1082.30      1598.57      4332.19      9581.03      14102.4      19503.1      46942.4     -1.00000
      785.000      438.000      56.0133      470.817      949.293      1451.11      3987.11      8559.39      12397.9      17603.7      44892.2     -1.00000
      117.000      372.000      62.2908      450.938      937.655      1410.36      4080.22      8784.19      12719.7      18096.4      46694.0     -1.00000
      515.000      681.000      155.838      607.438      1161.22      1737.49      4941.03      10414.6      14928.9      20603.4      46984.3     -1.00000
      109.000      765.000      146.088      146.565      136.731      1624.59      960.409      674.422      343.091      719.507      456.555     -1.00000
      971.000      755.000      156.978      171.365      140.096      334.112      2172.01      344.382      12956.0      389.536      444.420     -1.00000
      95.0000      485.000      61.5362      500.041      1010.26      1600.37      6247.34      9241.70      25537.5      18821.0      45859.0     -1.00000
      979.000      968.000      126.973      588.934      1124.00      1685.46      4904.10      10221.2      14587.1      20515.0      47448.1     -1.00000
      783.000      105.000      8.69639      451.203      968.393      1386.61      4178.64      8796.61      13136.0      17868.3      45030.4     -1.00000
      410.000      537.000      69.6331      118.751      167.749      1477.86      954.030      682.569      376.727      713.060      524.941     -1.00000
      341.000      275.000      54.4405      473.794      938.099      1423.71      4207.27      8961.95      12840.9      18219.6      45076.4     -1.00000
      195.000      347.000      35.6930      97.9499      117.816      1384.80      433.775      497.028      348.256      622.701      473.545     -1.00000
      330.000      298.000      51.7086      529.005      1058.74      1559.09      4674.91      9618.75      14454.8      19002.8      44561.0     -1.00000
      398.000      96.0000      18.1932      445.648      932.176      1290.54      2720.16      8408.56      4054.42      17365.9      44235.2     -1.00000
      843.000      1020.00      329.007      861.614      141.366      270.693      253.902      318.889      308.197      342.374      385.553     -1.00000
      538.000      317.000      36.9277      559.997      1244.95      1475.81      4379.31      11511.2      13293.9      22996.1      43997.5     -1.00000
      502.000      203.000      24.6485      451.071      403.320      1330.99      1343.30      8318.65      3861.41      16861.9      13599.6     -1.00000
      505.000      972.000      166.954      524.540      941.829      1368.02      3737.69      8092.88      11910.0      16881.7      44171.7     -1.00000
      283.000      219.000      35.8282      438.449      897.858      1310.82      3884.60      8366.84      12293.0      17166.2      43122.2     -1.00000
      474.000      539.000      61.6170      558.625      998.161      1508.58      4176.80      10184.2      13648.4      17845.2      43013.2     -1.00000
      289.000      756.000      139.008      168.177      183.274      17644.5      10946.5      17652.3      399.230      17754.7      500.083     -1.00000
      712.000      848.000      138.812      515.280      916.580      1472.33      4081.99      8733.38      12685.3      17767.3      43167.4     -1.00000
      911.000      112.000      5.96488      198.598      775.381      832.326      3827.55      2395.77      14031.7      4886.00      42510.8     -1.00000
      85.0000      62.0000      14.8147      397.142      849.658      1262.04      3601.09      7686.93      11858.2      15722.2      42384.7     -1.00000
      426.000      950.000      156.819      531.963      970.941      1467.51      4041.19      8729.57      12589.4      17762.7      43252.6     -1.00000
      312.000      446.000      73.6812      108.866      143.387      7976.05      4165.78      8133.25      350.679      8064.41      484.980     -1.00000
      914.000      523.000      44.5159      523.153      1012.19      1534.71      4215.73      8936.55      12932.0      18047.4      42557.4     -1.00000
      843.000      346.000      54.8159      452.879      916.008      1403.44      3978.70      8564.44      12265.1      17407.5      42374.4     -1.00000
      59.0000      689.000      156.354      481.431      234.642      986.022      775.925      8695.17      1794.39      17307.3      6269.27     -1.00000
      472.000      475.000      52.7110      454.436      890.783      1369.89      4002.57      8582.55      12534.2      17349.3      42015.5     -1.00000
      876.000      717.000      164.555      473.729      854.871      1381.46      3743.87      7900.46      11315.9      16032.5      38660.8     -1.00000
      338.000      953.000      287.608      774.663      178.353      286.832      331.879      379.026      400.157      410.184      471.577     -1.00000
      1002.00      785.000      152.390      504.415      979.330      1415.83      4071.83      8476.09      12243.5      17318.7      41879.6     -1.00000
      719.000      114.000   -0.0908300      522.389      1085.93      1566.03      4574.27      9473.89      13375.2      18597.7      41078.2     -1.00000
      780.000      518.000      55.2739      497.915      1028.58      1454.62      4053.34      8550.02      12267.3      17249.4      41275.1     -1.00000
      604.000      844.000      158.250      509.246      888.856      1367.87      3303.87      8050.78      12115.4      16649.2      41775.4     -1.00000
      849.000      118.000      26.1934      416.347      901.191      1272.84      3735.13      7999.86      11623.1      16475.9      40837.0     -1.00000
      349.000      73.0000      32.6594      442.399      926.023      1275.56      4448.07      8027.10      16104.3      16424.3      40592.7     -1.00000
      27.0000      493.000      68.1533      96.2043      145.299      15844.0      8063.74      15999.7      384.225      16054.2      456.339     -1.00000
      518.000      650.000      58.6230      113.139      137.595      16308.5      8323.90      16440.0      391.383      16502.9      498.100     -1.00000
      601.000      504.000      66.7140      165.417      311.773      445.592      2258.02      1254.59      11071.7      2124.41      8142.60     -1.00000
      737.000      718.000      142.146      161.679      1066.71      289.089      313.686      392.296      493.366      448.819      1034.82     -1.00000
      250.000      676.000      150.292      196.069      150.032      311.073      2168.13      364.142      11283.0      428.472      510.190     -1.00000
      268.000      78.0000      28.7095      67.5639      164.568      165.450      292.626      388.144      789.779      7061.22      111380.      8.00000
      833.000      327.000      29.8771      88.0518      135.361      157.757      284.732      328.242      356.357      512.620      40193.2     -1.00000
      549.000      715.000      175.462      557.964      961.247      1419.06      3946.83      8330.12      11950.0      16846.0      40465.1     -1.00000
      802.000      833.000      179.858      470.544      925.107      1163.95      4211.66      6872.94      12323.7      13825.2      40600.8     -1.00000
      268.000      76.0000     -8.01378      58.5439      133.332      136.093      263.474      305.102      375.469      548.661      39788.4     -1.00000
      734.000      62.0000      23.0427      418.655      919.271      1271.42      3769.13      8016.65      11257.3      16300.8      39493.1     -1.00000
      253.000      816.000      139.810      171.618      1079.03      311.993      317.598      380.402      365.884      431.599      488.857     -1.00000
      878.000      182.000      14.0942      367.255      821.597      1127.80      3395.26      7548.84      9536.08      15577.0      39317.9     -1.00000
      844.000      789.000      298.869      672.392      140.995      281.551      336.276      367.220      381.139      419.978      467.122     -1.00000
      125.000      390.000      36.2584      433.519      891.031      1323.62      3869.23      7925.39      11999.5      16071.3      39264.6     -1.00000
      337.000      943.000      328.755      728.941      152.534      293.849      308.357      357.337      354.468      380.438      459.835     -1.00000
      865.000      883.000      141.236      500.724      915.089      1342.61      3760.34      7896.17      11564.0      16214.8      39528.1     -1.00000
      742.000      920.000      295.492      715.994      158.956      297.416      328.785      358.344      381.620      429.153      464.033     -1.00000
      585.000      354.000      59.6355      427.943      888.337      1315.92      3577.88      7636.80      11039.2      15395.9      38838.5     -1.00000
      496.000      782.000      140.385      469.334      890.677      1270.38      3584.59      7687.25      10975.5      15850.5      39251.9     -1.00000
      806.000      942.000      167.663      475.911      871.654      1294.04      3431.97      7284.80      10808.2      15050.9      39321.4     -1.00000
      282.000      873.000      336.996      688.873      150.466      294.157      304.179      365.214      384.050      439.641      449.750     -1.00000
      282.000      924.000      332.230      700.708      156.695      293.584      322.419      361.311      342.279      396.450      450.333     -1.00000
      669.000      867.000      144.598      479.638      926.727      1373.88      3778.44      8142.83      11686.5      16603.8      39429.6     -1.00000
      940.000      335.000      26.8992      447.382      857.527      1222.45      3516.12      7420.05      10846.1      15141.5      37477.8     -1.00000
      657.000      33.0000      13.6903      438.058      908.838      1256.37      3644.24      7693.25      11128.8      15442.3      37237.7     -1.00000
      656.000      938.000      311.395      690.594      140.222      303.220      307.531      364.961      335.387      400.252      429.625     -1.00000
      543.000      118.000      26.2026      109.051      112.595      165.508      1730.52      333.254      9925.94      419.098      525.457     -1.00000
      950.000      499.000      54.4199      88.0106      136.220      14220.4      7268.31      14450.6      336.436      14630.2      471.917     -1.00000
      574.000      827.000      155.777      450.711      842.454      1279.43      3311.25      7171.12      10401.0      14797.1      37569.5     -1.00000
      893.000      504.000      50.9315      120.606      131.638      252.700      1767.86      355.816      10075.5      384.601      472.675     -1.00000
      30.0000      148.000      19.7397      150.606      100.114      354.023      1761.01      1767.03      9873.84      3378.23      8260.71     -1.00000
      773.000      74.0000      15.0747      363.829      798.667      1168.34      3508.19      7451.55      10537.4      15138.8      36651.3     -1.00000
      874.000      751.000      173.459      453.617      799.879      1226.01      3353.87      7168.60      14144.9      14553.4      37061.0     -1.00000
      753.000      236.000      32.6532      391.058      873.029      1192.41      3502.76      7486.97      10717.2      15019.6      36489.7     -1.00000
      528.000      749.000      133.480      511.889      852.081      1398.82      3583.59      7855.29      10766.6      15691.4      36817.0     -1.00000
      293.000      978.000      183.519      174.685      178.304      15201.9      7730.41      15340.0      378.852      15398.9      485.714     -1.00000
      693.000      130.000      22.6973      200.750      819.069      1110.65      3570.30      2620.69      10973.4      5061.57      35554.8     -1.00000
      831.000      25.0000      6.06804      367.801      818.373      1185.94      3451.80      7343.90      10490.8      14781.1      35479.5     -1.00000
      235.000      1012.00      288.387      689.027      155.195      285.065      284.503      353.071      333.992      396.625      402.808     -1.00000
      1.00000      565.000      77.4371      470.903      951.635      1407.55      3875.01      8060.73      11414.8      16022.6      35701.9     -1.00000
      538.000      619.000      83.5740      394.536      742.086      1169.81      3152.63      6755.58      9944.83      13785.3      35677.6     -1.00000
      115.000      807.000      149.782      483.037      882.999      1330.16      3551.32      7549.77      10741.5      15263.3      36441.7     -1.00000
      298.000      451.000      47.0152      424.205      804.732      1314.36      3668.04      7632.22      10868.3      15202.8      35276.5     -1.00000
      679.000      289.000      31.2898      316.415      822.809      942.515      3215.77      5537.00      10051.8      11073.1      34932.7     -1.00000
      762.000      536.000      67.1146      402.957      823.548      1348.57      3490.25      7419.67      10520.1      14865.4      35047.0     -1.00000
      1.00000      865.000      175.419      447.420      803.906      1188.00      3305.92      7121.54      10137.4      14386.3      34876.3     -1.00000
      589.000      648.000      83.5892      391.670      782.379      1206.87      3314.51      6862.58      9839.17      14120.8      34621.1     -1.00000
      1015.00      183.000      1.83330      62.8339      130.362      139.797      1637.40      273.902      9185.19      346.311      444.992     -1.00000
      449.000      680.000      145.138      497.533      759.388      1235.23      4739.04      6863.92      19213.5      14028.7      34416.5     -1.00000
      337.000      269.000      29.4052      367.027      725.444      1081.01      3227.05      6823.13      9862.36      13708.1      34045.9     -1.00000
      742.000      246.000      29.9799      377.962      779.181      1079.34      3136.48      6724.45      9634.23      13712.9      33976.1     -1.00000
      382.000      814.000      146.594      446.598      785.245      1179.78      2837.53      6998.49      11667.5      14114.2      34437.9     -1.00000
      158.000      413.000      47.2117      402.987      806.159      1217.52      3240.14      6856.18      9842.22      13791.6      33964.3     -1.00000
      267.000      6.00000      19.7837      358.522      761.480      1105.80      3243.99      6902.59      10013.5      14006.8      33775.6     -1.00000
      795.000      810.000      144.511      445.414      758.098      1153.21      3101.80      6624.92      9359.84      13654.7      34309.7     -1.00000
      84.0000      903.000      168.425      418.026      726.429      1127.13      3028.79      6362.73      9240.78      13164.2      34395.0     -1.00000
      549.000      500.000      56.8391      379.341      802.043      1144.15      3057.01      6402.10      11752.0      13209.0      33792.3     -1.00000
      934.000      407.000      46.6187      370.622      750.311      1180.75      3247.86      6856.47      9865.60      13825.5      33709.7     -1.00000
      358.000      224.000      29.2096      91.4635      528.477      163.311      3045.70      357.719      13586.4      812.307      32852.9     -1.00000
      991.000      235.000      30.2113      362.271      789.593      1023.34      2965.14      6591.66      8973.75      13355.9      33215.0     -1.00000
      475.000      781.000      144.706      168.870      150.409      2014.23      1166.97      7206.17      338.032      7145.94      527.906     -1.00000
      619.000      494.000      63.8229      363.537      749.071      1097.50      3254.82      5788.07      9826.09      11797.5      33285.9     -1.00000
      338.000      279.000      34.1027      413.001      821.231      1154.80      3070.45      7156.08      8061.94      14171.4      32856.5     -1.00000
      339.000      693.000      153.563      173.494      389.629      345.858      1740.19      403.281      10082.9      475.370      33158.6     -1.00000
      77.0000      943.000      300.680      609.074      119.428      242.346      275.957      305.133      303.116      343.667      385.606     -1.00000
      590.000      545.000      62.5764      393.855      795.597      1181.11      3212.52      6669.61      9576.81      13459.4      32702.1     -1.00000
      620.000      217.000      29.0024      364.533      744.326      1025.12      2960.99      6392.18      9207.74      13013.4      32356.2     -1.00000
      691.000      716.000      282.721      527.968      149.638      308.296      321.605      350.760      358.760      439.316      465.521     -1.00000
      469.000      19.0000      8.68476      361.522      743.935      1070.04      3136.36      6664.18      9473.63      13378.4      32156.6     -1.00000
      710.000      19.0000      10.5957      335.234      706.514      1038.50      3071.55      6530.65      9474.19      13207.0      32133.8     -1.00000
      844.000      115.000      14.8998      331.466      759.519      987.808      2632.98      6318.65      6963.08      12919.7      31782.6     -1.00000
      333.000      596.000      65.6172      393.699      782.468      1206.28      3207.42      6785.21      9687.98      13575.2      32357.7     -1.00000
      794.000      636.000      58.8487      364.073      740.842      1092.48      2793.86      6251.76      7818.07      12855.3      32305.2     -1.00000
      656.000      264.000      44.4424      363.892      691.374      990.832      2905.14      6149.37      8874.93      12547.8      31691.0     -1.00000
      526.000      583.000      65.4795      388.587      780.975      1204.90      3198.99      6516.47      9340.87      13090.9      32005.8     -1.00000
      761.000      960.000      156.648      169.290      153.533      7091.64      4001.49      7225.31      392.124      7186.07      444.994     -1.00000
      625.000      990.000      151.005      142.117      150.095      13346.7      6812.84      13423.8      388.531      13525.8      520.983     -1.00000
      323.000      931.000      169.040      470.970      791.468      1221.15      3061.79      6592.94      8885.21      13057.8      31814.8     -1.00000
      433.000      445.000      51.1829      391.292      725.770      1153.22      3101.31      6502.21      9222.09      13104.2      31181.6     -1.00000
      254.000      955.000      322.185      583.391      148.462      297.238      270.048      353.230      327.333      401.581      465.166     -1.00000
      528.000      635.000      59.6435      372.579      735.656      1115.23      2880.13      6047.31      8499.31      12337.4      31233.9     -1.00000
      742.000      390.000      38.9156      458.065      889.665      1382.78      3867.82      7994.95      11270.6      15176.9      30963.7     -1.00000
      830.000      669.000      72.1912      389.333      716.873      1116.00      2900.34      6112.17      8807.03      12480.3      31037.6     -1.00000
      449.000      291.000      38.0090      368.236      743.554      1023.63      2932.71      6248.71      8788.92      12497.5      30705.7     -1.00000
      883.000      9.00000      5.33546      330.727      659.449      997.687      3089.30      6288.58      9702.90      12806.0      30344.0     -1.00000
      119.000      869.000      169.581      405.526      744.086      1070.30      2848.34      6076.68      8834.71      12419.0      30935.6     -1.00000
      788.000      437.000      72.3808      111.887      111.036      11523.5      6009.37      11657.3      356.316      11807.3      504.707     -1.00000
      935.000      624.000      63.6827      361.704      700.942      1042.97      2715.08      5920.63      8485.20      12063.2      30225.8     -1.00000
      882.000      758.000      171.090      377.621      634.579      972.282      2531.94      5379.36      7772.03      10907.4      28155.4     -1.00000
      577.000      747.000      200.628      421.894      723.919      1136.80      2998.48      6195.96      8843.02      12548.4      30476.0     -1.00000
      148.000      176.000      28.6303      357.412      716.524      960.851      2902.32      5967.88      8756.88      11981.3      29948.0     -1.00000
      453.000      667.000      85.9455      386.631      743.907      1120.02      2905.20      6179.51      7559.17      12536.7      29924.9     -1.00000
      958.000      740.000      268.112      491.535      153.703      261.649      279.617      357.406      326.214      378.890      436.880     -1.00000
      441.000      823.000      143.857      418.394      736.495      1108.49      3001.26      6314.45      9103.80      12837.6      30584.0     -1.00000
      282.000      250.000      30.8367      362.789      718.367      1019.26      2891.43      6065.52      8705.09      12191.9      29544.4     -1.00000
      605.000      658.000      76.9089      329.764      689.269      1068.41      2507.30      5988.09      6724.81      12145.5      29735.0     -1.00000
      987.000      41.0000      6.74533      287.186      625.279      886.737      2616.09      5579.38      8133.89      11535.2      29578.2     -1.00000
      209.000      733.000      143.709      367.627      636.942      954.626      2521.67      5347.67      7659.24      11060.1      28434.4     -1.00000
      432.000      406.000      50.4729      369.501      736.720      1089.07      2960.60      6261.60      8833.48      12439.1      29260.7     -1.00000
      902.000      897.000      170.161      411.303      689.997      1054.27      2736.63      5872.01      8403.57      11902.2      29728.5     -1.00000
      468.000      653.000      87.2083      372.254      730.554      1070.68      2843.63      5819.02      8352.19      11741.6      29343.0     -1.00000
      471.000      91.0000      14.2456      330.190      692.382      916.691      2769.63      5862.64      8353.88      11829.4      28952.5     -1.00000
      234.000      334.000      41.4509      178.454      288.710      412.538      1676.23      1638.08      7828.78      3124.41      7513.74     -1.00000
      610.000      850.000      158.877      374.281      653.614      990.657      2639.40      5660.43      8155.92      11547.7      29313.6     -1.00000
      228.000      447.000      58.0987      336.302      690.177      1080.00      2818.14      5911.82      8337.40      11800.1      28872.5     -1.00000
      939.000      387.000      62.9049      734.789      736.716      1980.75      4163.18      13061.2      8603.00      24577.2      28845.3     -1.00000
      512.000      158.000      10.3969      286.097      181.024      887.943      1520.94      5456.47      738.698      11069.7      1904.99     -1.00000
      160.000      554.000      64.1056      349.972      661.525      1055.87      2730.60      5711.16      8183.77      11686.2      29011.3     -1.00000
      602.000      984.000      158.674      424.362      250.991      1013.23      747.890      5926.88      1823.66      12396.0      6177.61     -1.00000
      519.000      500.000      64.2551      329.446      634.757      974.640      2476.11      5243.21      7545.08      10663.2      26348.2     -1.00000
      487.000      919.000      158.792      194.759      152.927      329.921      1510.45      368.474      8268.81      412.614      475.645     -1.00000
      705.000      531.000      58.6227      115.209      140.294      11248.2      5787.19      11218.0      364.472      11336.4      476.217     -1.00000
      293.000      965.000      161.351      184.372      153.402      312.007      1472.22      341.268      8277.11      353.182      424.272     -1.00000
      244.000      451.000      62.5185      341.165      694.372      1058.81      2719.75      5779.51      8429.93      11603.7      28530.5     -1.00000
      585.000      646.000      63.8726      334.314      637.768      1010.35      2594.37      5461.32      7835.02      11136.8      28698.7     -1.00000
      343.000      950.000      288.687      531.963      140.762      297.561      291.381      369.091      354.946      388.457      454.621     -1.00000
      833.000      731.000      143.977      409.544      719.169      1267.93      2877.35      5978.33      8328.63      11871.7      28914.6     -1.00000
      217.000      284.000      29.5849      365.758      725.365      1006.30      2806.40      6217.50      7732.41      12575.6      28373.5     -1.00000
      168.000      939.000      153.217      148.762      152.984      6397.02      3166.53      6509.01      351.020      6455.48      495.066     -1.00000
      487.000      773.000      172.553      343.925      636.982      980.567      2519.94      5325.91      7660.30      10930.9      28731.9     -1.00000
      258.000      180.000      13.8459      104.672      185.111      165.742      1807.15      379.957      7606.44      438.281      3071.85     -1.00000
      619.000      866.000      185.039      394.556      663.517      1025.80      2576.23      5352.12      7825.35      11069.2      28728.4     -1.00000
      839.000      552.000      60.0451      345.838      661.678      1015.29      2699.20      5875.08      8257.39      11651.5      28289.5     -1.00000
      213.000      47.0000      11.7527      307.734      637.689      938.311      2736.04      5932.99      8078.35      11913.5      28042.6     -1.00000
      519.000      1021.00      167.949      426.071      699.746      1073.39      3968.93      5578.81      15775.7      11492.3      28757.1     -1.00000
      694.000      142.000      42.4990      258.803      524.539      734.811      2108.11      4419.35      6078.34      8811.76      21583.2     -1.00000
      282.000      199.000      35.4466      340.820      691.304      784.047      2801.22      5982.77      7007.86      11944.1      28528.7     -1.00000
      235.000      338.000      57.5021      383.864      674.595      1114.60      2835.85      6094.88      8645.19      11858.4      27967.4     -1.00000
      104.000      13.0000      16.7665      284.734      647.696      891.703      2627.63      5529.37      7925.31      11166.6      28264.0     -1.00000
      775.000      402.000      63.6673      306.041      691.413      1042.83      1537.88      5757.86      582.913      11615.6      27839.7     -1.00000
      103.000      635.000      59.6435      335.929      680.180      1016.62      2676.21      5636.05      8023.18      11478.5      28070.2     -1.00000
      385.000      377.000      56.9704      341.720      635.743      994.759      2676.04      5574.66      7984.59      11333.2      27743.3     -1.00000
      911.000      557.000      54.5572      358.986      719.855      1101.48      2909.49      6005.24      8606.15      11777.8      27793.4     -1.00000
      358.000      228.000      35.6326      289.352      595.523      830.666      3725.63      4904.23      14953.4      9705.55      27396.7     -1.00000
      824.000      630.000      59.4488      120.001      135.334      290.276      1262.32      349.511      7597.60      422.184      475.024     -1.00000
      895.000      903.000      147.126      418.328      705.331      1048.82      2768.47      5815.14      8217.94      11589.0      27862.0     -1.00000
      990.000      742.000      141.345      360.285      636.140      1021.53      2734.11      5672.42      8231.25      11434.6      27818.9     -1.00000
      951.000      621.000      60.5759      360.891      662.223      1030.76      2542.95      5335.65      7631.98      10838.3      27488.0     -1.00000
      169.000      539.000      54.3387      414.984      664.064      1300.24      2602.64      7307.75      7675.30      14839.8      27350.4     -1.00000
      614.000      300.000      23.7463      328.197      615.434      880.838      2559.29      5363.98      7699.91      10900.6      27582.2     -1.00000
      290.000      288.000      38.9370      260.028      486.888      693.053      1835.67      3905.31      5548.12      7739.10      19261.8     -1.00000
      213.000      576.000      61.9364      96.7994      137.128      5390.83      2711.22      5448.83      378.150      5423.34      481.865     -1.00000
      194.000      79.0000      2.37366      312.244      677.799      899.814      2361.93      5582.45      6125.27      11122.2      26906.6     -1.00000
      797.000      797.000      138.533      167.325      150.343      289.814      1470.80      357.020      7639.90      378.614      466.786     -1.00000
      995.000      675.000      115.872      141.519      134.941      10708.3      5485.70      10795.6      322.558      10987.6      452.853     -1.00000
      953.000      630.000      59.4488      327.231      605.617      944.434      2492.65      5278.32      7709.34      10756.1      27020.3     -1.00000
      996.000      905.000      141.580      339.871      596.534      913.263      2467.17      5089.29      7494.03      10552.7      27268.0     -1.00000
      508.000      661.000      69.5854      355.155      671.649      1057.13      2640.58      5655.62      7979.02      11348.0      27017.9     -1.00000
      849.000      208.000      30.9967      264.638      519.326      753.161      2177.85      4489.38      6554.34      9124.59      22927.1     -1.00000
      814.000      957.000      406.080      501.979      151.134      301.751      313.641      339.334      366.620      384.941      461.501     -1.00000
      5.00000      896.000      150.415      361.082      593.206      936.049      2383.61      5098.89      7234.55      10473.1      27094.1     -1.00000
      774.000      127.000      3.74501      285.127      676.676      916.472      1719.81      5548.46      2016.43      11087.5      26400.9     -1.00000
      835.000      964.000      162.630      369.610      652.624      985.903      2456.53      5239.12      7610.37      10709.2      26962.1     -1.00000
      438.000      873.000      139.681      174.720      151.260      327.104      1347.85      342.659      7574.14      382.670      453.415     -1.00000
      288.000      610.000      64.3088      363.581      693.823      1083.37      2890.36      5841.08      8360.72      11542.8      26516.5     -1.00000
      409.000      357.000      35.2433      332.545      617.020      1002.24      2523.28      5285.37      7614.40      10588.7      26311.6     -1.00000
      97.0000      906.000      300.631      480.628      137.720      250.196      301.162      319.884      337.999      387.172      441.588     -1.00000
      676.000      139.000      18.5709      282.579      594.695      828.469      2450.40      5139.81      7474.32      10525.4      26157.6     -1.00000
      282.000      969.000      155.535      368.549      634.871      960.083      2492.79      5203.13      7513.65      10563.5      26668.6     -1.00000
      317.000      581.000      58.8844      302.627      249.872      958.641      871.869      5156.91      2105.96      10472.6      7389.57     -1.00000
      933.000      495.000      64.7437      289.351      561.577      868.432      2257.56      4683.92      6960.00      9363.43      23310.9     -1.00000
      87.0000      181.000      10.8801      141.160      240.566      315.566      1537.92      1489.57      6985.74      2832.11      6807.04     -1.00000
      77.0000      269.000      12.8805      317.830      625.101      942.724      2476.31      5758.60      7232.76      11710.1      25958.3     -1.00000
      777.000      947.000      158.271      424.745      692.260      1003.62      2517.60      5158.78      7413.98      10671.7      26464.9     -1.00000
      541.000      363.000      44.1579      329.821      688.560      927.973      2501.10      5735.73      7302.82      11664.2      25928.1     -1.00000
      518.000      858.000      252.924      471.186      611.598      876.065      2483.21      4895.81      7401.94      9977.50      26283.2     -1.00000
      84.0000      6.00000      3.94047      259.122      587.700      824.451      2404.28      5105.71      7278.78      10433.0      25680.8     -1.00000
      640.000      724.000      131.210      370.796      580.363      1037.39      2639.02      5742.58      7087.31      12002.5      25998.6     -1.00000
      618.000      759.000      146.501      383.403      623.462      972.886      2378.70      5034.97      6725.53      10380.8      25902.9     -1.00000
      541.000      825.000      152.711      174.276      153.436      321.021      1324.88      368.104      7283.02      429.766      489.635     -1.00000
      254.000      281.000      25.5816      303.606      557.856      835.686      1721.73      5116.52      2952.86      10382.7      24223.9     -1.00000
      401.000      0.00000      2.97313      295.451      599.814      872.404      2545.36      5285.88      7060.67      10738.9      25448.6     -1.00000
      516.000      1007.00      173.067      365.429      629.182      966.014      2459.20      5273.98      6834.30      10653.9      25825.4     -1.00000
      912.000      633.000      64.1121      292.967      235.699      956.081      633.150      5111.67      1453.01      10231.0      4660.86     -1.00000
      871.000      37.0000      4.15359      275.830      596.271      808.667      2406.76      4896.22      7322.66      10048.3      24992.0     -1.00000
      800.000      878.000      142.441      165.706      141.753      10313.5      5367.33      10487.3      386.620      10613.6      466.725     -1.00000
      153.000      351.000      58.9018      90.7778      137.869      9461.07      4844.72      9464.67      374.717      9579.39      477.396     -1.00000
      631.000      548.000      62.4982      341.466      610.335      975.900      2381.37      4988.83      7068.92      10078.2      25020.0     -1.00000
      496.000      58.0000      30.5203      299.664      619.089      835.641      2398.05      4987.48      7106.18      10017.5      24562.9     -1.00000
      258.000      429.000      56.2215      290.760      601.662      866.020      2350.50      4881.22      7055.90      10113.9      25391.8     -1.00000
      950.000      834.000      142.783      340.312      605.174      905.881      2299.58      4873.26      6816.02      9968.02      24751.2     -1.00000
      506.000      190.000      32.6898      288.249      612.691      846.530      2317.95      4867.83      7019.76      9816.74      24303.5     -1.00000
      718.000      496.000      52.9001      108.768      154.503      9368.03      4869.21      9474.68      368.558      9543.12      479.340     -1.00000
      937.000      995.000      179.273      353.537      621.632      878.014      2401.53      4499.61      7382.33      8987.93      24637.3     -1.00000
      583.000      453.000      59.9225      321.104      626.360      925.910      2458.13      5083.82      7117.70      10105.7      24807.3     -1.00000
      5.00000      543.000      60.3425      303.255      563.906      850.997      2233.49      4711.77      6886.39      9609.14      24234.8     -1.00000
      236.000      397.000      63.5274      306.732      593.782      912.691      2373.84      4937.94      6994.14      9910.68      24668.7     -1.00000
      736.000      479.000      68.3075      330.048      587.679      910.828      2349.85      4868.54      7008.18      9892.30      24557.1     -1.00000
      532.000      16.0000      4.03749      356.362      175.570      639.889      2985.28      6363.81      1853.17      1838.58      23907.3     -1.00000
      864.000      553.000      57.5620      287.648      592.457      882.803      2222.21      4684.94      6746.32      9604.64      24012.4     -1.00000
      958.000      66.0000      4.83539      237.942      486.375      692.858      2017.19      4316.78      6128.10      8839.25      22201.1     -1.00000
      295.000      423.000      56.4978      305.824      596.633      899.720      2323.78      4828.18      6808.22      9744.38      23824.5     -1.00000
      234.000      506.000      49.4590      107.473      141.258      4482.57      2404.67      4670.49      369.438      4645.08      473.584     -1.00000
      1000.00      773.000      138.038      361.770      582.729      908.296      2390.87      4927.51      7106.56      9881.92      24151.7     -1.00000
      597.000      503.000      55.2706      307.545      576.154      891.331      2251.70      4659.57      6704.90      9477.11      23843.7     -1.00000
      845.000      878.000      141.156      340.592      594.363      890.547      2265.95      4785.47      6890.91      9683.47      24037.4     -1.00000
      35.0000      643.000      61.3135      112.073      123.878      9406.14      4857.62      9526.95      340.004      9567.00      464.234     -1.00000
      912.000      983.000      145.489      124.195      126.803      5281.69      2748.82      5416.22      351.356      5370.44      422.450     -1.00000
      483.000      353.000      54.6784      305.572      584.487      911.266      2412.94      4869.10      7283.03      9691.32      23187.7     -1.00000
      555.000      3.00000      8.03974      424.771      416.571      1370.68      2155.89      9244.94      6379.52      18967.9      23056.2     -1.00000
      228.000      987.000      180.440      363.418      636.599      928.134      2273.97      4601.77      6410.78      9230.96      23536.7     -1.00000
      518.000      381.000      50.1114      274.282      551.473      876.307      2271.12      4699.99      6586.48      9459.91      22962.1     -1.00000
      656.000      940.000      167.714      335.970      586.525      867.428      2202.63      4528.00      6541.35      9206.76      23295.8     -1.00000
      259.000      131.000      2.21393      78.4725      144.569      140.094      253.452      342.933      366.375      393.198      22804.4     -1.00000
      693.000      466.000      59.6890      111.869      151.407      1450.19      2024.57      1277.10      378.073      1306.95      501.760     -1.00000
      612.000      670.000      57.1859      282.646      595.246      841.706      2069.41      4634.56      5719.86      9174.87      23013.1     -1.00000
      995.000      502.000      56.1767      297.285      574.618      865.980      2269.98      3979.65      6027.81      9023.07      22817.9     -1.00000
      668.000      562.000      63.0690      138.058      1316.71      383.416      1808.42      785.055      9380.78      1251.11      22735.4     -1.00000
      599.000      149.000      35.7288      230.589      446.001      646.208      1814.19      3682.09      5382.22      7405.68      18352.0     -1.00000
      705.000      775.000      145.780      144.672      136.081      4642.96      2498.81      4888.62      370.317      4814.83      502.655     -1.00000
      149.000      699.000      157.306      302.949      491.769      810.549      1976.93      4097.62      5976.76      8452.19      21669.4     -1.00000
      997.000      946.000      270.197      420.341      156.063      255.552      276.780      303.428      314.688      363.933      393.070     -1.00000
      691.000      42.0000      5.54501      251.099      563.484      765.277      2215.76      4550.25      6454.09      9213.17      22955.7     -1.00000
      476.000      930.000      194.920      340.187      557.136      916.741      1801.58      4573.47      3853.25      9299.47      22866.9     -1.00000
      321.000      366.000      58.4265      284.238      493.764      786.177      1948.18      4021.59      5764.13      8179.28      20204.0     -1.00000
      1000.00      397.000      57.1463      78.6152      115.341      8409.54      4441.63      8618.81      336.825      8666.02      439.576     -1.00000
      10.0000      983.000      306.672      426.155      154.483      254.035      271.129      341.290      274.635      300.423      367.259     -1.00000
      235.000      958.000      311.120      419.986      147.966      277.317      310.210      337.441      350.378      381.014      414.187     -1.00000
      343.000      276.000      31.9087      302.062      512.645      796.980      2177.05      4538.43      6433.48      9100.25      22155.1     -1.00000
      6.00000      450.000      59.9507      238.704      552.951      743.607      1977.07      3622.28      6358.54      7256.68      22181.4     -1.00000
      486.000      689.000      128.440      151.780      164.414      8866.62      4581.08      9005.43      388.800      9063.14      506.915     -1.00000
      519.000      948.000      188.365      313.286      553.489      839.588      2036.76      4246.66      6130.54      8803.84      22528.1     -1.00000
      1013.00      944.000      159.046      140.479      135.410      5059.70      2674.15      5075.70      295.389      5019.50      394.640     -1.00000
      537.000      139.000      12.9559      256.377      552.673      758.622      2163.44      4477.68      6346.41      9005.39      21868.1     -1.00000
      734.000      399.000      60.6275      245.172      217.730      336.373      681.557      4190.12      1538.04      8449.66      4922.91     -1.00000
      803.000      134.000      2.93182      252.015      551.182      743.302      2089.52      4379.02      6220.13      8797.54      22152.6     -1.00000
      484.000      837.000      158.703      412.209      539.543      976.268      1968.78      4910.67      4028.67      11478.0      22117.4     -1.00000
      487.000      774.000      145.810      334.836      557.894      855.479      2178.88      4359.86      6168.47      8743.78      21984.8     -1.00000
      354.000      616.000      72.3534      96.3879      130.143      8622.97      4462.12      8650.94      375.212      8741.79      467.632     -1.00000
      248.000      323.000      33.9019      286.820      512.518      751.420      2063.26      4337.51      6193.40      8765.13      21619.8     -1.00000
      718.000      601.000      64.8234      115.766      141.921      302.259      1163.38      375.889      5961.29      425.566      500.042     -1.00000
      706.000      498.000      77.7455      303.442      592.118      877.165      2073.77      4341.88      5977.08      8744.56      21715.5     -1.00000
      586.000      583.000      56.7955      113.567      167.622      4088.96      2102.31      4329.50      434.656      4236.85      663.098     -1.00000
      275.000      898.000      152.049      358.156      566.058      847.229      1845.65      4296.38      4650.96      8596.42      21687.2     -1.00000
      813.000      354.000      63.0293      87.6575      127.886      8159.14      6833.87      8218.05      380.490      8228.34      438.288     -1.00000
      349.000      498.000      63.0422      284.482      541.560      842.611      2096.94      4273.85      6128.11      8519.36      21415.2     -1.00000
      896.000      409.000      55.0788      94.0796      135.669      8000.51      4206.24      8129.46      327.876      8185.95      464.709     -1.00000
      266.000      247.000      36.8806      210.860      545.305      642.988      2028.27      2865.82      5862.00      5418.22      21059.9     -1.00000
      406.000      233.000      32.6522      282.310      567.110      750.099      2006.82      4543.22      6388.14      8716.22      20989.7     -1.00000
      1.00000      406.000      58.2890      254.437      637.624      778.788      1214.62      4150.37      6953.99      8063.60      21002.1     -1.00000
      602.000      567.000      55.4422      109.438      128.045      8023.84      4242.38      8018.87      372.732      8382.28      465.569     -1.00000
      583.000      9.00000      17.1625      223.557      489.852      671.883      1912.02      4083.97      5800.30      8294.89      21072.6     -1.00000
      631.000      368.000      57.4450      71.3379      127.399      7845.31      4306.04      7912.71      329.426      8008.17      477.223     -1.00000
      994.000      577.000      38.6835      265.050      513.886      819.523      2024.25      4248.39      6070.90      8558.07      20995.8     -1.00000
      536.000      622.000      75.7416      104.271      125.344      7050.21      3730.63      8244.37      348.022      8332.55      507.765     -1.00000
      900.000      911.000      201.604      357.822      514.051      824.353      1940.72      3935.08      5768.14      7936.96      20931.8     -1.00000
      995.000      391.000      44.8239      72.1959      111.234      642.651      272.545      339.382      337.990      397.109      441.604     -1.00000
      474.000      875.000      151.466      166.811      149.783      4012.68      2157.27      4595.93      375.946      4115.65      561.009     -1.00000
      619.000      12.0000      5.75644      82.1712      149.063      183.536      1077.80      644.440      5441.25      1052.43      2230.66     -1.00000
      582.000      882.000      156.721      312.370      526.564      817.087      1978.50      4057.51      5789.47      8228.28      20672.6     -1.00000
      552.000      971.000      181.427      307.672      499.507      774.845      1910.09      3962.51      5683.89      8014.01      20719.9     -1.00000
      188.000      746.000      158.277      367.790      531.572      677.254      1694.08      4778.83      4148.70      9637.64      20512.9     -1.00000
      520.000      16.0000      3.62868      301.326      473.672      944.371      1499.47      6005.11      474.194      12153.8      20178.8     -1.00000
      650.000      33.0000      7.83856      275.450      494.053      686.662      1984.31      3942.05      6479.90      7836.19      20124.5     -1.00000
      333.000      827.000      128.097      286.510      497.089      822.900      1919.41      3921.70      5577.27      8009.49      20479.8     -1.00000
      814.000      283.000      24.9535      276.834      491.274      721.375      2196.37      4122.38      7228.95      8172.30      20158.5     -1.00000
      771.000      561.000      70.4827      282.152      553.752      808.501      1956.06      3985.59      5752.95      8010.18      20185.7     -1.00000
