PDS_VERSION_ID         = PDS3
RECORD_TYPE            = STREAM
OBJECT                 = TEXT
  PUBLICATION_DATE     = 2014-02-19
  INTERCHANGE_FORMAT   = ASCII
  NOTE                 = "WAC hot pixel file for epoch 2011.5."
END_OBJECT             = TEXT
END

WAC hot pixel list. Lines 1 and 2 are column headings giving exposure time 
(sec) and gain state (e-/DN), respectively, of source dark images. Starting 
on line 3, first two columns indicate x and y value of hot pixel; columns 3 
through N-1 give median electron counts for each exposure bin, and last (Nth) 
column contains either the index of the exposure bin where saturation first 
occurs, or -1 if no saturation.

\begindata
      0.00000      0.00000      0.00000      10.0000      32.0000      100.000      560.000      1200.00
      0.00000      0.00000      11.7270      11.7270      27.6800      27.6800      27.6800      27.6800
      804.000      646.000      249.639      16579.3      51539.3      111336.      111341.      111343.      3.00000
      792.000      1007.00      337.377      18749.3      52392.1      110450.      111341.      111343.      3.00000
      554.000      174.000      187.301      13330.5      39889.1      101479.      111349.      111341.      4.00000
      518.000      858.000      263.374      10608.0      34032.9      94678.5      111341.      111346.      4.00000
      804.000      1001.00      309.898      8577.85      28583.8      87267.1      111344.      362.780      4.00000
      833.000      328.000      133.446      13162.3      39452.1      97053.2      111336.      111343.      4.00000
      577.000      598.000      191.620      7588.14      24216.1      70293.7      111336.      111340.      4.00000
      413.000      578.000      172.679      9465.04      28821.1      73621.0      111337.      111343.      4.00000
      365.000      612.000      211.302      6562.69      21089.2      60218.9      111341.      111334.      4.00000
      365.000      473.000      128.677      7396.91      23790.5      61266.7      111345.      111343.      4.00000
      231.000      20.0000      56.0701      6795.40      20588.4      56293.2      111340.      111337.      4.00000
      685.000      585.000      198.080      7192.13      22117.1      56408.4      111348.      111343.      4.00000
      259.000      132.000      7.71197      5599.18      17850.4      51493.2      111345.      111341.      4.00000
      511.000      126.000      76.4256      4694.77      15240.2      46713.8      111339.      111338.      4.00000
      648.000      531.000      131.698      4789.55      15255.1      44765.4      111346.      111343.      4.00000
      962.000      403.000      57.7716      4997.88      15720.3      43860.3      111344.      111336.      4.00000
      561.000      116.000      52.2280      4934.42      15137.1      41841.2      111346.      111340.      4.00000
      891.000      939.000      222.632      4293.08      13530.5      39401.0      111340.      111340.      4.00000
      162.000      1018.00      199.154      3227.85      11716.8      36600.5      111347.      111350.      4.00000
      947.000      51.0000      42.2492      3797.16      11894.5      36463.5      111343.      111344.      4.00000
      716.000      705.000      180.489      3018.42      10308.2      31916.1      111342.      111346.      4.00000
      224.000      420.000      51.5860      2908.60      9739.68      30241.6      111346.      111337.      4.00000
      339.000      693.000      146.401      2821.97      9492.88      29573.1      111347.      111339.      4.00000
      640.000      997.000      202.309      2624.68      8959.39      28736.0      111345.      111354.      4.00000
      663.000      382.000      93.0641      2615.23      8351.65      25314.9      109935.      111342.      4.00000
      842.000      712.000      164.971      2128.57      7304.47      23660.4      111341.      111341.      4.00000
      114.000      405.000      77.7680      2067.14      7027.08      22654.9      109405.      111340.      4.00000
      91.0000      394.000      58.4573      2286.14      7499.03      23673.3      108207.      111338.      5.00000
      372.000      333.000      113.897      1645.37      5301.60      16947.1      103046.      111337.      5.00000
      210.000      792.000      176.462      2270.18      7810.28      24287.6      105751.      111340.      5.00000
      518.000      859.000      228.706      351.696      691.615      1201.37      92073.5      111342.      5.00000
      707.000      655.000      137.069      3234.59      10432.8      31358.2      108128.      111343.      5.00000
      143.000      272.000      71.4916      3374.98      10679.4      30579.5      106512.      111339.      5.00000
      666.000      481.000      97.0295      2931.07      9601.57      28244.6      105266.      111333.      5.00000
      971.000      821.000      179.131      2225.50      7608.13      23418.9      102321.      111333.      5.00000
      615.000      629.000      141.214      2110.03      7153.60      22740.1      100815.      111343.      5.00000
      991.000      762.000      139.584      1683.91      5553.00      18837.7      97211.0      111340.      5.00000
      732.000      351.000      106.264      2238.60      7162.36      22119.8      94692.1      111342.      5.00000
      54.0000      76.0000      39.3422      2615.29      7915.56      23258.3      94174.5      111338.      5.00000
      787.000      651.000      129.078      2054.48      7046.79      18969.6      90434.7      111338.      5.00000
      519.000      951.000      212.097      1960.13      6556.16      20634.2      90662.9      111345.      5.00000
      393.000      618.000      131.453      1673.16      5609.29      17946.4      87949.9      111340.      5.00000
      804.000      645.000      145.509      85.8537      162.014      259.607      75956.3      111340.      5.00000
      630.000      1000.00      238.966      1737.89      6005.79      19290.0      85372.3      111352.      5.00000
      906.000      454.000      76.7449      1934.20      6219.94      18918.9      84289.4      111337.      5.00000
      55.0000      294.000      12.7267      2698.56      8516.84      24295.2      86808.3      111346.      5.00000
      775.000      945.000      232.851      1788.25      5863.49      18756.8      83719.3      111340.      5.00000
      394.000      73.0000      32.6193      1645.54      5270.89      16239.1      82219.9      111334.      5.00000
      826.000      799.000      173.466      1810.17      6030.58      18638.9      83277.8      111342.      5.00000
      304.000      417.000      119.528      1610.35      5519.51      16866.3      82629.2      111343.      5.00000
      78.0000      277.000      69.0608      1922.24      6170.14      18556.0      81753.7      111339.      5.00000
      662.000      623.000      149.914      1401.15      4462.64      14631.6      79600.7      111343.      5.00000
      996.000      806.000      133.424      1632.78      5409.46      17135.2      80821.2      111344.      5.00000
      474.000      416.000      55.9668      1629.30      5202.75      16454.8      80725.4      111337.      5.00000
      27.0000      157.000      49.3452      1712.85      5471.14      16676.9      78789.7      111341.      5.00000
      950.000      163.000      61.9226      1462.11      4785.30      14836.8      75966.7      111334.      5.00000
      518.000      314.000      40.8398      1752.81      5548.76      16760.7      75385.6      111339.      5.00000
      570.000      705.000      159.204      1402.34      4606.95      14710.7      72999.0      111346.      5.00000
      554.000      175.000      61.7868      98.3260      268.015      395.847      63386.5      111342.      5.00000
      494.000      322.000      71.2713      1377.31      4424.96      13802.4      71368.8      111341.      5.00000
      486.000      334.000      9.27157      1454.19      4700.67      14456.0      71592.9      111340.      5.00000
      119.000      316.000      74.4908      1918.04      6001.84      17972.9      72463.9      109909.      5.00000
      293.000      642.000      140.246      1513.44      5038.89      15839.8      71390.3      111335.      5.00000
      358.000      225.000      60.8757      1287.09      4207.85      12819.4      69322.6      111335.      5.00000
      196.000      538.000      125.718      1270.27      4004.68      13122.3      69684.8      111339.      5.00000
      176.000      663.000      130.347      1230.46      4197.12      13541.5      70071.0      111337.      5.00000
      57.0000      393.000      103.494      1484.94      4924.15      15229.8      71475.7      111340.      5.00000
      538.000      619.000      121.979      1089.65      3677.50      11772.7      65117.6      111337.      5.00000
      87.0000      781.000      176.101      1312.92      4341.52      14292.3      69571.6      109521.      5.00000
      691.000      62.0000      18.8225      1780.18      5582.08      16669.6      72404.1      111339.      5.00000
      232.000      277.000      64.8917      1407.42      4557.67      13956.8      67496.0      111339.      5.00000
      898.000      537.000      83.6049      1256.83      4354.60      13734.2      65867.6      111339.      5.00000
      963.000      861.000      152.538      1134.34      3735.25      12932.8      65480.8      109921.      5.00000
      139.000      210.000      2.61431      1567.38      4895.92      14660.8      66979.3      111221.      5.00000
      625.000      654.000      147.960      1225.38      4248.20      13670.2      64862.1      110702.      5.00000
      864.000      553.000      81.8792      1160.61      3757.88      11944.5      63526.6      111338.      5.00000
      569.000      760.000      190.451      1419.27      4698.19      14659.7      66578.0      110037.      5.00000
      239.000      74.0000     -9.26600      1590.78      4835.49      14461.5      65413.6      111332.      5.00000
      385.000      611.000      129.739      1173.80      3914.16      12359.8      62488.1      111208.      5.00000
      270.000      26.0000      12.7453      1268.97      4067.60      12323.8      61917.1      110792.      5.00000
      1000.00      61.0000      13.3936      1174.07      3839.68      11803.8      59416.3      111327.      5.00000
      400.000      997.000      213.983      1184.31      3882.79      12974.7      57922.0      552.243     -1.00000
      804.000      1002.00      233.457      368.727      653.176      1197.83      55671.8      543.178     -1.00000
      131.000      429.000      76.7751      1243.99      4085.16      12748.3      62433.0      109102.     -1.00000
      25.0000      584.000      110.660      1181.39      3841.64      11857.5      62962.4      108817.     -1.00000
      353.000      817.000      143.629      1056.08      3446.92      11160.5      60721.9      108916.     -1.00000
      856.000      823.000      181.319      1228.33      4367.94      14227.1      64334.4      108710.     -1.00000
      804.000      1000.00      222.901      120.924      243.843      364.510      51436.9      369.881     -1.00000
      788.000      101.000      29.2076      1260.01      4114.30      12578.3      60877.4      107687.     -1.00000
      547.000      370.000      58.2256      1742.93      5499.02      16585.7      67944.5      107401.     -1.00000
      597.000      612.000      140.940      2143.06      6889.09      20329.9      72878.1      106747.     -1.00000
      26.0000      963.000      203.165      2101.19      7139.46      22638.9      99667.2      107044.     -1.00000
      398.000      742.000      159.966      1255.00      4028.19      13045.3      62529.3      106781.     -1.00000
      631.000      4.00000      20.1607      1223.86      3846.77      11667.1      57476.3      105672.     -1.00000
      31.0000      908.000      177.263      1488.02      4836.70      15462.0      72118.9      106198.     -1.00000
      238.000      409.000      9.26801      1119.41      3866.16      12258.7      60166.0      104712.     -1.00000
      378.000      741.000      138.818      1073.93      3713.56      11802.5      58862.0      103860.     -1.00000
      268.000      77.0000      42.3383      2028.45      6305.42      18236.9      68023.8      103049.     -1.00000
      108.000      289.000      61.3587      1558.48      4869.36      14800.8      63475.2      103040.     -1.00000
      653.000      316.000      32.3585      1128.70      3650.91      11436.0      57310.1      102957.     -1.00000
      974.000      538.000      105.128      1069.88      3455.25      11071.3      56010.3      102510.     -1.00000
      198.000      682.000      144.846      2241.58      7222.18      20747.7      71953.5      102540.     -1.00000
      822.000      465.000      59.0884      1105.56      3622.29      11351.1      56733.6      102012.     -1.00000
      303.000      956.000      225.220      944.281      3195.33      10380.2      55526.2      101945.     -1.00000
      815.000      104.000      18.2006      1513.04      4558.62      13749.5      59891.9      100910.     -1.00000
      113.000      103.000      36.5538      1416.30      4293.02      12789.7      57535.5      100296.     -1.00000
      83.0000      346.000      30.0818      1074.02      3535.21      10864.5      55096.9      99970.1     -1.00000
      804.000      648.000      145.075      158.885      325.837      479.801      1279.43      100268.     -1.00000
      590.000      545.000      97.9762      1301.50      4338.87      13489.7      60629.3      99926.7     -1.00000
      83.0000      762.000      152.690      1052.37      3452.54      12878.5      53818.4      100154.     -1.00000
      679.000      128.000     -6.41595      1210.77      3753.57      11418.0      55455.0      99360.4     -1.00000
      476.000      670.000      139.123      917.962      3064.30      9862.26      51921.1      96940.0     -1.00000
      204.000      490.000      90.4013      1260.01      4021.38      12304.2      56519.5      96451.5     -1.00000
      675.000      364.000      29.0623      971.663      3008.03      9152.58      49041.4      95010.4     -1.00000
      107.000      183.000      42.6575      1187.55      3838.76      11503.8      53489.8      94176.5     -1.00000
      437.000      657.000      137.165      895.655      2911.96      9377.03      50064.8      93732.2     -1.00000
      714.000      257.000      60.2567      906.242      2906.17      9032.13      48317.6      93195.7     -1.00000
      718.000      160.000      38.7304      955.694      3056.46      9617.47      49880.0      92945.9     -1.00000
      44.0000      6.00000     -10.1935      1103.66      3485.74      10450.4      51006.6      92544.9     -1.00000
      49.0000      1003.00      158.171      518.715      1617.51      4999.42      27328.1      92715.0     -1.00000
      95.0000      485.000      71.2501      898.568      2895.61      8982.09      47204.9      91967.5     -1.00000
      748.000      440.000      53.3333      1149.61      3859.00      11774.5      53803.2      91090.0     -1.00000
      719.000      37.0000      18.9794      941.382      2927.75      9029.16      46618.9      89617.3     -1.00000
      349.000      949.000      199.012      962.441      3165.76      10317.8      50493.4      89470.4     -1.00000
      117.000      400.000      1.23902      864.264      2921.14      9159.26      47950.4      88804.8     -1.00000
      907.000      84.0000      33.5143      1145.17      3701.50      11261.2      51328.1      87882.0     -1.00000
      651.000      746.000      159.068      861.631      2785.19      8729.45      46962.3      88203.6     -1.00000
      999.000      454.000      101.483      750.715      2566.45      7882.68      43006.5      87695.0     -1.00000
      689.000      775.000      127.474      740.039      2390.72      7725.96      43294.1      87641.9     -1.00000
      577.000      599.000      145.812      232.488      429.384      685.153      21236.8      86661.0     -1.00000
      618.000      759.000      174.869      787.770      2327.02      7600.04      43239.6      86616.5     -1.00000
      357.000      203.000      61.2717      1081.76      3337.42      10303.5      49153.5      85934.5     -1.00000
      586.000      155.000      53.8992      1113.02      3650.37      10849.2      49591.2      84800.0     -1.00000
      348.000      584.000      119.427      777.341      2428.02      7654.43      42149.8      84432.2     -1.00000
      476.000      192.000      76.7526      899.890      2875.70      8761.36      44293.5      83695.9     -1.00000
      631.000      32.0000      47.6578      1010.94      3196.68      9553.80      46612.3      82705.3     -1.00000
      762.000      536.000      94.0023      964.142      3093.62      9579.02      46491.0      82959.6     -1.00000
      154.000      725.000      150.168      765.856      2426.18      7552.14      42003.6      82714.4     -1.00000
      420.000      156.000     -23.7127      799.956      2657.49      8282.25      42575.0      81246.9     -1.00000
      813.000      18.0000      16.7338      989.080      3088.59      9260.19      44623.9      81094.7     -1.00000
      302.000      482.000      48.1200      701.333      2203.96      6678.08      35796.8      80825.6     -1.00000
      682.000      926.000      176.934      776.796      2510.97      8054.67      42994.9      80757.6     -1.00000
      602.000      231.000     -19.6638      840.808      2657.60      8194.62      42227.8      80146.4     -1.00000
      287.000      352.000      79.1527      683.679      2287.42      6962.08      37966.9      80095.2     -1.00000
      834.000      993.000      234.498      96.3428      147.684      287.397      752.173      80633.4     -1.00000
      426.000      434.000      38.1981      706.271      2233.31      6958.08      39187.7      79864.8     -1.00000
      293.000      379.000      69.6864      915.471      2891.45      9085.31      44323.1      79256.8     -1.00000
      486.000      353.000      70.2783      907.109      2706.84      8197.66      41764.9      78532.2     -1.00000
      40.0000      513.000      83.1888      842.927      2654.63      7904.60      40863.1      78625.3     -1.00000
      193.000      706.000      115.173      763.503      2374.39      7595.45      40889.9      78635.3     -1.00000
      604.000      532.000      94.5511      769.857      2538.74      7819.00      41087.7      78068.7     -1.00000
      845.000      827.000      185.095      745.803      2398.83      7708.20      42499.9      78209.1     -1.00000
      175.000      25.0000      25.4662      697.676      2154.80      6640.89      36309.1      76863.9     -1.00000
      554.000      173.000     -2.27912      43.2396      187.425      276.727      9657.17      76625.3     -1.00000
      860.000      925.000      177.919      775.575      2477.38      7922.94      41063.4      76843.4     -1.00000
      360.000      558.000      120.742      664.580      2092.60      6730.00      37326.2      76123.2     -1.00000
      130.000      428.000     -3.39062      703.524      2263.20      7367.24      39074.9      75931.8     -1.00000
      264.000      275.000      26.5720      974.889      2988.53      9033.72      42840.6      75642.0     -1.00000
      149.000      763.000      137.781      795.434      2509.06      7906.71      40834.8      75962.0     -1.00000
      750.000      895.000      184.913      734.957      2349.15      7838.42      41261.8      75491.8     -1.00000
      518.000      857.000      202.609      104.455      217.938      280.727      12725.3      75242.2     -1.00000
      213.000      194.000      62.8283      911.239      2849.42      8682.71      42161.9      74428.5     -1.00000
      911.000      112.000      60.0249      640.104      2176.01      6713.07      36514.7      74189.9     -1.00000
      982.000      15.0000      14.9029      934.733      2939.70      8716.29      41117.7      73333.6     -1.00000
      632.000      453.000      68.7987      667.437      2115.68      6721.17      36886.6      73298.6     -1.00000
      468.000      653.000      127.196      750.380      2141.93      6831.11      37140.9      73444.3     -1.00000
      685.000      840.000      184.110      701.073      2151.38      6738.39      37244.1      73441.5     -1.00000
      364.000      114.000      35.5972      1114.10      3568.93      10610.0      46317.9      72232.0     -1.00000
      449.000      291.000      35.0274      816.085      2528.08      7682.08      38592.7      72355.6     -1.00000
      323.000      210.000      7.72412      826.843      2424.95      7377.86      37636.6      72035.7     -1.00000
      310.000      842.000      184.558      610.793      2013.09      6131.84      35415.4      72423.3     -1.00000
      333.000      901.000      175.391      665.848      2093.62      6710.68      36745.8      72149.1     -1.00000
      511.000      127.000      14.3827      86.3079      209.984      316.676      3802.17      71367.0     -1.00000
      899.000      837.000      162.722      645.825      2121.88      6633.37      36478.6      71767.1     -1.00000
      113.000      618.000      123.493      672.343      2071.25      6629.61      36632.6      71222.9     -1.00000
      894.000      781.000      152.647      709.790      2280.90      7290.85      38161.2      71117.7     -1.00000
      776.000      274.000      74.5366      685.196      2090.33      6323.33      34263.2      70245.9     -1.00000
      584.000      582.000      92.5981      574.371      1814.74      6020.56      34156.8      70451.4     -1.00000
      812.000      397.000      55.6404      707.209      2277.21      7119.61      36768.6      70293.8     -1.00000
      626.000      890.000      196.482      634.713      2028.66      6664.77      36718.7      70454.3     -1.00000
      750.000      336.000      97.4047      667.160      2238.90      7064.49      36732.5      69658.4     -1.00000
      589.000      469.000      49.6856      731.049      2319.81      7052.54      36513.3      69508.0     -1.00000
      833.000      329.000      68.9820      201.695      378.270      721.061      35335.3      69158.9     -1.00000
      602.000      587.000      103.396      812.227      2379.22      7289.82      38274.1      69072.9     -1.00000
      235.000      338.000      32.9839      922.435      2865.97      8839.63      40279.9      68881.1     -1.00000
      282.000      258.000    -0.132124      734.916      2357.65      7080.25      35796.9      68584.2     -1.00000
      765.000      21.0000      28.4848      699.268      2118.90      6382.31      33863.2      68140.7     -1.00000
      826.000      893.000      181.953      668.747      2072.59      6354.52      35473.5      68767.2     -1.00000
      150.000      648.000      147.561      640.159      2120.84      6652.16      34989.7      68463.3     -1.00000
      668.000      920.000      204.270      849.480      2653.33      6989.91      36883.6      68306.4     -1.00000
      1002.00      695.000      124.079      696.187      2232.44      6736.88      35522.8      67939.5     -1.00000
      377.000      252.000      56.2878      709.041      2202.04      6630.25      34829.4      67609.0     -1.00000
      816.000      564.000      119.803      579.226      1767.31      5565.30      31642.6      67480.1     -1.00000
      828.000      681.000      135.390      655.245      2263.84      6814.82      35451.7      67361.5     -1.00000
      791.000      327.000     -3.59534      740.627      2422.67      7188.56      36097.1      67086.2     -1.00000
      552.000      971.000      182.942      560.983      1678.99      5355.59      31487.7      67356.4     -1.00000
      522.000      40.0000      31.3663      923.686      1629.53      6460.88      35302.9      66435.6     -1.00000
      705.000      195.000      12.7738      727.869      2344.99      7089.01      35431.0      66466.0     -1.00000
      694.000      40.0000      31.3663      691.354      2279.88      6970.43      35220.4      66134.9     -1.00000
      677.000      370.000      66.8195      652.445      1983.38      6069.21      32709.0      65948.6     -1.00000
      674.000      645.000      134.330      803.692      2562.94      7975.06      37958.7      66138.5     -1.00000
      420.000      194.000      72.9320      609.450      1958.59      6125.94      32171.0      65681.0     -1.00000
      75.0000      421.000      50.5766      639.126      2071.52      6381.94      34014.4      65419.7     -1.00000
      178.000      169.000      46.6549      581.573      1924.65      5798.60      31213.2      64333.8     -1.00000
      356.000      70.0000      19.7725      676.270      2210.57      6275.19      33836.2      64238.4     -1.00000
      431.000      741.000      153.109      667.206      2003.50      6209.34      33075.5      64324.7     -1.00000
      175.000      26.0000      28.9658      601.186      1770.24      5375.17      29974.9      63712.9     -1.00000
      409.000      564.000      101.320      610.623      1904.46      5891.23      32335.7      64077.1     -1.00000
      991.000      946.000      206.446      576.166      1879.11      5910.23      33064.1      64312.7     -1.00000
      992.000      263.000     -15.1531      690.781      2319.40      7075.37      34647.9      63700.6     -1.00000
      278.000      187.000      71.8892      617.961      1981.50      5966.12      31948.7      63445.6     -1.00000
      783.000      337.000      73.9920      651.120      2006.44      6156.13      31718.0      63383.4     -1.00000
      493.000      874.000      149.737      704.387      2152.14      6683.97      34063.8      63738.1     -1.00000
      160.000      635.000      125.963      678.833      2206.97      6796.63      34607.3      63452.4     -1.00000
      214.000      936.000      156.852      564.732      1624.48      5240.56      31050.0      63536.0     -1.00000
      251.000      496.000      90.5120      626.767      2018.09      6262.55      32756.8      62733.2     -1.00000
      990.000      458.000      6.49107      484.522      1737.13      5452.92      30592.7      62574.8     -1.00000
      641.000      14.0000      9.09654      621.647      2078.68      6197.76      31788.8      61803.5     -1.00000
      909.000      161.000     -17.6006      555.177      1921.83      5243.89      29835.7      61461.7     -1.00000
      497.000      390.000      60.3446      638.702      2075.64      6429.45      32544.0      61597.2     -1.00000
      934.000      993.000      181.238      533.782      1809.18      5818.24      31734.2      61852.7     -1.00000
      538.000      389.000      12.4579      597.759      1984.97      6296.02      30572.4      60914.8     -1.00000
      289.000      420.000      74.6912      704.618      2292.05      6935.07      33804.7      60926.5     -1.00000
      1002.00      897.000      159.289      524.584      1787.24      5820.94      31625.1      61175.8     -1.00000
      880.000      959.000      196.197      527.160      1506.61      4852.25      28779.4      61183.1     -1.00000
      814.000      283.000     -11.3579      701.060      2259.32      6812.58      33167.9      60653.8     -1.00000
      683.000      149.000      36.4020      625.291      2015.14      6180.59      31292.1      60544.2     -1.00000
      209.000      664.000      120.982      545.809      1682.11      5294.81      29721.3      60445.0     -1.00000
      489.000      675.000      136.151      644.294      2011.03      6192.56      31729.1      59888.5     -1.00000
      515.000      681.000      147.117      641.727      1983.77      6084.53      31490.6      59694.1     -1.00000
      721.000      540.000      100.283      582.734      1798.33      5461.61      29765.8      59406.2     -1.00000
      888.000      986.000      208.255      515.613      1605.93      5335.96      29959.3      58954.0     -1.00000
      327.000      876.000      180.953      587.675      1874.40      5607.11      29987.6      58436.6     -1.00000
      206.000      104.000      30.2650      603.908      1855.81      5590.61      29620.5      57381.1     -1.00000
      908.000      592.000      108.320      610.599      1781.07      5731.97      30142.2      57586.1     -1.00000
      465.000      787.000      168.944      550.168      1681.49      5131.59      27948.2      57589.6     -1.00000
      97.0000      627.000      104.636      583.654      1816.35      5458.89      29693.0      57252.0     -1.00000
      386.000      21.0000      15.6783      699.600      2031.60      6105.91      31266.7      56867.9     -1.00000
      940.000      335.000     -21.8572      580.675      1812.21      5460.89      28646.4      56559.9     -1.00000
      952.000      695.000      112.352      520.257      1529.12      4852.18      27522.5      56593.0     -1.00000
      537.000      652.000      148.650      531.649      1604.52      4973.21      27654.2      56257.0     -1.00000
      1014.00      619.000      97.2238      522.027      1546.51      4801.75      27621.3      56083.6     -1.00000
      94.0000      466.000      45.9158      507.151      1696.48      5207.76      28270.9      55987.1     -1.00000
      585.000      354.000      65.4251      509.997      1549.74      5018.55      27070.4      55310.9     -1.00000
      223.000      974.000      202.902      580.067      1780.38      5543.47      29243.3      55595.0     -1.00000
      365.000      613.000      146.827      256.035      469.538      788.611      4305.15      55065.7     -1.00000
      690.000      144.000      39.4130      668.365      2127.49      6450.00      30465.6      54766.1     -1.00000
      234.000      803.000      169.607      538.792      1631.79      5053.32      27873.5      55138.3     -1.00000
      971.000      755.000      145.753      508.930      1597.70      4979.13      27689.0      55065.1     -1.00000
      1022.00      161.000      2.54347      534.578      1825.35      5576.32      28457.0      54527.1     -1.00000
      213.000      240.000      33.9477      538.629      1759.07      5213.86      27504.5      54420.4     -1.00000
      441.000      22.0000      10.8509      522.872      1578.14      4751.00      25483.0      54080.1     -1.00000
      896.000      456.000      81.4343      516.727      1623.37      5107.16      27514.8      54069.8     -1.00000
      640.000      998.000      218.926      234.592      430.737      758.395      1732.74      54195.5     -1.00000
      648.000      532.000      71.0972      183.509      323.782      563.010      1566.45      53485.1     -1.00000
      1016.00      482.000      32.5360      584.063      1795.93      5405.01      27549.6      53432.3     -1.00000
      604.000      268.000      62.0173      529.248      1728.44      5218.72      25916.3      53155.7     -1.00000
      300.000      655.000      125.342      498.556      1473.50      4280.95      26749.5      53301.6     -1.00000
      529.000      804.000      185.330      587.994      1656.73      5094.88      27148.0      53323.3     -1.00000
      515.000      977.000      208.724      717.110      2255.15      6990.84      37269.4      53089.7     -1.00000
      722.000      564.000      96.3492      513.782      1572.58      4703.52      25723.3      52810.5     -1.00000
      413.000      579.000      98.9624      211.957      414.535      680.626      3462.88      52734.3     -1.00000
      460.000      163.000      4.81438      535.559      1612.19      4945.26      26097.2      52407.6     -1.00000
      324.000      751.000      172.146      506.963      1537.33      4867.71      26586.1      52695.4     -1.00000
      506.000      560.000      103.979      693.174      2171.36      6866.79      34203.1      52385.6     -1.00000
      933.000      495.000      76.8210      479.278      1515.90      4653.66      25336.6      52328.3     -1.00000
      437.000      830.000      181.692      471.476      1429.71      4424.98      25068.5      52467.2     -1.00000
      728.000      585.000      111.689      513.347      1606.99      4799.13      26041.3      52274.2     -1.00000
      912.000      647.000      134.824      459.541      1318.66      4219.89      24461.0      52245.3     -1.00000
      583.000      9.00000      20.0342      470.617      1520.77      4546.77      24559.9      51792.5     -1.00000
      922.000      786.000      139.680      477.130      1407.84      4191.57      24063.4      52136.9     -1.00000
      820.000      198.000      51.9971      504.760      1623.95      4871.58      25614.1      51618.7     -1.00000
      735.000      955.000      219.762      510.573      1567.59      4870.39      26437.5      51621.5     -1.00000
      511.000      125.000      14.3231      90.9906      155.162      255.808      455.254      51078.9     -1.00000
      800.000      542.000      104.749      521.157      1628.14      5021.50      26173.7      51215.3     -1.00000
      781.000      619.000      120.678      478.469      1517.35      4724.60      26147.1      51254.1     -1.00000
      258.000      770.000      179.459      604.347      1847.25      5792.25      28580.3      51281.9     -1.00000
      594.000      989.000      215.641      509.459      1566.81      5239.51      29608.2      51247.8     -1.00000
      48.0000      920.000      158.992      474.218      1368.14      4241.72      24149.9      50951.5     -1.00000
      333.000      1021.00      209.027      656.297      2096.65      6512.18      34842.8      50921.8     -1.00000
      358.000      228.000      68.6793      530.282      1576.27      4693.94      24737.4      50307.7     -1.00000
      456.000      171.000      25.2225      483.268      1533.88      4656.73      24426.1      50203.2     -1.00000
      482.000      844.000      169.802      492.042      1452.41      4594.59      25475.6      50428.8     -1.00000
      103.000      37.0000      22.6504      484.616      1427.60      4269.58      23266.6      49969.1     -1.00000
      87.0000      181.000      53.4686      527.619      1623.42      4828.60      25231.4      50031.8     -1.00000
      691.000      696.000      184.146      502.419      1501.86      4654.32      25215.5      50080.5     -1.00000
      501.000      563.000      101.095      432.715      1461.51      4202.65      10838.4      49939.0     -1.00000
      969.000      913.000      180.752      501.744      1687.97      5164.08      26952.8      49974.3     -1.00000
      995.000      339.000      80.3932      538.724      1737.34      5130.80      26659.1      49645.1     -1.00000
      1002.00      688.000      124.767      1215.73      4176.60      12047.7      36906.7      49415.4     -1.00000
      239.000      636.000      141.197      533.132      1628.23      5168.94      26697.4      49310.6     -1.00000
      196.000      915.000      182.650      453.693      1346.52      4182.77      23869.4      49406.2     -1.00000
      390.000      983.000      204.604      520.681      1636.85      5081.36      27757.1      49298.4     -1.00000
      793.000      110.000      30.5315      549.096      1735.07      5111.10      25657.9      48675.5     -1.00000
      828.000      871.000      180.924      471.456      1492.19      4531.55      24419.1      48814.0     -1.00000
      22.0000      494.000      131.269      470.466      1379.39      4109.35      23234.1      48421.9     -1.00000
      517.000      520.000      83.7773      531.314      1618.72      5012.90      26753.8      48189.3     -1.00000
      474.000      539.000      90.1354      421.153      1348.25      3930.63      21712.5      48089.8     -1.00000
      449.000      680.000      127.629      438.262      1373.18      4358.88      24125.4      48014.9     -1.00000
      683.000      788.000      164.413      434.040      1300.41      3964.37      22285.3      47905.7     -1.00000
      439.000      120.000      47.4007      503.278      1511.93      4570.21      23934.3      47365.6     -1.00000
      179.000      886.000      154.548      509.453      1476.72      4597.10      23927.5      47633.3     -1.00000
      731.000      611.000      101.181      442.141      1396.66      4421.02      23798.2      47072.6     -1.00000
      909.000      125.000      41.2382      496.810      1520.02      4412.63      23263.4      46632.2     -1.00000
      673.000      38.0000      31.3451      488.561      1457.07      4310.42      23154.5      46542.1     -1.00000
      528.000      812.000      156.595      483.753      1380.73      4239.50      23130.0      46852.3     -1.00000
      522.000      263.000      8.44215      470.865      1486.79      4386.89      23015.2      46510.2     -1.00000
      259.000      133.000     -36.9632      121.378      253.033      367.470      1526.38      46410.7     -1.00000
      965.000      673.000      125.447      429.713      1261.62      3833.05      22299.6      46657.9     -1.00000
      117.000      372.000      69.9317      386.998      1236.49      3938.94      21790.0      46492.9     -1.00000
      349.000      978.000      199.599      428.509      1261.41      4081.83      22029.2      454.131     -1.00000
      358.000      224.000     -11.1193      297.001      885.674      2693.03      17570.0      46185.2     -1.00000
      721.000      420.000      75.5594      540.206      1569.43      4692.43      22704.5      46201.8     -1.00000
      693.000      648.000      96.3642      453.503      1316.49      3810.01      21681.8      46193.4     -1.00000
      359.000      223.000      16.6574      472.914      1423.69      4221.18      22909.2      45822.0     -1.00000
      582.000      882.000      168.271      344.963      1014.29      3047.33      17817.3      46079.6     -1.00000
      615.000      147.000      10.5811      482.046      1574.90      4574.89      23647.5      45565.6     -1.00000
      524.000      212.000      59.4321      514.156      1627.24      4931.49      24068.2      45548.7     -1.00000
      806.000      136.000      22.5329      441.217      1321.32      3947.76      21663.4      45297.8     -1.00000
      619.000      494.000      72.0835      497.825      1511.28      4413.00      23191.7      45433.6     -1.00000
      894.000      576.000      106.720      413.631      1367.98      4111.21      22408.9      45433.7     -1.00000
      160.000      554.000      92.2545      449.429      1356.55      4186.56      22335.6      45415.8     -1.00000
      472.000      475.000      80.1552      416.460      1340.39      4082.92      22418.3      45377.1     -1.00000
      979.000      968.000      189.187      470.213      1352.22      4110.49      23475.2      45598.5     -1.00000
      734.000      62.0000      15.1908      454.955      1488.85      4300.25      22735.3      45105.4     -1.00000
      53.0000      501.000      62.4990      439.139      1263.14      3912.61      21688.6      45279.1     -1.00000
      614.000      780.000      180.049      448.374      1241.03      3854.87      21617.3      45288.7     -1.00000
      292.000      308.000      69.7141      381.929      1232.05      3809.60      20627.7      43943.3     -1.00000
      1011.00      303.000     -12.3920      396.756      1300.84      3914.93      21414.7      44755.4     -1.00000
      1002.00      785.000      128.015      452.475      1304.47      4190.02      22259.2      44918.1     -1.00000
      125.000      390.000      3.75578      463.965      1351.23      4049.52      21999.2      44574.8     -1.00000
      383.000      257.000      17.4589      431.426      1381.12      4077.00      21817.3      44063.2     -1.00000
      538.000      317.000      49.1000      456.701      1440.74      4326.93      22268.1      43978.9     -1.00000
      854.000      69.0000      17.8729      466.370      1543.23      4497.96      22769.2      43838.0     -1.00000
      856.000      763.000      142.472      396.600      1180.42      3803.33      21661.8      43913.6     -1.00000
      994.000      577.000      91.5646      411.580      1334.69      4117.61      22012.3      43613.3     -1.00000
      505.000      972.000      205.443      405.798      1175.56      3526.70      20357.3      43549.6     -1.00000
      810.000      185.000      23.2221      406.483      1354.20      3942.04      21044.6      43044.9     -1.00000
      835.000      717.000      135.604      427.476      1295.51      4001.99      21271.3      43195.4     -1.00000
      947.000      52.0000      18.3663      73.9589      129.009      226.900      578.434      42584.2     -1.00000
      354.000      544.000      121.460      392.116      1230.34      3638.39      20380.3      42428.9     -1.00000
      283.000      219.000      60.3400      382.703      1286.60      3761.24      20403.1      42281.9     -1.00000
      330.000      298.000      15.8146      462.603      1404.26      4062.31      21132.6      42214.9     -1.00000
      939.000      660.000      97.1144      385.105      1157.09      3744.26      21055.8      42369.7     -1.00000
      719.000      114.000      17.6021      485.676      1586.27      4576.35      22271.0      41720.2     -1.00000
      914.000      523.000      83.9338      445.340      1242.35      3830.68      20978.0      41809.2     -1.00000
      705.000      439.000      55.1049      405.559      1237.91      3858.82      20711.9      41704.2     -1.00000
      249.000      519.000      105.220      411.443      1317.35      3932.05      20937.1      41703.7     -1.00000
      842.000      225.000      47.7417      416.877      1245.47      3835.48      20565.5      41549.2     -1.00000
      663.000      668.000      151.129      482.623      1345.17      4048.93      21313.5      41676.1     -1.00000
      85.0000      62.0000      14.4231      395.809      1263.45      3690.46      19912.8      41230.8     -1.00000
      802.000      772.000      174.819      448.645      1374.68      4132.41      21520.4      41527.9     -1.00000
      337.000      35.0000      22.2524      476.581      1348.64      3988.86      20724.9      41086.3     -1.00000
      181.000      101.000      14.7165      483.710      1650.50      4247.20      21443.6      41080.0     -1.00000
      785.000      438.000      47.2974      393.828      1176.97      3371.79      19494.6      41177.8     -1.00000
      849.000      118.000      13.7454      401.787      1274.65      3666.99      19973.6      40829.7     -1.00000
      833.000      327.000      39.0387      99.2973      163.500      258.158      671.315      40731.2     -1.00000
      594.000      21.0000      7.00635      368.810      1174.07      3572.24      19371.0      40533.1     -1.00000
      780.000      518.000      88.9229      399.556      1209.44      3799.57      20356.5      40505.4     -1.00000
      987.000      365.000     -6.03191      370.615      1211.54      3669.68      19937.2      40205.1     -1.00000
      168.000      603.000      109.441      447.260      1281.49      3908.45      20892.3      40289.6     -1.00000
      549.000      715.000      152.656      445.089      1286.97      3690.95      19964.9      40284.9     -1.00000
      536.000      746.000      152.490      410.673      1151.24      3437.81      19311.1      40289.8     -1.00000
      417.000      397.000      71.7338      455.926      1445.98      4052.18      20852.0      40111.7     -1.00000
      190.000      345.000      10.4714      386.519      1157.99      3468.04      19051.2      40060.8     -1.00000
      914.000      586.000      90.6333      407.809      1192.88      3601.37      19563.5      40015.9     -1.00000
      487.000      919.000      199.464      381.171      1121.03      3332.02      18782.6      40084.9     -1.00000
      672.000      145.000      50.6314      471.763      1250.36      3708.17      19411.9      39704.8     -1.00000
      896.000      73.0000      31.8034      428.382      1205.68      3613.98      19426.0      39540.0     -1.00000
      456.000      288.000      9.94598      457.960      1344.42      4090.12      20851.6      39486.2     -1.00000
      193.000      305.000      17.5512      414.961      1184.48      3638.52      19438.5      39455.9     -1.00000
      751.000      394.000      81.9112      451.403      1236.45      3549.19      19050.5      39486.0     -1.00000
      586.000      247.000      3.13537      348.184      1139.31      3391.21      18683.6      39332.1     -1.00000
      760.000      189.000      3.78405      379.720      1188.07      3542.25      18889.8      39239.8     -1.00000
      482.000      595.000      123.834      363.441      1125.59      3449.25      19416.8      39395.7     -1.00000
      783.000      105.000      26.3860      369.927      1263.91      3746.63      19330.2      39138.9     -1.00000
      103.000      36.0000      13.4199      416.530      1149.47      3454.11      18362.6      38650.8     -1.00000
      842.000      713.000      152.366      149.033      302.766      498.943      1277.53      38926.4     -1.00000
      612.000      670.000      162.576      397.041      1151.24      3447.09      19047.2      38897.4     -1.00000
      648.000      629.000      130.959      441.034      1218.44      3586.11      19387.1      38824.1     -1.00000
      438.000      617.000      120.660      404.586      1183.42      3447.02      18842.4      38811.5     -1.00000
      734.000      477.000      74.5042      399.674      1189.23      3617.02      19199.4      38578.3     -1.00000
      574.000      827.000      183.783      391.350      1092.70      3218.68      18308.4      38610.5     -1.00000
      1007.00      848.000      143.475      326.959      980.139      3077.13      18067.7      38565.6     -1.00000
      496.000      782.000      147.197      377.820      1146.77      3278.81      18363.0      38415.2     -1.00000
      374.000      563.000      110.226      420.988      1149.63      3511.24      18872.4      38306.5     -1.00000
      893.000      627.000      121.736      130.143      1234.52      3270.51      17507.4      38268.4     -1.00000
      503.000      968.000      185.597      376.280      1045.50      3225.09      18060.0      38346.6     -1.00000
      601.000      504.000      57.2514      400.766      1194.07      3385.09      18471.0      38039.9     -1.00000
      333.000      596.000      108.587      385.669      1204.93      3611.45      19228.8      38015.5     -1.00000
      586.000      158.000     -17.8697      407.506      1186.67      3486.66      18362.6      37746.0     -1.00000
      947.000      587.000      102.978      344.590      996.538      2926.22      15935.0      33705.2     -1.00000
      669.000      867.000      176.722      372.040      1111.27      3392.94      18819.3      37987.1     -1.00000
      337.000      269.000      45.7599      392.570      1153.50      3464.42      18356.4      37633.2     -1.00000
      695.000      723.000      139.539      352.153      1038.45      2998.25      16456.0      35223.0     -1.00000
      876.000      717.000      124.935      355.917      1065.99      3309.99      18370.8      37629.9     -1.00000
      169.000      539.000      96.3535      395.094      1124.28      3439.91      18141.7      37489.0     -1.00000
      783.000      109.000      21.4137      375.134      1230.50      3647.68      18717.4      37209.1     -1.00000
      935.000      328.000     -7.47421      376.552      1180.79      3329.03      18075.8      37293.2     -1.00000
      590.000      970.000      217.783      364.095      1011.91      3050.20      17452.7      37488.2     -1.00000
      149.000      759.000      197.275      401.350      1164.74      3420.36      18788.6      37377.6     -1.00000
      657.000      33.0000      13.0623      434.647      1258.38      3572.43      18813.4      37021.8     -1.00000
      371.000      307.000      56.6237      391.837      1118.87      3275.43      17944.2      37037.0     -1.00000
      792.000      1008.00      253.716      535.449      880.844      1391.01      14188.6      37272.0     -1.00000
      741.000      162.000      22.0652      353.713      1125.06      3256.94      17636.2      36932.0     -1.00000
      711.000      659.000      124.381      377.795      1109.94      3386.27      18235.5      36996.1     -1.00000
      140.000      452.000      44.6762      548.049      1701.85      5241.48      19755.5      36901.8     -1.00000
      760.000      722.000      147.386      375.481      1027.07      3205.21      17778.1      36945.2     -1.00000
      298.000      451.000      23.7475      418.516      1253.21      3634.09      19224.1      36836.1     -1.00000
      297.000      288.000      92.0347      411.052      1267.80      3742.57      18812.7      36663.4     -1.00000
      695.000      759.000      160.236      333.716      1101.53      3174.11      17350.9      36754.2     -1.00000
      339.000      709.000      127.658      400.511      1178.71      3394.58      17984.7      36557.4     -1.00000
      582.000      354.000      22.4590      351.906      1131.49      3219.63      17677.3      36414.7     -1.00000
      806.000      942.000      181.516      377.039      981.743      2870.68      17003.4      36636.8     -1.00000
      876.000      0.00000      29.0708      402.836      1210.96      3419.37      17872.7      36056.7     -1.00000
      773.000      74.0000      2.46096      335.525      1150.44      3413.01      17756.0      36065.3     -1.00000
      328.000      714.000      133.734      374.542      1155.65      3442.50      18293.4      36291.9     -1.00000
      487.000      773.000      175.544      341.032      982.848      2937.20      16157.8      35708.0     -1.00000
      457.000      201.000     -4.89324      366.703      1174.50      3297.05      17322.8      35931.8     -1.00000
      1.00000      565.000      85.6134      408.257      1317.32      3754.90      18886.6      36002.4     -1.00000
      432.000      719.000      180.580      392.940      1086.36      3281.57      17669.3      35998.0     -1.00000
      710.000      19.0000      30.3884      370.050      1161.99      3396.35      17797.6      35712.8     -1.00000
      740.000      184.000      50.4051      338.276      1180.23      3361.64      17532.4      35758.7     -1.00000
      73.0000      633.000      105.050      337.300      1054.86      3047.63      17052.7      35893.8     -1.00000
      196.000      949.000      183.667      379.948      1015.54      3112.87      17292.1      35949.5     -1.00000
      64.0000      676.000      128.312      359.843      1043.51      3063.96      16981.7      35821.6     -1.00000
      603.000      359.000      21.2017      340.499      1076.23      3050.01      16589.7      35631.7     -1.00000
      193.000      502.000      45.9524      349.171      1038.23      3109.21      16895.7      35609.2     -1.00000
      464.000      883.000      169.188      371.815      1067.31      3106.57      17666.7      35750.4     -1.00000
      180.000      864.000      178.854      399.727      1092.57      3594.13      17803.4      35556.5     -1.00000
      306.000      131.000      27.5891      329.325      1118.64      3162.04      16977.5      35221.5     -1.00000
      729.000      676.000      127.347      356.977      1069.55      3063.13      16732.3      35414.6     -1.00000
      163.000      9.00000      8.30728      323.330      1089.15      3250.39      17041.8      35029.3     -1.00000
      416.000      834.000      176.108      379.561      988.290      2941.79      16954.0      35283.8     -1.00000
      650.000      233.000      10.8113      329.382      1103.98      3325.03      17381.2      35055.7     -1.00000
      777.000      947.000      220.571      413.841      1046.69      3082.43      17083.9      35307.1     -1.00000
      943.000      136.000      49.2664      423.754      1328.22      3988.56      19044.0      34996.4     -1.00000
      795.000      138.000      14.8951      384.300      1130.88      3398.62      17537.1      34982.2     -1.00000
      795.000      810.000      138.061      366.352      963.562      2857.43      16568.1      35213.6     -1.00000
      164.000      894.000      164.765      393.706      1159.36      3474.97      17927.8      35238.6     -1.00000
      651.000      352.000      24.1982      340.932      1073.24      3241.67      17223.7      34976.6     -1.00000
      280.000      597.000      109.271      348.981      1065.46      3146.23      17124.0      34817.0     -1.00000
      267.000      6.00000      7.22029      387.964      1075.27      3155.96      16484.4      34147.8     -1.00000
      158.000      413.000      99.1277      378.535      1119.55      3191.91      16622.6      34225.4     -1.00000
      84.0000      903.000      163.296      338.855      925.281      2804.27      16014.4      34334.2     -1.00000
      895.000      587.000      102.368      322.146      1078.47      2998.90      16453.0      34217.8     -1.00000
      379.000      609.000      122.312      435.209      1122.91      3198.56      16900.6      34210.5     -1.00000
      655.000      969.000      203.503      355.271      1019.90      2895.55      16178.8      34166.8     -1.00000
      872.000      822.000      163.707      340.688      1014.81      2926.15      16573.4      34075.8     -1.00000
      742.000      246.000      45.6129      354.705      1042.31      3051.87      16282.3      33835.9     -1.00000
      202.000      892.000      160.848      389.103      1040.13      3166.72      16987.5      34054.6     -1.00000
      757.000      656.000      110.634      316.084      988.928      2731.55      15183.2      32365.9     -1.00000
      361.000      648.000      156.802      393.424      1094.22      3282.71      17233.8      33874.7     -1.00000
      589.000      648.000      154.999      406.595      1041.87      3090.05      1669.19      33781.7     -1.00000
      261.000      330.000      73.6849      327.431      1071.10      2999.75      16254.0      33663.1     -1.00000
      162.000      1019.00      202.123      259.290      524.270      771.991      1652.91      33893.2     -1.00000
      630.000      841.000      178.752      363.363      965.354      3057.62      16698.2      33784.5     -1.00000
      758.000      628.000      110.987      196.963      511.469      1357.92      6429.13      33569.0     -1.00000
      58.0000      507.000      48.0849      388.107      1039.36      3162.73      16811.9      33502.8     -1.00000
      604.000      844.000      153.228      339.474      954.728      2774.81      15596.9      33617.6     -1.00000
      643.000      899.000      194.517      306.287      956.786      2772.33      15542.7      33613.2     -1.00000
      669.000      1020.00      193.735      328.057      906.549      2346.72      15905.6      434.504     -1.00000
      382.000      814.000      195.566      349.087      905.668      2778.71      16371.5      33580.1     -1.00000
      372.000      322.000      14.7054      334.021      958.248      2935.97      15928.3      33343.1     -1.00000
      640.000      724.000      153.322      333.253      929.492      2738.12      15613.9      33470.9     -1.00000
      404.000      219.000      5.49566      322.628      1042.48      3061.72      16185.4      33286.5     -1.00000
      803.000      678.000      113.031      341.986      962.747      2781.98      15424.4      33416.2     -1.00000
      868.000      13.0000      10.2015      373.451      1160.84      3295.87      16771.2      33022.6     -1.00000
      769.000      358.000      46.5517      336.376      987.949      2855.96      15595.2      33060.3     -1.00000
      394.000      441.000      89.8083      321.926      995.194      2817.01      15458.1      32980.0     -1.00000
      99.0000      868.000      151.355      376.345      947.735      2864.87      15561.6      32983.4     -1.00000
      883.000      9.00000     -4.37544      361.059      1034.62      3196.69      16352.8      32645.7     -1.00000
      217.000      284.000     -9.41809      373.899      1121.44      3212.82      16457.3      32730.5     -1.00000
      116.000      639.000      105.036      324.413      928.927      2697.10      15588.6      32782.5     -1.00000
      335.000      344.000      48.4397      372.754      1050.90      3088.87      16119.1      32639.8     -1.00000
      549.000      500.000      75.5351      325.963      906.387      2582.66      14170.9      29991.1     -1.00000
      703.000      798.000      162.924      383.026      935.898      2763.93      15507.0      32762.8     -1.00000
      282.000      969.000      196.577      329.609      986.066      2799.06      15523.4      32811.5     -1.00000
      736.000      479.000      115.767      337.199      994.117      2926.51      15618.0      32509.1     -1.00000
      10.0000      478.000      104.328      337.956      963.081      2815.31      15215.0      32504.8     -1.00000
      603.000      145.000      62.3583      408.168      1074.10      3078.85      15964.6      32343.5     -1.00000
      671.000      581.000      97.4663      350.569      1037.93      2979.49      16091.2      32491.5     -1.00000
      620.000      217.000      37.6810      300.587      993.541      2863.37      15617.7      32225.8     -1.00000
      906.000      836.000      152.683      305.403      960.619      2766.75      15312.7      32344.7     -1.00000
      14.0000      1023.00      175.769      534.964      1465.08      4721.65      25898.9      32362.1     -1.00000
      852.000      57.0000      21.3109      337.586      1068.87      3000.45      15936.8      32003.3     -1.00000
      802.000      375.000      48.3346      333.429      993.087      2965.02      15442.7      32078.4     -1.00000
      364.000      221.000      59.2614      347.084      1038.05      2873.96      15235.7      32236.1     -1.00000
      871.000      385.000      55.1615      376.716      1075.01      3201.50      16315.2      31946.4     -1.00000
      524.000      366.000      68.5746      364.594      1019.99      2945.06      15620.0      31922.5     -1.00000
      2.00000      121.000      32.2577      493.540      1513.64      4577.60      15644.1      31731.8     -1.00000
      526.000      583.000      106.737      395.281      1042.87      2978.38      15475.2      31881.5     -1.00000
      475.000      445.000      27.7985      330.286      963.006      2797.44      15164.0      31820.0     -1.00000
      162.000      701.000      158.009      329.783      903.874      2661.02      15064.6      31847.7     -1.00000
      599.000      149.000      46.8215      355.571      1020.89      3007.08      15442.7      31562.4     -1.00000
      644.000      586.000      125.814      328.432      960.210      2767.28      14743.5      31622.5     -1.00000
      75.0000      895.000      181.659      314.197      874.029      2614.78      14941.5      31646.1     -1.00000
      299.000      367.000      32.4058      302.128      966.346      2696.96      14715.0      31396.5     -1.00000
      917.000      320.000      59.6919      311.921      961.354      2773.82      15292.7      31389.4     -1.00000
      878.000      182.000      25.2546      326.382      965.828      2836.45      14847.8      31319.2     -1.00000
      313.000      809.000      168.479      330.232      1019.24      2770.81      15195.5      31510.4     -1.00000
      933.000      990.000      174.399      329.690      898.802      2760.90      14910.6      452.198     -1.00000
      145.000      302.000      51.0116      318.146      968.438      2857.82      15149.7      31281.2     -1.00000
      490.000      624.000      112.557      324.405      882.986      2554.81      14689.1      31378.0     -1.00000
      742.000      390.000      38.9366      419.899      1244.14      3798.82      18046.2      31238.2     -1.00000
      704.000      599.000      147.646      338.829      1015.34      2860.22      15313.3      31284.3     -1.00000
      461.000      293.000     -12.1815      310.320      921.676      2589.87      13801.2      29007.2     -1.00000
      742.000      83.0000      50.3289      328.293      998.903      2861.74      14908.8      30928.8     -1.00000
      830.000      669.000      135.873      317.935      956.154      2783.36      15063.0      31118.9     -1.00000
      586.000      618.000      127.801      314.796      903.685      2615.59      14491.1      31101.5     -1.00000
      433.000      445.000      89.0431      317.017      1042.85      2930.88      15340.3      30923.8     -1.00000
      538.000      1018.00      217.521      338.386      867.384      2514.36      14307.0      31066.4     -1.00000
      799.000      360.000      28.0954      343.607      995.299      2849.48      15367.0      30819.8     -1.00000
      865.000      883.000      157.461      306.684      902.496      2685.44      14740.3      30942.5     -1.00000
      528.000      635.000      138.262      371.902      980.914      2644.91      14646.6      30854.8     -1.00000
      1.00000      865.000      138.562      338.693      961.695      2831.60      15103.7      30875.8     -1.00000
      536.000      286.000      4.85558      340.870      983.851      2914.66      15229.6      30655.8     -1.00000
      354.000      280.000      63.9579      273.490      941.790      2615.47      14436.3      30607.2     -1.00000
      914.000      805.000      156.744      321.859      880.338      2553.00      14578.2      30767.3     -1.00000
      72.0000      482.000      102.898      362.443      993.437      2829.73      15157.7      30594.9     -1.00000
      499.000      361.000      57.4729      336.026      1008.67      2984.63      15314.6      30543.6     -1.00000
      30.0000      148.000      11.6056      302.366      1018.46      2996.61      15122.6      30461.7     -1.00000
      67.0000      630.000      133.871      303.329      895.867      2553.69      14209.5      30405.8     -1.00000
      121.000      541.000      84.2192      358.312      936.905      2637.50      14128.4      30525.4     -1.00000
      213.000      47.0000      9.50575      306.967      963.458      2873.89      14719.7      30330.8     -1.00000
      78.0000      397.000      73.1068      317.055      954.238      2729.35      14402.6      30513.7     -1.00000
      458.000      135.000      17.2361      349.804      1105.95      3243.10      15324.7      30112.2     -1.00000
      605.000      658.000      129.301      310.036      921.278      2649.37      14646.7      30267.7     -1.00000
      153.000      15.0000      26.6299      392.147      1036.72      3085.04      15264.3      30006.5     -1.00000
      63.0000      866.000      149.491      370.745      1038.45      3082.39      15538.0      30238.1     -1.00000
      874.000      751.000      167.089      319.215      884.992      2626.80      14406.9      30163.6     -1.00000
      653.000      381.000     -11.5354      344.726      1006.46      2873.67      14746.5      30011.6     -1.00000
      935.000      624.000      66.9452      319.297      915.487      2554.81      14274.1      29967.4     -1.00000
      844.000      458.000      134.614      332.189      931.596      2645.31      14366.2      29856.8     -1.00000
      987.000      41.0000      19.7349      245.116      881.098      2647.38      14094.4      29899.4     -1.00000
      246.000      899.000      194.517      345.579      928.829      2536.12      13975.5      29851.4     -1.00000
      274.000      1013.00      192.089      130.430      179.450      448.930      1479.52      29868.2     -1.00000
      270.000      208.000      42.1725      311.788      958.505      2755.87      14470.4      29604.9     -1.00000
      86.0000      392.000      28.1240      337.818      962.128      2836.93      14628.7      29603.2     -1.00000
      601.000      457.000      67.4563      282.072      906.246      2578.24      14050.5      29553.2     -1.00000
      734.000      222.000     -3.40785      248.357      850.498      2541.65      13713.0      29321.2     -1.00000
      20.0000      913.000      167.611      290.541      881.944      2479.40      13712.2      29435.7     -1.00000
      920.000      486.000      91.2728      287.645      868.836      2514.05      14029.4      29269.5     -1.00000
      650.000      551.000      102.989      330.870      883.157      2547.82      14045.8      29193.2     -1.00000
      411.000      589.000      92.0856      310.304      885.545      2453.37      13123.3      27637.6     -1.00000
      594.000      431.000      30.5351      309.034      898.487      2590.41      13878.8      29135.4     -1.00000
      727.000      350.000      71.3597      319.681      931.261      2714.21      14028.3      29083.9     -1.00000
      289.000      792.000      176.462      315.471      908.982      2578.04      13991.7      29185.5     -1.00000
      432.000      406.000      81.9514      325.692      1020.60      2804.47      14576.6      29057.3     -1.00000
      712.000      848.000      159.875      326.845      883.863      2551.49      13984.3      29166.1     -1.00000
      902.000      897.000      159.289      310.112      845.564      2527.58      14176.1      29154.5     -1.00000
      475.000      525.000      64.8566      329.292      924.958      2634.22      14136.0      29039.3     -1.00000
      126.000      207.000      53.7366      262.843      889.709      2508.89      13498.9      28918.7     -1.00000
      282.000      250.000      10.1769      321.076      967.453      2783.41      14314.6      28863.2     -1.00000
      5.00000      543.000      75.4853      294.950      792.734      2198.73      11573.0      24185.6     -1.00000
      848.000      835.000      172.615      234.504      631.675      1618.78      13870.3      28694.5     -1.00000
      833.000      731.000      349.894      342.512      935.003      2642.38      13903.4      28531.8     -1.00000
      988.000      777.000      145.351      282.715      816.618      2387.59      13319.7      28535.5     -1.00000
      77.0000      269.000     -1.14794      316.412      941.805      2726.53      14012.0      28377.0     -1.00000
      882.000      758.000      156.294      295.800      824.936      2284.69      12820.8      27721.7     -1.00000
      228.000      447.000      54.9406      327.647      928.304      2584.65      13975.5      28384.4     -1.00000
      518.000      860.000      230.687      194.283      331.959      491.801      1449.85      28454.7     -1.00000
      619.000      866.000      189.114      315.664      848.099      2477.16      13287.7      28415.3     -1.00000
      696.000      962.000      205.344      329.448      874.797      2733.89      14301.5      28323.2     -1.00000
      855.000      1021.00      201.583      283.707      854.409      2413.32      13388.8      388.567     -1.00000
      1003.00      454.000      65.7746      276.991      875.930      2508.40      13554.7      28159.7     -1.00000
      839.000      552.000      80.5162      270.396      822.136      2583.44      13846.0      28135.0     -1.00000
      823.000      997.000      178.959      279.190      712.210      2092.06      11314.5      28258.9     -1.00000
      103.000      635.000      126.535      292.078      822.141      2526.52      13733.7      28132.1     -1.00000
      81.0000      332.000      44.4656      299.845      952.811      2619.92      13631.6      28022.2     -1.00000
      35.0000      313.000      54.5577      353.849      1098.32      3054.61      13611.1      28607.4     -1.00000
      806.000      11.0000      21.9554      252.586      913.247      2629.61      13697.0      27801.8     -1.00000
      934.000      407.000      39.2978      294.978      886.391      2503.34      13623.0      27772.8     -1.00000
      441.000      823.000      181.516      324.620      903.374      2600.90      13944.2      27874.6     -1.00000
      99.0000      829.000      160.549      294.330      863.613      2457.75      13295.2      27810.7     -1.00000
      939.000      387.000      80.6898      350.569      1020.06      3024.26      14676.2      27670.7     -1.00000
      447.000      680.000      151.083      327.795      904.054      2559.96      13650.3      27723.9     -1.00000
      523.000      664.000      144.436      326.954      907.073      2358.89      12836.2      27568.7     -1.00000
      232.000      896.000      205.164      313.272      853.742      2513.02      13575.9      27674.7     -1.00000
      610.000      850.000      171.693      293.844      829.194      2347.18      13073.4      27621.0     -1.00000
      691.000      42.0000     -7.22602      282.179      740.583      2107.60      10993.8      22989.1     -1.00000
      824.000      630.000      126.560      274.075      852.515      2464.60      13173.6      27459.2     -1.00000
      895.000      903.000      198.477      309.487      869.543      2445.47      13522.7      27524.9     -1.00000
      918.000      895.000      172.599      318.934      909.235      2558.21      13774.5      27485.8     -1.00000
      11.0000      29.0000     -14.1291      224.984      857.243      2407.01      12886.8      27165.3     -1.00000
      385.000      377.000      57.4414      301.941      912.927      2559.20      13380.0      27259.4     -1.00000
      614.000      300.000      9.94844      271.326      829.404      2454.47      12950.9      27181.1     -1.00000
      497.000      528.000      102.401      332.670      847.729      2364.65      13267.6      27233.7     -1.00000
      707.000      758.000      164.043      320.702      890.183      2460.84      13490.3      27298.2     -1.00000
      112.000      531.000      80.4024      284.912      880.691      2533.63      13434.4      27226.2     -1.00000
      794.000      636.000      129.470      273.360      815.182      2305.67      12879.0      27250.4     -1.00000
      0.00000      253.000      82.0778      444.219      1170.32      2980.87      13490.0      27129.6     -1.00000
      232.000      375.000      13.1537      283.318      823.942      2473.61      13322.7      27154.6     -1.00000
      258.000      180.000      21.2454      250.298      799.496      2253.45      11942.7      25080.7     -1.00000
      911.000      557.000      97.2872      309.027      932.027      2609.72      13541.4      26963.4     -1.00000
      990.000      742.000      110.526      246.481      811.377      2415.92      13249.0      27002.0     -1.00000
      774.000      127.000      31.7184      288.799      878.686      2618.07      13317.4      26801.2     -1.00000
      1012.00      731.000      115.729      286.905      771.341      2365.85      12965.6      26950.8     -1.00000
      310.000      697.000      150.338      306.907      904.008      1937.35      13044.5      26920.4     -1.00000
      487.000      774.000      143.864      328.645      868.189      2496.57      12886.0      26942.3     -1.00000
