PDS_VERSION_ID         = PDS3
RECORD_TYPE            = STREAM
OBJECT                 = TEXT
  PUBLICATION_DATE     = 2014-02-19
  INTERCHANGE_FORMAT   = ASCII
  NOTE                 = "WAC hot pixel file for epoch 2006.4."
END_OBJECT             = TEXT
END

WAC hot pixel list. Lines 1 and 2 are column headings giving exposure time 
(sec) and gain state (e-/DN), respectively, of source dark images. Starting 
on line 3, first two columns indicate x and y value of hot pixel; columns 3 
through N-1 give median electron counts for each exposure bin, and last (Nth) 
column contains either the index of the exposure bin where saturation first 
occurs, or -1 if no saturation.

\begindata
      0.00000      0.00000      0.00000      10.0000      32.0000      56.0000      100.000      220.000      560.000      1200.00
      0.00000      0.00000      27.6800      27.6800      27.6800      27.6800      27.6800      27.6800      27.6800      27.6800
      577.000      598.000      185.468      13785.2      42213.6      69822.1      108448.      111377.      111375.      111376.      5.00000
      554.000      174.000      189.453      13618.1      40319.7      65060.5      102165.      111380.      111375.      111373.      5.00000
      833.000      328.000      162.645      13728.6      40603.9      64508.4      98507.2      111376.      111381.      111371.      5.00000
      268.000      77.0000      75.3695      8828.27      26541.1      43727.1      70877.3      111376.      111379.      111371.      5.00000
      259.000      132.000      57.4667      6110.01      19178.6      32453.4      54704.4      102738.      111385.      111371.      6.00000
      685.000      585.000      137.128      7893.45      23557.6      37920.9      58953.2      98494.5      111381.      111371.      6.00000
      561.000      116.000      50.8345      6122.53      18479.8      30719.6      49871.0      88392.5      111381.      111372.      6.00000
      962.000      403.000      80.1860      5500.17      16870.8      28145.2      46238.1      82995.1      111379.      111371.      6.00000
      947.000      51.0000      23.2541      3701.42      11531.3      19893.3      34374.9      69668.5      111374.      111377.      6.00000
      365.000      612.000      89.3138      3536.21      11426.4      19523.3      33710.3      68299.3      111367.      111380.      6.00000
      224.000      420.000      58.7895      3231.21      10296.7      17992.4      31604.7      63015.1      111373.      111375.      6.00000
      947.000      587.000      62.3656      2745.36      8886.66      15695.2      27405.2      57182.0      111375.      111370.      6.00000
      971.000      821.000      85.8325      2535.80      8085.80      14060.9      24418.0      49995.6      104481.      111371.      7.00000
      615.000      629.000      65.1854      2287.13      7609.60      13290.5      23391.6      48983.5      102461.      111374.      7.00000
      577.000      599.000      80.2585      219.395      411.727      548.369      681.964      2093.65      71629.5      111376.      7.00000
      281.000      753.000      109.854      3350.90      10711.3      17742.1      30932.9      59168.0      105474.      111382.      7.00000
      906.000      454.000      56.1589      2325.36      7163.20      12389.9      21667.7      44480.2      93844.2      111378.      7.00000
      554.000      175.000      53.6787      115.532      226.608      318.797      373.370      895.722      64899.5      111372.      7.00000
      707.000      655.000      103.968      2872.12      9103.92      15646.8      26840.4      52461.4      97779.0      111380.      7.00000
      662.000      623.000      82.8420      1610.19      5038.45      8891.60      16056.3      35143.9      84894.4      111368.      7.00000
      630.000      1000.00      111.591      2047.30      6561.44      11477.9      19944.3      41264.7      86157.7      111377.      7.00000
      787.000      651.000      88.7890      2215.70      6421.75      12463.8      19113.1      40581.4      84519.0      111378.      7.00000
      679.000      289.000      28.2105      2020.31      6363.05      10922.4      18979.2      38761.3      82649.4      111368.      7.00000
      950.000      163.000      51.1452      1524.74      4944.76      8576.21      15085.2      32745.5      76661.1      111377.      7.00000
      27.0000      157.000      22.9680      1722.67      5392.10      9372.60      16409.9      34534.2      76868.2      111374.      7.00000
      196.000      915.000      103.801      1580.07      5189.13      9187.49      16388.8      34954.1      76888.0      111375.      7.00000
      518.000      314.000      51.3644      1807.46      5728.34      9860.01      17148.6      35402.8      76143.6      111374.      7.00000
      378.000      87.0000      27.7661      1941.35      6085.87      10482.0      18123.0      36603.6      76692.4      111374.      7.00000
      198.000      682.000      83.5901      2581.56      7998.38      13566.4      22944.8      43913.6      81459.7      111368.      7.00000
      631.000      4.00000      3.58819      1635.35      5108.46      8824.06      15360.8      32067.8      72041.4      111375.      7.00000
      1007.00      848.000      57.7634      1442.71      4488.41      7905.94      14176.6      30834.1      71365.3      111376.      7.00000
      822.000      465.000      80.4072      1514.26      4753.23      8356.53      14751.2      30958.1      69746.8      111372.      7.00000
      372.000      333.000      53.7183      1225.07      3773.57      6550.35      11667.7      25420.2      65787.9      111371.      7.00000
      293.000      642.000      82.6868      1583.18      5141.76      8998.91      15789.4      32782.4      69999.9      111372.      7.00000
      569.000      760.000      81.6352      1610.06      4957.56      8611.88      15026.4      31325.4      66990.7      110233.      7.00000
      625.000      654.000      83.0115      1407.63      4449.53      7842.97      13989.2      29308.8      65583.5      111380.      7.00000
      139.000      210.000      28.1013      1578.64      4814.29      8195.34      14330.0      29524.5      65396.0      111375.      7.00000
      519.000      951.000      87.5703      1232.44      4013.44      7080.70      12587.6      27332.6      64178.6      111378.      7.00000
      427.000      135.000      31.5166      1190.63      3781.42      6522.52      11686.5      25095.4      61501.5      111369.      7.00000
      690.000      144.000      51.4288      1612.70      5169.11      8883.28      15486.3      31713.2      67196.2      108363.     -1.00000
      587.000      354.000      50.7373      1391.96      4323.74      7502.88      13117.1      27645.0      61907.2      107579.     -1.00000
      22.0000      494.000      61.5141      1191.51      3692.58      6459.67      11567.6      24957.9      60518.7      107169.     -1.00000
      547.000      370.000      43.8336      1751.80      5449.34      9460.06      16317.4      32993.4      67619.5      107007.     -1.00000
      856.000      823.000      89.4296      1449.09      4706.44      8437.49      14883.6      30607.6      64816.8      107467.     -1.00000
      31.0000      908.000      74.6129      1606.54      5187.17      9088.19      16218.5      33846.9      74007.8      106910.     -1.00000
      378.000      741.000      106.203      1284.12      4073.10      7140.53      12706.8      26803.5      60805.5      106221.     -1.00000
      828.000      871.000      106.108      1396.06      4391.05      7582.13      13354.6      27861.9      62002.5      105830.     -1.00000
      788.000      101.000      32.2077      1248.30      3888.08      6857.85      11984.2      25846.4      58772.3      104399.     -1.00000
      208.000      776.000      102.040      1420.00      4291.61      7540.16      13178.9      27510.8      60944.4      103849.     -1.00000
      107.000      183.000      20.6024      1496.25      4695.79      8022.09      13094.9      26807.7      58921.2      101107.     -1.00000
      204.000      490.000      60.3681      1571.48      4679.49      7996.18      13991.3      22752.5      50956.0      100488.     -1.00000
      460.000      163.000      23.4652      1136.47      3437.61      6030.20      7667.81      22710.3      53495.7      100088.     -1.00000
      270.000      26.0000      25.6934      1079.87      3499.45      6067.46      10611.2      22716.9      53989.7      99064.2     -1.00000
      64.0000      541.000      50.0704      1323.67      4152.82      7368.71      12999.5      26655.6      59039.5      99066.5     -1.00000
      705.000      195.000      23.3343      1252.34      3898.18      6749.31      11832.9      24648.9      55632.2      98529.0     -1.00000
      176.000      663.000      62.1556      999.968      3131.95      5423.21      9626.23      21092.1      51118.9      96392.2     -1.00000
      258.000      770.000      85.1058      1627.36      5177.17      8902.01      15404.2      30727.7      61407.3      95156.0     -1.00000
      695.000      723.000      87.8511      999.081      3229.70      5628.19      9846.17      21877.5      51755.0      94203.0     -1.00000
      54.0000      76.0000     -5.86904      1408.45      4394.91      7600.17      13133.5      26566.7      56260.8      93517.7     -1.00000
      44.0000      6.00000      19.4757      1143.25      3539.19      6116.07      10631.2      22574.3      51608.6      93442.9     -1.00000
      354.000      280.000      28.8336      853.789      2659.00      4568.74      8131.27      17829.9      44522.7      93460.0     -1.00000
      718.000      160.000      3.39057      1026.18      3130.03      5605.82      9745.74      21001.7      49917.3      92833.5     -1.00000
      896.000      73.0000      26.8569      1098.42      3433.25      5881.89      10461.3      21968.2      49780.3      88688.9     -1.00000
      995.000      339.000      32.0625      1192.60      3739.61      6419.49      11252.0      23432.1      51278.3      87554.3     -1.00000
      1000.00      61.0000      2.11828      861.644      2785.00      4841.86      8564.78      18491.2      44187.1      86020.5     -1.00000
      689.000      775.000      77.6884      809.932      2517.17      4470.47      7878.63      17217.0      42609.5      86231.8     -1.00000
      999.000      454.000      56.1589      835.701      2569.15      4540.12      8105.63      17326.4      43028.2      85816.2     -1.00000
      95.0000      485.000      58.9557      823.685      2607.34      4535.92      7959.11      17297.1      42463.6      84817.5     -1.00000
      358.000      225.000      39.4348      798.118      2508.26      4283.48      7666.42      16626.2      41071.1      83249.8     -1.00000
      602.000      231.000      23.1720      916.783      2791.31      4802.88      8457.82      18113.5      42929.5      82806.8     -1.00000
      631.000      32.0000      47.5246      1046.94      3250.77      5633.93      9858.05      20731.2      46860.8      82258.4     -1.00000
      668.000      920.000      114.142      864.274      2645.95      4668.39      8419.96      18598.3      44167.6      83020.9     -1.00000
      750.000      336.000      52.2696      842.572      2647.72      4647.88      8033.82      17516.1      42431.5      81693.3     -1.00000
      426.000      434.000      33.1255      804.167      2350.76      4179.17      7440.77      16264.0      40185.6      80816.2     -1.00000
      860.000      925.000      78.5082      965.074      2924.65      5053.63      8905.19      18968.4      44297.2      80815.6     -1.00000
      554.000      173.000      4.22285      106.244      182.203      208.906      268.265      399.716      10836.4      80083.8     -1.00000
      762.000      536.000      46.6761      1031.66      2815.57      4943.37      8935.40      19030.9      45897.6      80211.0     -1.00000
      845.000      827.000      89.9509      855.047      2631.47      4636.02      8411.85      18323.8      43908.5      80403.6     -1.00000
      117.000      400.000      57.9715      800.637      2482.82      4288.88      7676.21      16632.4      40320.9      78792.8     -1.00000
      293.000      379.000      54.4133      984.831      2996.95      5162.03      9045.59      19157.8      43468.8      77646.7     -1.00000
      193.000      706.000      88.5926      834.161      2565.26      4366.63      7880.69      16904.1      40641.0      77728.9     -1.00000
      373.000      677.000      72.9118      775.523      2326.88      4034.06      7199.02      15859.3      39131.5      77233.7     -1.00000
      486.000      353.000      30.8232      918.158      2757.73      4677.96      8243.59      17399.9      40994.0      76726.7     -1.00000
      842.000      225.000      48.1605      798.118      2538.76      4347.27      7563.70      16544.8      41610.3      76204.6     -1.00000
      577.000      597.000      52.3225      138.435      182.620      235.869      275.838      351.961      13200.0      76383.6     -1.00000
      349.000      949.000      104.651      860.439      2684.54      4690.53      8387.37      17788.8      41595.7      76562.8     -1.00000
      149.000      763.000      84.9608      823.793      2615.83      4642.31      8295.61      17754.7      41403.1      76394.9     -1.00000
      806.000      136.000      6.29707      742.922      2272.12      3904.50      6935.78      15023.2      37414.2      75397.0     -1.00000
      313.000      809.000      81.4240      832.486      2487.80      4227.83      7464.31      16566.2      39261.4      74364.3     -1.00000
      113.000      103.000      18.4095      944.958      2844.69      4841.67      8404.93      17572.4      40123.3      72655.5     -1.00000
      800.000      542.000      50.3287      803.085      2509.15      4341.31      7633.60      16407.9      38641.7      72385.2     -1.00000
      268.000      78.0000      30.7874      87.0735      137.900      181.860      274.333      370.145      25100.2      111371.      7.00000
      735.000      955.000      112.502      803.129      2403.96      4168.89      7386.93      15986.2      38025.4      72195.6     -1.00000
      894.000      781.000      70.8926      855.287      2464.39      4367.29      7720.09      16657.8      38943.4      71436.2     -1.00000
      536.000      286.000      27.7572      793.769      2379.76      4202.93      7347.28      15626.6      37209.1      71004.8     -1.00000
      626.000      890.000      97.6628      779.504      2270.67      3973.23      7100.04      15715.7      37632.0      71220.5     -1.00000
      880.000      959.000      89.5613      638.241      1901.98      3444.28      6074.44      13610.0      34322.3      70956.3     -1.00000
      597.000      612.000      61.6338      1045.84      3219.47      5393.29      9465.25      19432.2      41142.7      70536.4     -1.00000
      833.000      329.000      48.0694      222.274      307.869      373.592      540.377      867.819      34709.2      69076.2     -1.00000
      493.000      874.000      83.3246      852.446      2481.74      4231.27      7536.77      16108.8      38000.5      69181.0     -1.00000
      97.0000      627.000      59.9641      781.179      2448.24      4230.53      7356.63      15862.3      37223.9      68688.6     -1.00000
      431.000      741.000      83.3086      753.249      2154.18      3787.71      6756.38      14555.1      35156.6      68749.5     -1.00000
      497.000      390.000      25.9452      765.526      2190.79      3730.17      6682.60      14296.0      36277.0      68426.3     -1.00000
      333.000      901.000      79.3905      654.666      2068.03      3641.36      6494.76      13980.2      34290.7      67526.9     -1.00000
      585.000      354.000      34.3149      684.118      1997.24      3433.99      6145.12      13337.8      32840.1      66577.9     -1.00000
      677.000      370.000      52.6787      666.673      2018.96      3570.83      6185.95      13425.6      33125.5      66167.0     -1.00000
      214.000      936.000      89.7995      644.908      1845.32      3299.79      5938.05      13419.7      33103.3      66036.6     -1.00000
      813.000      18.0000      21.6438      801.611      2433.22      4218.90      7252.19      15274.9      35342.3      65127.3     -1.00000
      278.000      187.000      22.6900      715.086      2106.79      3642.32      6306.82      13772.9      31935.5      64639.6     -1.00000
      990.000      458.000      55.8085      550.676      1888.30      3195.56      5812.36      12660.2      31736.3      64429.7     -1.00000
      149.000      871.000      99.6182      668.889      2099.99      3511.47      6185.45      13668.6      32988.9      64088.7     -1.00000
      356.000      70.0000      30.2279      687.630      2098.06      3811.22      6396.98      13746.8      33252.9      63255.7     -1.00000
      1002.00      897.000      73.8227      688.895      2106.62      3568.42      6333.62      13864.5      33514.9      63474.1     -1.00000
      289.000      420.000      45.9862      827.344      2475.02      4244.19      7431.96      15680.1      35225.4      63116.5     -1.00000
      1014.00      619.000      49.3434      612.445      1846.31      3329.31      5772.11      12700.9      31098.9      62710.8     -1.00000
      971.000      755.000      79.4042      665.740      1844.40      3198.90      5632.69      12231.2      30668.5      61705.7     -1.00000
      909.000      161.000      26.3326      281.952      1955.30      3290.12      5527.85      12145.8      29836.3      61158.5     -1.00000
      933.000      495.000      48.7214      630.881      1894.40      3338.48      5783.06      12603.4      30462.6      61256.6     -1.00000
      674.000      645.000      57.8313      832.085      2420.46      4199.94      7442.37      15791.7      35389.6      60760.8     -1.00000
      643.000      899.000      88.0858      602.768      1615.47      2763.42      5035.26      10830.5      28673.9      60501.4     -1.00000
      888.000      986.000      95.9236      639.547      1824.51      3201.46      5530.80      12663.3      30298.6      60548.0     -1.00000
      878.000      293.000      24.3648      640.882      1908.14      3297.18      5745.12      12309.6      30089.8      60083.4     -1.00000
      683.000      149.000      50.0211      639.201      2077.65      3450.34      6104.64      13037.7      30823.6      59805.8     -1.00000
      783.000      337.000      56.9364      674.065      1906.18      3294.99      5697.87      12364.5      29938.4      59630.1     -1.00000
      952.000      695.000      57.0003      635.037      1745.52      3007.95      5366.93      11678.2      29384.3      59522.6     -1.00000
      206.000      104.000      26.8535      662.216      1985.30      3345.66      5941.37      12755.8      30572.4      59012.3     -1.00000
      94.0000      466.000      27.9774      620.859      1877.94      3206.11      5713.04      12426.2      30083.7      59034.2     -1.00000
      503.000      279.000      25.3250      560.919      1761.46      3036.39      5445.74      11596.2      28777.8      57605.4     -1.00000
      449.000      680.000      75.6513      637.823      1768.82      3094.38      5574.63      12290.5      29665.8      57480.0     -1.00000
      911.000      478.000      52.1683      655.027      1994.08      3429.59      5950.90      12736.6      30094.3      57233.2     -1.00000
      899.000      837.000      80.3166      576.120      1706.14      2909.11      5296.53      11482.0      28511.6      57416.3     -1.00000
      601.000      457.000      46.8179      608.482      1827.28      3194.64      5575.40      11439.0      28030.5      56913.7     -1.00000
      75.0000      421.000      55.9923      597.336      1780.65      3135.66      5474.08      11916.5      28887.1      56707.7     -1.00000
      538.000      317.000      49.5089      635.610      1934.70      3279.22      5867.30      12417.6      29447.4      56553.9     -1.00000
      911.000      112.000      20.6407      553.548      1683.99      2890.76      5164.97      11208.4      27704.9      56415.1     -1.00000
      537.000      652.000      88.8120      628.672      1744.34      2974.36      5303.16      11547.3      28447.4      56590.4     -1.00000
      496.000      7.00000     -6.71332      604.120      1688.77      3042.53      5330.53      11400.1      27788.0      56175.8     -1.00000
      529.000      804.000      64.0477      682.933      1738.47      3138.26      5489.50      12069.6      28809.5      55957.9     -1.00000
      991.000      946.000      82.3240      585.299      1701.06      2958.04      5256.24      11593.8      28497.3      55989.2     -1.00000
      641.000      14.0000      24.1514      599.113      1859.31      3170.99      5505.39      11756.9      28165.6      55127.0     -1.00000
      694.000      40.0000     -7.65981      681.829      2074.84      3448.41      6060.86      12879.4      29915.5      54308.1     -1.00000
      213.000      240.000      26.3014      605.808      1800.79      3024.36      5280.32      11256.6      27481.0      54307.7     -1.00000
      604.000      844.000      61.1657      520.300      1427.86      2484.11      4388.14      10173.5      25432.8      52654.1     -1.00000
      583.000      9.00000     -4.16717      525.310      1543.35      2629.43      4639.29      9794.01      24568.2      51853.5     -1.00000
      87.0000      181.000      51.7116      553.320      1667.05      2863.23      5028.78      10840.7      26172.7      51703.4     -1.00000
      73.0000      633.000      53.6028      521.155      1507.34      2589.09      4631.69      10168.6      25339.9      51595.4     -1.00000
      705.000      439.000      43.2930      573.553      1692.65      2787.53      4928.98      10917.4      25449.9      51409.8     -1.00000
      589.000      469.000      45.5964      600.023      1700.41      2923.50      5116.64      10923.6      26402.9      51389.2     -1.00000
      979.000      968.000      84.9394      583.668      1766.38      3036.17      5301.86      11197.5      27117.7      51551.3     -1.00000
      1002.00      688.000      86.8955      1878.48      5644.00      9517.88      14961.1      24825.4      38314.4      49952.2     -1.00000
      604.000      268.000      37.8491      571.055      1659.99      2793.92      4555.34      10397.3      24539.0      49627.6     -1.00000
      949.000      865.000      82.2444      520.272      1342.95      2395.25      4184.40      9399.82      23756.1      49536.0     -1.00000
      398.000      725.000      83.9989      586.175      1739.83      2951.67      5117.33      10874.1      25793.6      48330.1     -1.00000
      280.000      597.000      61.0082      523.700      1548.92      2670.46      4634.22      10077.2      24373.8      48212.0     -1.00000
      515.000      681.000      58.5227      559.387      1629.20      2802.39      4879.34      10516.4      24885.7      48193.9     -1.00000
      760.000      722.000      59.4575      501.671      1406.27      2401.40      4331.80      9420.69      23859.3      48159.4     -1.00000
      259.000      133.000      21.4745      108.093      195.465      262.060      332.659      481.311      1928.10      47828.8     -1.00000
      179.000      886.000      86.5253      577.044      1523.78      2648.76      4755.72      10063.9      24225.2      47956.0     -1.00000
      117.000      372.000      53.1415      450.833      1335.81      2320.17      4003.44      8776.75      22032.0      46751.3     -1.00000
      582.000      882.000      86.4979      461.455      1209.07      2033.66      3536.17      7885.30      19392.1      46836.4     -1.00000
      912.000      647.000      57.5780      467.769      1349.26      2204.25      3922.40      8461.53      21438.9      45496.0     -1.00000
      341.000      275.000      77.8458      468.099      1430.49      2458.39      4201.46      8900.56      22060.8      45162.9     -1.00000
      730.000      825.000      77.7530      465.534      1430.72      2417.85      4095.52      9070.98      22101.5      45403.7     -1.00000
      382.000      814.000      79.3696      476.206      1373.32      2399.04      4192.12      9482.39      22920.5      45264.0     -1.00000
      505.000      972.000      100.289      497.194      1302.20      2144.29      3774.34      8305.27      21251.7      45217.3     -1.00000
      375.000      165.000      33.2605      440.387      1359.00      2254.04      3980.42      8712.46      21339.2      44825.1     -1.00000
      734.000      62.0000      16.8413      495.579      1428.40      2520.96      4245.89      9121.36      22123.5      44349.9     -1.00000
      712.000      848.000      80.9473      522.706      1389.08      2397.62      4142.59      8966.91      22289.2      44640.2     -1.00000
      397.000      375.000      22.4716      496.789      1486.60      2518.81      4420.97      9407.76      22625.6      44337.7     -1.00000
      594.000      989.000      84.1080      420.478      1290.73      2207.84      3938.44      8742.46      22169.3      44608.7     -1.00000
      994.000      577.000      44.8724      496.971      1444.41      2422.86      4248.35      9273.32      22609.4      44325.1     -1.00000
      472.000      475.000      50.8183      475.794      1355.19      2343.80      4045.68      8944.42      22019.2      44183.5     -1.00000
      893.000      504.000      61.3972      501.347      1414.68      2379.70      4227.92      8978.89      22000.9      44111.0     -1.00000
      831.000      25.0000     0.900509      466.401      1442.93      2493.15      4284.65      9182.43      22187.5      43742.9     -1.00000
      843.000      346.000      30.7900      497.633      1399.04      2367.02      4132.83      8884.01      21781.5      43818.3     -1.00000
      283.000      219.000      28.2594      441.073      1304.83      2264.46      3893.93      8436.03      21056.7      43324.7     -1.00000
      168.000      603.000      75.0316      500.415      1463.12      2455.14      4303.01      9343.86      22420.1      43321.3     -1.00000
      85.0000      62.0000     -10.8387      448.329      1317.13      2212.56      3923.61      8304.41      20565.2      42653.8     -1.00000
      6.00000      370.000      37.3367      527.425      1436.30      2401.65      4386.75      9243.52      21918.8      42712.7     -1.00000
      474.000      539.000      54.5409      444.140      1408.34      2314.12      4092.31      8766.84      21330.3      42725.1     -1.00000
      115.000      807.000      81.1292      496.484      1411.01      2368.14      4147.11      8962.00      21823.9      42836.2     -1.00000
      785.000      438.000      24.2224      465.795      1290.75      2175.82      3793.73      8107.10      20220.0      42620.6     -1.00000
      914.000      523.000      58.5246      496.156      1363.42      2376.80      4170.39      8749.13      21425.6      42623.2     -1.00000
      1002.00      785.000      59.1855      524.028      1359.17      2281.99      4070.69      8566.32      20879.8      42351.1     -1.00000
      330.000      298.000      29.1791      476.960      1389.50      2352.33      4115.54      8773.58      21240.8      42076.7     -1.00000
      780.000      518.000      53.6799      466.057      1356.03      2322.21      3992.17      8624.89      20859.0      41476.0     -1.00000
      125.000      390.000      32.6616      471.749      1318.84      2237.47      3955.25      8384.70      20416.6      41365.7     -1.00000
      719.000      114.000      21.8943      524.701      1622.29      2648.95      4555.49      9548.38      22114.1      41127.5     -1.00000
      833.000      327.000      35.1050      82.1152      165.664      205.445      241.080      352.701      656.142      40461.5     -1.00000
      549.000      715.000      70.8375      496.854      1328.32      2238.12      3892.61      8300.80      20418.5      40613.5     -1.00000
      939.000      660.000      59.6106      433.071      1293.89      2121.47      3816.01      8178.31      19985.7      40261.0     -1.00000
      907.000      84.0000      22.8271      391.267      1300.93      2156.99      3828.98      7939.60      19798.8      39833.1     -1.00000
      149.000      759.000      86.4285      446.758      1275.46      2186.12      3868.35      8427.56      20396.6      39961.4     -1.00000
      806.000      942.000      83.2552      462.883      1136.05      1943.42      3317.70      7384.30      18727.8      39901.7     -1.00000
      865.000      883.000      81.6325      417.784      1292.15      2137.21      3717.88      7924.01      19642.8      39738.3     -1.00000
      936.000      0.00000      46.4206      385.002      1213.19      1904.30      3008.16      6799.95      15351.8      39113.6     -1.00000
      496.000      782.000      72.6689      436.040      1212.36      1988.35      3525.40      7595.51      19036.5      39380.6     -1.00000
      650.000      551.000      59.7030      411.870      1242.61      2080.05      3650.63      7936.17      19453.9      39251.6     -1.00000
      601.000      504.000      48.5436      444.793      1275.45      2126.77      3640.51      7851.80      18953.0      38541.7     -1.00000
      528.000      749.000      58.2355      437.490      1213.28      2052.15      3642.02      7827.51      19277.0      38555.3     -1.00000
      669.000      867.000      60.3263      445.429      1236.45      2147.20      3569.89      7989.85      19530.2      38593.6     -1.00000
      487.000      919.000      90.1888      409.931      1126.88      1926.99      3278.05      7198.56      18292.7      38561.5     -1.00000
      876.000      717.000      82.0986      418.847      1165.79      2015.77      3531.22      7717.53      19258.4      38377.8     -1.00000
      751.000      394.000      49.4411      414.223      1181.62      1939.60      3395.55      7359.87      18351.6      38058.3     -1.00000
      268.000      76.0000     -7.79809      77.4453      132.740      235.713      209.763      320.681      3149.94      37707.6     -1.00000
      586.000      247.000      25.5969      410.451      1110.81      1962.79      3370.19      7253.10      18057.0      37749.3     -1.00000
      333.000      596.000      53.9971      445.424      1297.97      2114.88      3666.58      7962.27      19304.0      37808.6     -1.00000
      298.000      451.000      80.6751      495.087      1324.63      2269.43      3864.59      8296.96      19652.6      37704.5     -1.00000
      657.000      33.0000      12.9339      468.716      1294.33      2150.71      3630.54      7721.15      18527.5      37287.4     -1.00000
      131.000      54.0000      37.2714      442.090      1322.69      2265.94      3950.57      8337.87      19624.1      37131.0     -1.00000
      599.000      572.000      82.1809      443.458      1243.92      2031.15      3559.35      7685.00      18776.0      37296.0     -1.00000
      940.000      335.000      50.9578      398.000      1206.57      1988.03      3481.62      7428.68      18224.2      37201.7     -1.00000
      874.000      751.000      79.7252      416.225      1154.09      1842.34      3335.20      7297.69      18061.9      37242.1     -1.00000
      426.000      950.000      92.9353      396.462      1151.92      1979.44      3383.03      7353.68      18273.2      37199.3     -1.00000
      773.000      74.0000      12.9300      383.711      1191.31      2021.62      3526.64      7468.71      18089.1      36637.1     -1.00000
      339.000      693.000      33.9082      467.194      1138.22      1944.55      3422.99      7239.61      17917.2      36799.2     -1.00000
      549.000      500.000      57.5737      387.111      1045.60      1701.93      3020.59      6351.82      15988.7      33835.4     -1.00000
      1.00000      565.000      76.6206      446.600      1356.65      2174.19      3796.79      7986.17      18764.0      35637.9     -1.00000
      795.000      810.000      80.6512      421.942      1073.79      1768.17      3092.52      6791.87      16828.4      35712.8     -1.00000
      438.000      617.000      54.9519      437.076      1154.63      1884.61      3181.04      7049.53      17040.4      35106.4     -1.00000
      153.000      15.0000      22.2181      390.882      1209.33      2047.12      3536.91      7411.51      17795.7      34828.6     -1.00000
      457.000      691.000      81.3218      444.961      1216.57      2123.11      3623.07      7643.11      18474.8      35031.4     -1.00000
      943.000      136.000      24.6139      465.291      1331.28      2311.31      4055.59      8483.19      19220.1      34804.0     -1.00000
      664.000      607.000      57.5093      367.152      1070.69      1798.90      3098.90      6752.80      16824.4      34927.1     -1.00000
      878.000      182.000      20.0707      354.908      1044.76      1796.49      3130.16      6603.89      16723.7      34716.5     -1.00000
      608.000      453.000      54.2652      386.325      1075.19      1824.50      3038.24      6666.09      16628.1      34710.6     -1.00000
      169.000      539.000      57.8787      412.498      1160.77      1953.72      3289.96      7002.43      17077.7      34694.2     -1.00000
      918.000      895.000      54.5715      470.328      1285.59      2134.20      3706.68      7914.76      13090.7      35914.9     -1.00000
      589.000      648.000      82.4070      409.610      1126.89      1845.56      3208.29      7027.46      17039.6      34581.0     -1.00000
      541.000      363.000      57.0024      383.655      1049.74      1789.59      3089.46      6599.90      16546.1      34291.3     -1.00000
      84.0000      903.000      82.9950      351.116      1017.39      1672.79      2960.94      6310.33      16041.6      34433.6     -1.00000
      742.000      246.000      27.5378      404.209      1110.98      1779.70      3115.41      6722.14      16412.9      34046.7     -1.00000
      267.000      6.00000     -8.20429      387.218      1130.75      1882.27      3258.76      6882.78      16883.2      33876.9     -1.00000
      449.000      291.000      21.8773      392.666      1135.61      1906.12      3338.74      7101.07      16940.1      33930.8     -1.00000
      158.000      413.000      47.6519      442.006      1153.47      1889.35      3256.95      6799.05      16661.3      33916.8     -1.00000
      1.00000      865.000      102.200      410.831      1103.38      1838.79      3194.94      6778.08      16843.7      34024.0     -1.00000
      640.000      724.000      75.6856      382.568      1051.29      1808.11      3043.95      6786.48      17319.8      33893.6     -1.00000
      99.0000      868.000      82.1927      360.559      1102.77      1789.24      3039.85      6466.20      16453.9      33896.3     -1.00000
      574.000      827.000      76.7186      405.468      1036.96      1757.30      2954.32      6415.35      15950.9      33654.8     -1.00000
      30.0000      148.000      30.9142      351.126      1152.72      1940.30      3261.53      6952.43      16648.6      33279.5     -1.00000
      487.000      773.000      85.3711      383.564      992.085      1628.62      2807.11      6072.23      15634.6      33459.8     -1.00000
      783.000      105.000      3.16762      354.567      1046.58      1793.26      3092.25      6609.62      16019.1      33171.7     -1.00000
      14.0000      1023.00      54.6847      417.178      1054.22      1784.18      3097.86      6530.53      16414.1      33454.9     -1.00000
      676.000      139.000      24.3363      362.591      1070.45      1812.05      3083.78      6559.61      16180.4      33066.7     -1.00000
      404.000      219.000      22.4099      381.175      1074.37      1857.34      3111.60      6548.41      16070.2      33071.7     -1.00000
      469.000      19.0000     -4.95832      366.179      1100.43      1844.83      3251.40      6826.92      16406.4      32780.3     -1.00000
      619.000      494.000      58.8391      385.144      1089.84      1809.71      3072.51      6837.10      16318.8      32814.9     -1.00000
      620.000      217.000      24.4211      355.764      1026.07      1745.58      3016.77      6193.12      15729.2      32400.9     -1.00000
      883.000      9.00000     -11.4550      329.103      1067.04      1767.62      3194.61      6534.93      16051.6      32173.9     -1.00000
      655.000      969.000      78.0416      395.736      995.197      1665.02      2878.54      6213.87      15550.0      32336.2     -1.00000
      526.000      583.000      58.2896      390.414      1073.85      1743.49      3110.92      6526.53      15803.4      32106.7     -1.00000
      802.000      833.000      84.1360      366.026      1021.24      1716.86      2911.04      6612.76      15745.6      31998.7     -1.00000
      74.0000      253.000      47.9484      337.473      1000.56      1646.35      2839.50      6060.21      15108.0      31779.7     -1.00000
      599.000      149.000      32.7007      335.551      1026.36      1786.76      2993.94      6277.24      15498.7      31709.8     -1.00000
      656.000      264.000      27.5607      354.832      1020.35      1659.27      2908.42      6139.87      15192.0      31743.2     -1.00000
      830.000      669.000      55.7064      310.539      1012.09      1710.84      2933.74      6300.90      15512.9      31770.7     -1.00000
      524.000      366.000      59.8738      406.545      1054.77      1759.32      2977.13      6411.18      15513.6      31615.0     -1.00000
      337.000      269.000      21.4142      393.280      1094.38      1839.76      3153.88      6660.67      15359.9      31409.9     -1.00000
      830.000      608.000      56.9894      332.064      985.827      1650.45      2768.15      5905.06      14794.3      31462.2     -1.00000
      914.000      805.000      60.1311      350.525      966.051      1648.98      2849.52      6031.72      15214.3      31516.2     -1.00000
      433.000      445.000      50.8356      393.184      1103.25      1785.07      3089.30      6615.62      15858.0      31355.1     -1.00000
      528.000      635.000      52.4620      383.585      961.470      1644.51      2753.00      5885.13      14715.9      31270.4     -1.00000
      729.000      676.000      56.4593      391.956      993.957      1650.24      2767.19      6028.34      14780.5      31296.5     -1.00000
      282.000      969.000      63.1957      416.405      995.197      1660.28      2769.20      6105.32      14886.8      31246.2     -1.00000
      742.000      390.000      51.9384      471.749      1291.55      2225.25      3759.47      7953.50      17981.1      30994.0     -1.00000
      333.000      66.0000      5.54254      360.380      996.374      1687.23      2981.03      6304.76      15260.7      30876.8     -1.00000
      655.000      666.000      63.6569      384.103      988.998      1575.10      2729.45      5885.42      14659.8      30939.0     -1.00000
      864.000      864.000      86.5309      351.064      951.332      1548.69      2667.66      5895.36      14882.7      30948.8     -1.00000
      577.000      747.000      85.6064      381.100      1067.26      1683.73      2991.61      6327.51      15348.9      30827.1     -1.00000
      441.000      823.000      76.7406      369.017      1015.60      1626.12      2936.45      6276.37      15383.3      30675.9     -1.00000
      814.000      352.000      16.3624      366.444      1054.98      1741.97      2904.59      6303.73      15217.1      30395.8     -1.00000
      605.000      658.000      79.8671      364.446      956.233      1654.98      2842.34      6020.39      14946.9      30484.8     -1.00000
      323.000      931.000      106.082      391.968      1049.29      1755.45      2863.88      6143.32      14940.3      30560.7     -1.00000
      914.000      586.000      54.6301      394.276      996.637      1633.34      2768.53      6012.26      14715.4      30438.3     -1.00000
      490.000      624.000      55.2165      362.912      969.626      1521.84      2617.34      5700.24      14378.4      30446.4     -1.00000
      935.000      624.000      55.2165      335.333      941.946      1550.08      2700.60      5913.33      14670.7      30405.2     -1.00000
      710.000      19.0000      22.7217      328.621      961.593      1701.06      2853.27      6089.51      14796.9      30084.2     -1.00000
      595.000      845.000      61.1337      339.138      881.941      1432.85      2601.23      5670.08      14352.6      30320.6     -1.00000
      119.000      869.000      78.8618      384.109      946.826      1547.28      2740.89      5860.50      14474.2      30238.9     -1.00000
      401.000      676.000      55.6057      378.589      967.454      1603.49      2762.89      6018.27      14695.7      30148.8     -1.00000
      939.000      387.000      27.0761      387.306      1111.18      1928.47      3281.25      6890.02      16139.4      29980.3     -1.00000
      160.000      554.000      58.4477      367.387      983.429      1565.62      2814.24      5834.26      14600.6      30010.5     -1.00000
      536.000      746.000      84.8722      383.989      938.776      1532.24      2655.72      5801.27      14461.8      29939.0     -1.00000
      140.000      452.000      51.1999      370.310      935.301      1652.19      1299.05      2445.79      5922.07      29786.2     -1.00000
      63.0000      866.000      83.0137      412.612      1125.83      1812.52      3116.20      6604.51      15647.8      29899.0     -1.00000
      734.000      477.000      55.6841      331.052      957.180      1635.27      2780.30      6001.25      14767.9      29673.8     -1.00000
      282.000      199.000      22.9066      306.599      823.135      1411.35      2936.70      6163.71      14835.9      29490.0     -1.00000
      902.000      897.000      58.9275      364.647      957.750      1576.98      2678.20      5892.09      14326.2      29690.8     -1.00000
      282.000      250.000      20.6774      376.668      996.968      1691.19      2898.62      6102.00      14608.4      29460.7     -1.00000
      696.000      962.000      88.7960      389.318      1028.81      1754.82      2960.56      6302.43      15045.2      29625.8     -1.00000
      827.000      332.000      20.8270      317.574      923.899      1590.45      2725.14      5807.59      14413.6      29297.3     -1.00000
      833.000      731.000      87.3884      378.177      960.599      1596.02      2753.97      5804.66      14376.8      29291.2     -1.00000
      432.000      406.000      51.9410      382.381      994.866      1675.89      2838.45      6176.79      14607.1      29042.5     -1.00000
      92.0000      857.000      59.2803      355.857      909.312      1493.62      2564.27      5531.58      14059.0      29102.3     -1.00000
      644.000      586.000      83.0476      361.791      936.283      1501.35      2598.71      5502.45      14161.0      29000.4     -1.00000
      987.000      41.0000     -2.73079      307.733      941.570      1541.71      2587.74      5587.12      13910.7      29276.7     -1.00000
      228.000      447.000      47.8720      351.461      941.574      1605.85      2781.35      5832.67      14198.3      28947.6     -1.00000
      619.000      866.000      83.0137      381.976      858.461      1433.70      2544.85      5300.53      13488.2      28829.6     -1.00000
      29.0000      803.000      62.2637      361.632      955.324      1655.50      2766.48      5877.26      14180.4      29007.4     -1.00000
      610.000      850.000      84.3146      353.666      908.986      1484.23      2596.42      5573.54      13950.6      28948.7     -1.00000
      471.000      91.0000      21.1442      320.446      945.579      1541.04      2711.09      5776.33      14031.7      28614.5     -1.00000
      104.000      13.0000      36.1813      328.392      901.545      1495.46      2575.66      5490.88      13566.8      28452.8     -1.00000
      911.000      557.000      55.3720      385.695      991.707      1638.74      2891.22      6193.83      14568.4      28591.6     -1.00000
      447.000      680.000      78.6924      387.658      994.611      1601.57      2780.34      5951.75      14335.8      28556.9     -1.00000
      333.000      827.000      76.9216      364.075      898.183      1497.04      2544.52      5389.49      13573.2      28769.1     -1.00000
      839.000      552.000      52.9664      333.280      861.137      1605.95      2769.57      5721.82      14029.0      28424.9     -1.00000
      77.0000      269.000      20.9258      353.964      940.359      1571.89      2758.59      5714.59      13932.5      28238.5     -1.00000
      249.000      742.000      65.3114      341.231      941.710      1509.72      2606.39      5589.12      13649.0      28322.8     -1.00000
      882.000      758.000      58.9820      335.952      889.229      1467.57      2512.69      5241.31      13288.5      28225.1     -1.00000
      81.0000      332.000      29.1716      345.254      950.079      1567.64      2616.27      5694.28      13613.8      28044.2     -1.00000
      991.000      235.000      25.9946      279.079      820.089      1438.71      2423.46      5078.81      13357.8      27991.9     -1.00000
      691.000      42.0000      5.54471      252.325      790.830      1263.93      2201.96      4629.85      11101.8      23016.2     -1.00000
      519.000      1021.00      84.9497      359.965      988.674      1573.29      2788.29      5797.58      14192.3      28185.9     -1.00000
      213.000      47.0000      31.6911      308.632      917.803      1549.55      2704.79      5613.43      13636.7      27865.0     -1.00000
      614.000      300.000      24.6800      330.529      914.834      1491.73      2536.26      5464.51      13275.8      28162.2     -1.00000
      475.000      445.000      52.7865      336.897      863.118      1461.43      2516.14      5386.55      13475.1      27939.0     -1.00000
      996.000      806.000      62.2332      335.113      909.709      1465.68      2632.12      5450.74      13768.7      28022.3     -1.00000
      763.000      937.000      89.3631      334.603      872.618      1485.72      2483.66      5357.86      13030.4      27986.4     -1.00000
      103.000      635.000      57.8200      355.556      902.977      1549.18      2573.68      5635.18      13801.4      27951.2     -1.00000
      516.000      1007.00      88.6876      337.707      883.268      1510.46      2548.85      5533.04      13663.7      28026.3     -1.00000
      554.000      313.000      56.9795      368.683      950.212      1544.00      2745.46      5452.33      13476.1      27803.3     -1.00000
      895.000      903.000      55.3150      376.495      912.853      1515.96      2625.09      5616.24      14044.5      27895.0     -1.00000
      385.000      377.000      16.3140      351.632      909.538      1487.82      2655.32      5613.19      13657.1      27683.8     -1.00000
      996.000      905.000      86.8539      333.269      819.514      1340.79      2370.56      5190.39      13273.0      28472.3     -1.00000
      518.000      858.000      83.3970      337.103      913.707      1469.58      2537.50      5554.04      13723.0      27760.5     -1.00000
      844.000      115.000      27.6660      252.618      795.034      1344.42      2233.14      4678.24      11513.8      23887.2     -1.00000
      521.000      499.000      58.1335      347.825      875.002      1402.90      2511.41      5338.67      13110.0      27584.0     -1.00000
      358.000      228.000      37.0841      326.814      915.861      1532.27      2614.10      5498.94      13383.8      27475.7     -1.00000
      990.000      742.000      62.8507      332.079      881.212      1515.79      2601.11      5602.41      13648.5      27617.6     -1.00000
      585.000      646.000      57.8329      329.580      843.997      1364.57      2385.82      5112.01      12866.3      27451.0     -1.00000
      133.000      848.000      83.3305      350.219      935.332      1503.56      2621.46      5579.39      13458.7      27499.1     -1.00000
      46.0000      624.000      56.4901      387.228      924.809      1504.33      2570.35      5411.38      13398.5      27185.7     -1.00000
      0.00000      253.000      88.6602      503.553      1210.89      1830.12      3088.07      6109.19      13725.1      27040.4     -1.00000
      858.000      560.000      68.5639      334.872      793.844      1411.74      2349.43      5405.91      13300.8      27063.7     -1.00000
      148.000      176.000      17.9310      238.192      666.514      1106.39      1791.81      3783.89      9061.79      18634.2     -1.00000
      951.000      621.000      80.6448      363.479      878.360      1466.51      2440.96      5254.24      12982.2      27026.2     -1.00000
      401.000      0.00000     -3.50512      307.551      913.611      1542.87      2509.72      5239.61      12800.3      27041.2     -1.00000
      15.0000      161.000      28.7752      284.498      788.891      1408.98      2407.01      5080.74      12606.3      26804.6     -1.00000
      962.000      654.000      61.6879      355.509      775.469      1420.93      2207.76      4785.74      12937.8      26787.8     -1.00000
      288.000      610.000      57.1630      364.927      968.367      1652.28      2847.91      5768.35      13661.4      26698.7     -1.00000
      774.000      127.000      26.0827      326.358      940.462      1575.09      2735.10      5598.56      13385.0      26498.8     -1.00000
      519.000      500.000      53.2428      308.231      911.490      1447.46      2436.54      5200.33      12862.4      26530.3     -1.00000
      777.000      947.000      79.9426      393.350      937.265      1464.59      2448.31      5220.24      12798.9      26599.9     -1.00000
      555.000      3.00000      23.9594      277.311      832.657      1438.02      2455.92      5106.63      12613.7      26603.6     -1.00000
      668.000      562.000      65.9389      311.554      791.920      1381.64      2366.89      5021.25      12756.6      26453.3     -1.00000
      409.000      357.000      29.7468      332.074      883.919      1463.89      2510.92      5310.83      12766.6      26374.1     -1.00000
      934.000      407.000      31.9976      323.676      850.987      1445.24      2451.33      5229.45      12896.8      25977.9     -1.00000
      1022.00      193.000      51.0319      325.246      850.646      1472.45      2475.19      5268.30      12759.6      25817.4     -1.00000
      871.000      40.0000      21.0406      287.224      857.677      1401.42      2421.98      5132.59      12557.1      25746.8     -1.00000
      844.000      704.000      74.6159      386.171      988.342      1568.56      2651.90      5614.54      13358.0      25880.4     -1.00000
      397.000      807.000      89.3263      328.192      910.095      1462.07      2479.63      5252.60      12855.2      25904.0     -1.00000
      814.000      283.000      55.3366      348.901      879.654      1438.69      2541.28      5222.22      12748.0      25751.8     -1.00000
      84.0000      6.00000     -3.05534      286.004      848.348      1428.15      2383.63      5140.88      12506.2      25676.1     -1.00000
      508.000      661.000      61.1428      337.347      904.897      1468.29      2454.19      5187.61      12814.3      25843.5     -1.00000
      543.000      118.000      28.5225      309.018      832.636      1436.28      2392.60      5143.73      12473.2      25589.1     -1.00000
      873.000      722.000      56.8303      308.129      837.403      1514.53      2487.93      5230.13      12759.2      25708.1     -1.00000
      515.000      638.000      78.0336      328.094      912.032      1426.00      2419.24      5030.83      12512.9      25499.7     -1.00000
      800.000      273.000      8.26415      285.627      789.741      1403.07      2374.58      5032.65      12282.6      25755.4     -1.00000
      981.000      632.000      57.3847      299.474      846.522      1396.27      2352.16      5106.45      12442.2      25429.0     -1.00000
      947.000      169.000     -19.8182      259.569      725.169      1215.56      2037.05      4342.92      12092.0      25296.1     -1.00000
      7.00000      729.000      64.5682      321.498      796.297      1324.79      2234.35      4748.40      11856.7      25357.5     -1.00000
      736.000      479.000      55.9624      297.227      856.119      1348.93      2278.21      4972.06      12277.4      25322.7     -1.00000
      487.000      774.000      77.4651      357.537      853.882      1434.99      2387.45      4983.19      12231.7      25349.0     -1.00000
      824.000      630.000      51.3264      273.428      740.344      1151.66      2071.88      4271.53      10224.1      21235.2     -1.00000
      406.000      233.000      27.5676      298.562      827.560      1374.06      2326.42      4935.32      12114.9      25171.4     -1.00000
      258.000      180.000      30.4343      283.395      822.337      1291.66      2292.10      4911.22      12072.6      25139.2     -1.00000
      258.000      429.000      27.4589      278.626      795.305      1317.12      2318.32      4955.72      12065.3      25454.0     -1.00000
      794.000      636.000      57.5828      353.969      775.988      1298.54      2238.87      4832.33      12091.0      25193.1     -1.00000
      871.000      37.0000     -7.05574      250.555      799.102      1384.74      2304.04      5055.36      12171.8      25026.6     -1.00000
      726.000      492.000      63.3393      328.633      818.452      1383.63      2325.77      4886.24      11975.0      25010.5     -1.00000
      631.000      548.000      56.6279      340.190      824.490      1385.47      2337.52      4881.54      12119.5      24974.5     -1.00000
      937.000      995.000      69.0096      334.154      849.268      1347.92      2342.68      5183.05      12557.0      25050.9     -1.00000
      583.000      453.000      54.2652      333.166      849.048      1463.22      2428.32      5045.18      12089.9      24889.2     -1.00000
      950.000      834.000      82.0948      283.221      802.219      1245.64      2221.29      4799.55      11953.1      24907.7     -1.00000
      236.000      397.000      32.1909      299.328      850.727      1339.50      2354.03      4855.41      11887.4      24584.0     -1.00000
      172.000      59.0000      34.6940      199.757      601.707      977.630      1549.80      3263.52      7685.84      15648.7     -1.00000
      845.000      724.000      67.6172      303.983      795.881      1338.11      2258.72      4841.18      12089.0      24588.8     -1.00000
      506.000      190.000      47.0727      305.749      829.770      1390.17      2327.07      4868.91      11792.2      24417.1     -1.00000
      244.000      451.000      47.0902      304.629      828.855      1352.96      2317.57      4800.96      11817.8      24269.3     -1.00000
      483.000      353.000      25.3408      336.878      874.662      1371.81      2376.26      5025.87      12001.9      24179.4     -1.00000
      169.000      237.000      27.0598      225.137      593.548      934.057      1566.80      3197.20      7564.79      15397.6     -1.00000
      5.00000      543.000      60.7920      327.095      774.010      1261.80      2256.44      4753.67      11541.6      24179.7     -1.00000
      407.000      36.0000      1.04561      299.231      803.517      1353.35      2284.77      4761.93      11702.0      24028.0     -1.00000
      995.000      502.000      46.8930      280.494      718.949      1206.86      2035.34      4309.77      10813.8      22692.2     -1.00000
      1000.00      773.000      77.5956      330.856      849.267      1382.90      2323.44      4976.60      11966.3      24149.7     -1.00000
      516.000      918.000      87.8022      295.938      768.221      1268.00      2173.37      4689.80      11584.7      24127.6     -1.00000
      597.000      503.000      50.7528      329.226      771.353      1328.81      2285.45      4698.56      11455.0      24204.4     -1.00000
      399.000      826.000      72.5572      292.944      762.610      1168.30      2131.65      4729.38      11550.0      23957.7     -1.00000
      637.000      143.000     -7.82816      295.373      828.096      1384.35      2370.65      4914.89      11824.6      23667.9     -1.00000
      806.000      11.0000     -13.1688      296.256      818.020      1374.78      2336.54      4894.95      11710.1      23626.8     -1.00000
      845.000      878.000      79.7376      285.264      795.458      1292.70      2273.34      4832.21      11626.1      23808.0     -1.00000
      174.000      934.000      82.4987      293.054      747.709      1270.72      2090.14      4478.00      11035.0      23721.9     -1.00000
      276.000      54.0000      22.1949      271.137      823.622      1325.10      2226.77      5144.76      11733.9      23536.9     -1.00000
      847.000      111.000     -4.84795      248.772      766.196      1244.55      2145.80      4539.47      11172.3      23646.4     -1.00000
      656.000      940.000      83.8191      298.977      792.315      1214.22      2127.56      4478.93      11330.9      23633.4     -1.00000
      235.000      284.000      28.0226      200.050      621.444      928.291      1591.36      3266.98      7887.28      16116.0     -1.00000
      764.000      390.000      32.6616      279.412      738.391      1270.86      2152.95      4524.84      11236.0      23610.8     -1.00000
      518.000      381.000      36.1203      301.615      833.406      1281.86      2256.41      4621.06      11230.3      23041.9     -1.00000
      772.000      486.000      74.1819      296.000      724.699      1166.93      1980.93      4174.22      10436.7      21873.3     -1.00000
      295.000      423.000      27.3408      296.994      759.640      1263.75      2154.16      4505.20      11091.0      22780.2     -1.00000
      476.000      930.000      105.807      305.851      768.264      1254.98      2145.56      4539.71      11096.3      22888.2     -1.00000
      358.000      224.000      17.3336      218.427      570.423      1013.14      1661.23      3640.73      9369.08      22634.7     -1.00000
      97.0000      232.000      52.4047      287.591      807.886      1347.57      2230.94      4790.37      11338.9      22618.0     -1.00000
      855.000      569.000      60.6064      274.744      769.152      1218.03      2014.92      4365.86      10642.7      22643.4     -1.00000
      349.000      73.0000      2.20624      247.084      771.995      1258.22      2161.75      4557.80      10996.2      22933.2     -1.00000
      538.000      1018.00      88.8345      299.486      720.794      1149.71      1952.28      4234.12      10562.2      22509.7     -1.00000
      477.000      924.000      75.1228      412.496      739.662      1143.95      1995.08      4346.06      10912.8      22589.9     -1.00000
      879.000      235.000      19.8659      256.879      709.965      1242.58      2092.70      4342.18      10784.4      22646.0     -1.00000
      856.000      763.000      62.0297      302.811      747.674      1173.20      2043.88      4318.38      10947.6      22494.8     -1.00000
      519.000      948.000      104.151      334.729      744.502      1146.99      1959.24      4196.51      10534.9      22533.0     -1.00000
      841.000      321.000      36.0500      325.678      765.766      1211.66      2107.36      4482.65      10839.2      22726.7     -1.00000
      137.000      284.000      50.3924      300.354      767.325      1270.03      2179.95      4528.67      10910.5      22189.9     -1.00000
      437.000      113.000    -0.417464      253.635      743.237      1205.75      2018.08      4424.23      10628.2      22443.6     -1.00000
      343.000      276.000      19.6709      270.744      761.578      1297.52      2124.99      4498.49      10829.3      22119.8     -1.00000
      453.000      667.000      57.7302      315.333      766.630      1236.05      2101.93      4531.77      10954.8      22159.2     -1.00000
      372.000      114.000      29.6059      250.443      739.173      1259.01      2132.78      4511.18      10739.8      22477.9     -1.00000
      740.000      212.000      25.5435      275.782      746.018      1259.07      2115.83      4365.42      10793.5      21960.1     -1.00000
      248.000      323.000      56.2249      297.203      719.146      1239.76      2137.87      4332.96      10610.9      21831.6     -1.00000
      541.000      632.000      62.1208      254.169      625.636      1010.90      2251.43      3284.98      9973.50      21339.9     -1.00000
      803.000      134.000      46.6396      253.713      725.907      1204.36      2090.88      4316.92      10650.3      22227.3     -1.00000
      180.000      864.000      82.7558      295.704      821.272      1198.75      2127.48      4452.86      10583.5      21847.5     -1.00000
      853.000      858.000      76.9731      268.565      830.955      1241.11      1956.82      4502.48      10706.2      21833.0     -1.00000
      849.000      208.000      27.0792      271.843      748.541      1230.04      2047.20      4289.26      10596.8      21626.8     -1.00000
      235.000      338.000      31.8127      277.201      751.544      1292.29      2156.58      4496.27      10810.3      21586.0     -1.00000
      914.000      758.000      87.6412      280.700      685.287      1089.30      1899.93      4094.03      10050.0      21549.2     -1.00000
      864.000      553.000      56.0426      282.287      763.591      1265.97      2047.02      4336.78      10483.6      21832.3     -1.00000
      552.000      971.000      82.4308      280.107      726.348      1114.84      1922.42      4087.45      10208.1      21616.9     -1.00000
      736.000      378.000      29.0356      329.348      771.978      1202.11      1992.60      4333.07      10502.8      21273.7     -1.00000
      916.000      346.000      29.2003      249.203      606.073      1030.48      1792.33      3558.88      8738.92      17907.9     -1.00000
      848.000      835.000      85.6838      338.075      747.607      1242.26      2036.03      4278.28      10439.0      21265.4     -1.00000
      234.000      803.000      89.9437      307.438      714.452      1203.84      1992.39      4252.34      10364.3      21245.5     -1.00000
      228.000      987.000      99.4723      341.120      771.502      1182.74      1976.76      4154.51      10289.0      21626.8     -1.00000
      567.000      371.000      23.7212      255.426      637.082      1048.13      1778.01      3614.72      8904.89      18340.6     -1.00000
      900.000      911.000      98.0509      284.545      691.211      1177.50      1900.25      4063.32      9934.36      21177.7     -1.00000
      696.000      66.0000      29.5632      275.493      746.767      1190.28      2020.05      4227.43      10222.6      21362.0     -1.00000
      694.000      142.000     -5.21096      226.366      715.437      1234.95      2046.37      4223.17      10290.5      20949.9     -1.00000
      357.000      85.0000      23.3243      248.944      712.078      1163.51      1907.81      4145.71      10122.9      20870.0     -1.00000
      496.000      58.0000      50.2635      276.071      740.983      1173.66      2042.17      4230.41      10205.4      20783.8     -1.00000
      883.000      824.000      63.5500      303.278      695.088      1046.96      1743.14      3657.26      9035.56      18802.5     -1.00000
      737.000      554.000      56.6209      273.496      719.427      1177.54      1928.05      4007.10      10141.3      21297.4     -1.00000
      618.000      848.000      76.3413      278.898      711.902      1116.84      1957.69      4095.23      9970.23      20690.4     -1.00000
      178.000      169.000      2.20130      259.569      713.414      1183.68      2011.46      4171.83      10143.3      21056.5     -1.00000
