PDS_VERSION_ID         = PDS3
RECORD_TYPE            = STREAM
OBJECT                 = TEXT
  PUBLICATION_DATE     = 2014-02-19
  INTERCHANGE_FORMAT   = ASCII
  NOTE                 = "WAC hot pixel file for epoch 2005.8."
END_OBJECT             = TEXT
END

WAC hot pixel list. Lines 1 and 2 are column headings giving exposure time 
(sec) and gain state (e-/DN), respectively, of source dark images. Starting 
on line 3, first two columns indicate x and y value of hot pixel; columns 3 
through N-1 give median electron counts for each exposure bin, and last (Nth) 
column contains either the index of the exposure bin where saturation first 
occurs, or -1 if no saturation.

\begindata
      0.00000      0.00000      0.00000      1.00000      10.0000      32.0000      56.0000      100.000      320.000      560.000      1200.00
      0.00000      0.00000      11.7270      27.6800      11.7270      27.6800      27.6800      27.6800      27.6800      27.6800      27.6800
      554.000      857.000      212.777      50219.0      240.140      257.255      260.601      324.152      405.668      490.932      524.275     -1.00000
      833.000      1011.00      222.877      51056.3      246.545      225.903      208.569      288.778      378.227      393.094      454.335     -1.00000
      268.000      760.000      169.123      34182.5      191.469      219.326      253.712      275.213      342.186      429.989      458.279     -1.00000
      259.000      815.000      176.188      25919.0      229.355      229.476      240.906      302.781      398.266      446.461      500.923     -1.00000
      561.000      799.000      188.956      23649.7      230.975      206.396      223.486      275.527      405.481      469.685      516.510     -1.00000
      577.000      598.000      248.051      1424.74      13506.1      41367.1      67848.3      107365.      111386.      111379.      111379.      6.00000
      554.000      174.000      145.137      1458.69      13297.2      40227.1      66276.1      101694.      111377.      111370.      111380.      6.00000
      833.000      328.000      199.437      1563.84      13767.7      40619.9      64745.2      98863.6      111374.      111371.      111379.      6.00000
      631.000      687.000      158.976      6624.56      170.998      180.882      183.576      289.133      362.530      437.255      475.634     -1.00000
      378.000      770.000      166.102      6988.97      186.862      195.726      202.154      271.893      396.665      438.928      459.324     -1.00000
      679.000      972.000      215.813      8261.27      222.505      211.587      158.224      322.940      361.478      400.808      454.216     -1.00000
      27.0000      840.000      165.794      7258.44      188.448      194.078      223.189      292.302      341.889      383.693      431.821     -1.00000
      268.000      77.0000      99.0990      969.640      8815.02      26722.6      44755.2      70875.0      111376.      111376.      111372.      6.00000
      950.000      846.000      155.870      7129.15      197.978      188.715      131.580      273.786      362.426      399.953      459.744     -1.00000
      518.000      997.000      197.281      7278.00      216.242      231.881      220.662      270.958      393.272      401.994      418.972     -1.00000
      270.000      709.000      150.079      5220.77      146.646      191.199      238.389      278.462      403.446      441.816      469.520     -1.00000
      259.000      132.000      84.1849      740.423      6017.70      18941.8      33141.9      54202.1      111378.      111372.      111381.      6.00000
      788.000      784.000      163.919      5332.33      200.972      196.244      221.766      290.219      389.223      426.934      460.917     -1.00000
      685.000      585.000      185.464      883.440      7787.34      23427.8      38526.2      59104.7      111385.      111374.      111378.      6.00000
      139.000      893.000      166.227      5945.95      188.838      202.339      189.542      256.509      411.344      392.491      452.203     -1.00000
      561.000      116.000      62.7318      672.364      6131.64      18566.0      30790.6      49866.3      110086.      111371.      111376.      6.00000
      896.000      756.000      178.674      4565.26      157.022      177.875      215.986      267.456      394.829      410.559      486.722     -1.00000
      705.000      878.000      184.771      5061.91      212.779      192.545      168.418      268.482      384.457      405.263      451.048     -1.00000
      631.000      715.000      170.074      4219.94      182.660      198.344      255.472      284.616      395.311      439.597      493.741     -1.00000
      718.000      843.000      169.692      4199.71      209.015      223.304      220.939      302.858      378.656      429.689      441.535     -1.00000
      995.000      1022.00      184.153      4910.36      193.415      171.758      175.402      215.057      310.229      286.943      324.272     -1.00000
      113.000      786.000      160.740      3906.82      195.909      173.683      191.163      256.611      339.112      394.960      433.643     -1.00000
      1000.00      744.000      146.262      3702.70      171.091      197.006      193.687      252.884      333.718      400.989      422.062     -1.00000
      813.000      701.000      144.237      3418.43      139.397      190.691      227.297      289.977      368.982      436.399      492.435     -1.00000
      358.000      908.000      185.465      4049.85      214.753      201.965      263.863      263.148      395.090      408.425      456.093     -1.00000
      694.000      723.000      163.391      2985.32      180.140      179.660      226.729      275.395      380.559      402.268      457.901     -1.00000
      602.000      914.000      198.996      3580.45      212.880      193.138      239.627      268.673      397.643      415.888      465.284     -1.00000
      372.000      1016.00      189.479      3925.02      206.091      204.242      245.879      272.686      368.229      386.323      399.071     -1.00000
      962.000      403.000      106.340      576.306      5309.30      16398.5      27652.3      45143.2      102947.      111375.      111383.      7.00000
      224.000      420.000      110.925      409.261      3871.96      11961.5      20456.6      35739.7      94318.8      111378.      111382.      7.00000
      365.000      612.000      158.851      405.422      3579.01      11306.4      19756.3      33790.5      91679.2      111376.      111375.      7.00000
      356.000      753.000      152.720      2890.62      181.406      184.837      248.458      285.541      362.916      415.262      437.977     -1.00000
      0.00000      936.000      553.189      3471.04      571.714      569.721      559.557      770.176      880.682      954.714      1243.76     -1.00000
      806.000      819.000      157.529      3001.17      178.387      192.061      256.731      296.730      374.869      416.730      422.832     -1.00000
      354.000      963.000      205.905      3443.39      219.508      200.910      242.980      266.915      361.496      375.085      425.639     -1.00000
      420.000      877.000      178.846      3122.51      205.010      236.465      227.797      346.339      563.008      777.572      1224.10     -1.00000
      276.000      737.000      146.427      2535.70      169.346      213.509      224.042      262.325      414.395      415.873      459.343     -1.00000
      707.000      655.000      167.823      581.483      4196.97      13137.4      22724.9      37874.4      87709.3      111225.      111376.      7.00000
      641.000      697.000      151.433      2402.18      181.201      217.815      226.305      288.321      417.776      436.169      515.414     -1.00000
      536.000      969.000      201.561      3141.74      209.821      206.732      177.519      252.518      336.135      400.592      437.772     -1.00000
      496.000      690.000      145.177      2334.68      155.450      185.395      240.397      266.532      371.476      410.344      445.591     -1.00000
      947.000      587.000      131.914      294.579      2858.17      8912.49      15583.1      27265.6      77825.8      111372.      111376.      7.00000
      206.000      787.000      158.964      2597.38      184.726      194.905      239.324      264.942      351.778      436.903      448.767     -1.00000
      278.000      870.000      175.997      2744.35      184.417      179.162      215.228      260.022      385.955      407.022      463.788     -1.00000
      683.000      832.000      176.307      2618.79      176.794      197.618      243.200      274.446      415.395      410.270      454.782     -1.00000
      330.000      981.000      207.931      2882.45      208.350      202.624      202.146      262.354      360.831      389.523      431.605     -1.00000
      909.000      844.000      174.384      2469.04      180.344      169.790      219.679      256.374      342.910      390.118      427.583     -1.00000
      831.000      708.000      143.183      2002.33      138.889      205.612      210.478      286.720      354.242      429.544      456.190     -1.00000
      213.000      923.000      190.548      2460.82      185.287      204.303      214.596      264.507      380.724      429.482      433.114     -1.00000
      783.000      1020.00      206.899      2637.98      202.124      208.602      173.984      253.363      384.314      400.900      484.855     -1.00000
      554.000      175.000      45.8006      38.5681      92.2740      230.907      289.202      370.821      6136.80      64450.8      111377.      8.00000
      878.000      976.000      188.623      2457.82      178.057      176.399      217.695      287.654      322.144      373.942      437.791     -1.00000
      538.000      1000.00      195.957      2492.56      200.395      206.304      193.311      316.330      394.917      439.248      527.610     -1.00000
      719.000      797.000      158.404      2022.84      210.237      206.589      219.153      272.355      408.062      453.854      491.155     -1.00000
      734.000      745.000      164.966      1862.23      165.572      167.611      239.652      281.354      375.224      417.202      449.275     -1.00000
      906.000      454.000      104.405      233.838      2678.79      8417.28      15724.0      25281.3      69781.7      106539.      111371.      8.00000
      911.000      795.000      158.311      1895.66      184.387      220.268      238.908      265.675      392.007      413.888      462.203     -1.00000
      971.000      821.000      174.942      472.689      2512.95      8026.96      14178.2      24387.1      67190.1      104016.      111382.      8.00000
      615.000      629.000      147.592      294.653      2364.41      7558.27      13382.1      23490.2      66760.9      102843.      111374.      8.00000
      460.000      846.000      171.097      1946.12      209.705      204.577      186.940      265.799      362.518      400.742      488.474     -1.00000
      577.000      599.000      140.238      107.079      276.642      421.384      506.620      710.794      21582.1      69057.8      111384.      8.00000
      153.000      698.000      135.424      1592.63      176.881      200.801      200.434      263.808      365.855      408.479      461.421     -1.00000
      604.000      951.000      166.516      2071.61      213.814      199.290      236.312      287.343      336.248      413.858      454.793     -1.00000
      657.000      716.000      171.273      1622.80      188.848      181.482      199.783      269.443      361.832      426.928      465.792     -1.00000
      281.000      753.000      202.618      537.817      3552.80      10968.1      18467.1      31173.7      75571.1      106102.      111377.      8.00000
      943.000      819.000      165.302      1794.57      174.097      180.480      202.836      269.050      380.013      395.321      444.241     -1.00000
      404.000      902.000      192.265      1882.10      197.067      169.103      221.454      259.839      351.256      398.015      433.508     -1.00000
      662.000      623.000      137.452      276.078      1588.98      4996.83      9716.72      15913.1      50019.1      84752.7      111378.      8.00000
      349.000      756.000      156.128      1589.73      201.681      213.630      271.346      307.332      405.195      463.380      523.309     -1.00000
      787.000      651.000      142.620      242.312      2218.34      6776.69      10406.5      18067.5      54177.8      87373.9      111373.      8.00000
      85.0000      745.000      150.140      1553.91      166.199      196.011      186.027      270.994      374.576      400.857      422.628     -1.00000
      883.000      692.000      152.857      1445.64      200.277      178.822      189.598      275.056      360.260      414.207      490.473     -1.00000
      267.000      689.000      135.498      1426.59      146.560      186.950      187.691      289.439      385.353      415.403      463.732     -1.00000
      773.000      757.000      160.647      1529.68      191.353      200.866      223.804      260.536      346.405      431.061      464.654     -1.00000
      469.000      702.000      130.042      1424.18      185.694      206.742      264.813      270.537      358.966      405.379      470.028     -1.00000
      630.000      1000.00      194.559      399.242      2102.91      6545.96      11578.9      19889.6      55974.7      86550.9      111378.      8.00000
      341.000      958.000      188.172      1820.83      228.517      192.320      239.552      284.548      354.219      410.066      456.489     -1.00000
      22.0000      494.000      57.5898      41.1049      1772.74      5376.49      225.235      16902.6      52311.8      82784.7      110016.      8.00000
      783.000      788.000      177.636      1503.20      183.822      199.715      244.726      259.005      389.448      416.204      486.923     -1.00000
      283.000      902.000      169.915      1687.76      201.522      212.918      249.134      255.726      397.835      404.418      452.734     -1.00000
      631.000      4.00000      30.3714      184.610      1582.17      5243.90      8685.14      15800.5      45139.1      77202.2      111375.      8.00000
      679.000      289.000      57.3610      258.714      2016.51      6327.62      10884.4      18983.3      53331.9      82533.8      111381.      8.00000
      44.0000      689.000      126.322      1338.43      145.544      186.950      196.668      287.514      355.057      406.075      429.746     -1.00000
      693.000      813.000      183.991      1530.90      189.228      217.099      239.148      275.278      389.919      460.066      486.302     -1.00000
      950.000      163.000      52.2053      166.072      1634.60      4919.94      9658.17      15143.1      46144.4      76535.3      111369.      8.00000
      871.000      723.000      155.072      1371.33      191.867      182.953      212.077      245.192      372.729      377.593      425.426     -1.00000
      27.0000      157.000      42.2600      184.544      1798.92      5479.01      9431.09      16650.2      48875.0      76942.3      111376.      8.00000
      196.000      915.000      190.354      353.297      1604.69      5213.29      9219.36      16407.8      48508.3      76786.8      110592.      8.00000
      518.000      314.000      25.8445      212.844      1746.16      5742.32      9865.32      17189.1      48592.6      76255.3      111373.      8.00000
      30.0000      831.000      162.507      1452.97      182.954      154.775      185.706      238.455      374.023      358.164      402.536     -1.00000
      710.000      702.000      144.674      1252.58      170.300      189.881      170.009      287.528      385.407      460.745      461.867     -1.00000
      822.000      465.000      75.0704      147.338      1308.23      4546.21      7778.12      13783.3      39463.7      68791.4      110989.      8.00000
      198.000      682.000      161.497      323.181      2597.75      8009.90      13638.2      23010.8      57581.8      81345.5      110421.      8.00000
      753.000      919.000      190.576      1529.49      201.247      215.989      223.987      262.178      353.207      402.997      468.034     -1.00000
      435.000      919.000      172.356      1513.35      218.745      195.049      226.830      303.267      398.865      388.377      459.110     -1.00000
      372.000      333.000      57.1210      117.749      1244.69      3783.74      6531.23      11693.8      38118.4      65816.5      111379.      8.00000
      104.000      696.000      141.528      1168.92      152.449      173.877      188.828      242.094      337.056      384.868      414.721     -1.00000
      378.000      87.0000      34.9256      180.203      1782.42      5562.08      9384.70      16555.4      46193.6      71243.5      111381.      8.00000
      176.000      663.000      140.112      168.034      1363.60      4255.00      7384.34      13160.7      40822.2      67558.4      110850.      8.00000
      293.000      642.000      147.423      229.502      1672.30      5210.45      9026.31      15804.6      44990.8      70271.7      111069.      8.00000
      987.000      724.000      138.456      1181.47      169.545      180.172      236.165      243.692      330.557      382.473      437.457     -1.00000
      213.000      730.000      145.527      1189.33      193.582      179.994      264.371      267.719      393.530      462.369      457.632     -1.00000
      878.000      865.000      194.492      1371.94      192.072      182.515      216.863      274.534      369.049      413.781      485.263     -1.00000
      586.000      930.000      199.839      1460.25      202.961      213.593      245.232      287.626      383.199      406.916      459.533     -1.00000
      806.000      694.000      146.167      1127.86      173.987      199.208      186.739      273.138      406.355      421.602      532.656     -1.00000
      337.000      952.000      182.883      1469.71      194.350      216.325      213.275      250.629      353.772      387.942      427.833     -1.00000
      471.000      774.000      159.302      1225.86      174.339      171.103      191.366      269.067      382.227      412.927      449.228     -1.00000
      625.000      654.000      142.140      194.720      1428.41      4525.06      7931.65      13900.6      40907.9      65876.8      111024.      8.00000
      569.000      760.000      172.076      369.351      1622.51      5028.85      8632.95      15066.9      42896.6      67143.2      109472.      8.00000
      84.0000      689.000      149.944      1094.16      144.374      185.950      210.948      284.613      357.673      377.999      429.177     -1.00000
      774.000      810.000      159.009      1227.17      176.275      189.976      214.183      279.904      383.548      391.713      462.292     -1.00000
      742.000      929.000      188.225      1372.55      204.710      192.764      213.423      275.740      342.819      387.747      430.560     -1.00000
      940.000      1018.00      174.360      1484.59      197.172      177.945      186.972      224.151      299.738      318.326      349.043     -1.00000
      282.000      882.000      163.146      1308.62      196.459      180.757      201.658      276.991      408.624      431.225      453.978     -1.00000
      947.000      852.000      175.680      1258.85      171.899      178.947      214.681      261.155      347.265      357.725      407.848     -1.00000
      620.000      900.000      188.236      1318.46      208.829      183.939      166.811      247.464      369.534      385.250      454.213     -1.00000
      991.000      918.000      172.441      1322.63      186.778      179.332      197.353      249.539      317.068      325.357      372.532     -1.00000
      871.000      720.000      159.921      1053.46      159.486      205.326      215.909      267.712      366.967      406.377      451.842     -1.00000
      543.000      801.000      175.572      1142.25      193.580      190.719      226.657      258.109      329.605      374.677      441.267     -1.00000
      282.000      933.000      193.549      1294.92      198.567      200.214      174.153      267.042      348.628      415.065      432.127     -1.00000
      555.000      686.000      173.941      993.232      192.334      223.569      185.395      274.375      390.102      426.761      454.864     -1.00000
      449.000      974.000      196.698      1338.12      209.356      187.841      161.783      256.072      330.168      381.803      416.298     -1.00000
      195.000      694.000      139.840      993.844      139.648      202.323      194.159      272.156      373.763      416.396      479.844     -1.00000
      234.000      1017.00      212.288      1379.11      207.015      225.994      133.872      283.955      384.321      440.976      427.229     -1.00000
      372.000      797.000      176.442      1114.33      192.006      193.676      225.629      300.664      418.170      416.747      513.070     -1.00000
      656.000      947.000      190.942      1279.22      205.508      222.895      236.848      272.036      409.703      412.259      509.150     -1.00000
      68.0000      783.000      57.9494      1082.19      38.2304      140.048      191.232      141.102      129.700      402.297      298.896     -1.00000
      691.000      725.000      151.579      1009.07      165.616      185.194      166.506      281.875      367.439      446.769      448.297     -1.00000
      77.0000      952.000      179.712      1239.54      194.350      191.926      233.712      241.735      298.697      325.547      333.241     -1.00000
      959.000      965.000      195.206      1252.57      173.732      171.833      191.492      212.180      296.525      348.445      354.150     -1.00000
      676.000      822.000      162.693      1078.38      206.072      216.494      194.670      282.631      396.653      428.083      468.039     -1.00000
      358.000      911.000      214.187      1167.91      228.098      199.226      185.947      258.399      344.293      407.159      444.326     -1.00000
      630.000      940.000      186.776      1199.04      207.550      189.827      254.060      279.836      377.209      404.993      503.889     -1.00000
      844.000      798.000      152.426      1030.35      181.140      186.049      198.203      282.122      354.530      472.126      485.243     -1.00000
      87.0000      864.000      169.841      1096.14      196.926      181.840      219.097      268.309      373.447      465.530      613.286     -1.00000
      139.000      210.000      41.5596      203.557      1486.72      4615.87      7995.06      13756.2      39650.8      63163.9      107963.     -1.00000
      583.000      692.000      133.624      903.799      161.164      188.439      200.328      266.571      377.094      391.032      460.312     -1.00000
      690.000      144.000      43.3816      16.8820      1617.56      5025.60      202.494      15111.4      42984.4      65671.6      107121.     -1.00000
      587.000      354.000      58.3113      43.0676      1344.43      4303.37      175.794      13120.2      38998.3      60798.0      107209.     -1.00000
      828.000      871.000      191.896      280.956      1585.62      4628.47      5987.54      13927.6      41421.2      63381.5      107701.     -1.00000
      547.000      370.000      73.9165      208.529      1708.16      5475.60      9447.10      16325.8      44700.8      67635.9      106944.     -1.00000
      827.000      1015.00      194.825      1242.57      186.175      207.407      192.049      269.134      398.775      483.405      575.866     -1.00000
      856.000      823.000      178.958      337.628      1469.91      4812.68      8166.09      14681.7      41411.1      64698.7      106236.     -1.00000
      1007.00      848.000      172.358      342.964      1184.84      4022.59      7480.36      10808.0      34877.2      57041.6      105744.     -1.00000
      788.000      101.000      29.6805      173.359      1228.30      3946.94      7081.20      12070.8      35776.6      58549.9      104905.     -1.00000
      258.000      863.000      181.479      1061.56      187.565      223.269      220.729      249.292      422.218      444.199      478.373     -1.00000
      496.000      741.000      153.064      930.847      182.911      194.941      171.331      294.483      417.329      404.586      459.046     -1.00000
      537.000      822.000      156.221      1009.06      184.040      182.036      222.350      246.622      348.883      403.326      464.320     -1.00000
      506.000      873.000      188.474      1061.88      185.748      191.929      181.035      264.624      380.426      421.854      462.428     -1.00000
      194.000      762.000      166.497      944.448      183.136      174.162      196.626      274.428      366.097      408.578      449.067     -1.00000
      958.000      749.000      145.155      929.961      172.008      165.905      181.485      295.308      353.764      374.287      426.049     -1.00000
      208.000      776.000      170.538      353.626      1537.92      4473.71      7947.87      13812.7      40848.1      60786.3      104385.     -1.00000
      31.0000      908.000      180.826      369.242      1709.92      4841.68      9154.27      14963.9      47343.7      61384.1      102802.     -1.00000
      81.0000      1015.00      201.638      1186.66      199.024      174.085      193.857      248.222      301.395      317.325      341.904     -1.00000
      614.000      983.000      190.419      1153.19      216.485      195.894      195.966      265.242      326.885      385.335      423.554     -1.00000
      803.000      817.000      170.880      980.978      158.004      196.648      252.405      259.773      335.713      408.696      450.437     -1.00000
      55.0000      964.000      193.962      203.709      318.355      1825.56      827.845      5488.79      4058.46      48183.4      14693.5     -1.00000
      358.000      225.000      32.5969      126.687      958.272      3005.85      5070.00      9133.86      29643.0      48325.7      101235.     -1.00000
      15.0000      844.000      163.914      1003.39      164.077      180.972      221.998      261.983      320.859      362.438      394.570     -1.00000
      460.000      163.000      21.5774      59.0605      1114.25      3468.79      2581.31      10554.8      31989.8      53363.7      100051.     -1.00000
      650.000      716.000      145.569      863.781      188.627      195.838      230.601      272.179      362.341      420.087      468.268     -1.00000
      333.000      749.000      155.077      896.251      172.008      194.002      209.165      258.188      352.139      410.630      470.523     -1.00000
      270.000      26.0000      15.9280      135.427      1143.37      3529.94      6975.91      10761.7      33015.4      53781.6      99378.9     -1.00000
      519.000      951.000      214.033      198.703      1093.72      3409.07      212.231      10598.0      29510.7      56846.5      100067.     -1.00000
      1022.00      876.000      170.378      1015.86      150.304      179.259      195.691      244.840      281.779      352.084      385.522     -1.00000
      54.0000      76.0000      22.1836      13.0811      1321.14      4098.00      189.389      12175.9      35220.1      56520.3      98966.7     -1.00000
      64.0000      541.000      91.6390      228.914      1302.88      4205.69      9940.68      12907.7      37478.1      59116.0      99163.2     -1.00000
      39.0000      765.000      143.463      901.054      157.725      184.919      165.928      273.146      386.029      404.257      423.379     -1.00000
      437.000      796.000      162.346      930.380      184.059      172.387      225.704      255.062      404.674      409.762      438.527     -1.00000
      378.000      741.000      201.578      346.345      1226.73      3750.19      7446.37      11445.1      33564.8      56353.4      99111.7     -1.00000
      800.000      542.000      108.636      139.688      1155.70      3668.38      6340.57      11239.6      33300.7      55321.7      98893.0     -1.00000
      705.000      195.000      48.8727      176.324      1272.47      3910.94      6741.07      11736.1      34578.1      55618.7      98362.1     -1.00000
      97.0000      915.000      179.179      1044.68      173.647      199.408      197.491      278.039      351.102      389.962      416.172     -1.00000
      814.000      966.000      189.568      1093.24      216.460      190.834      217.124      252.870      332.568      363.676      461.143     -1.00000
      694.000      825.000      173.112      949.534      202.918      221.076      190.301      280.278      378.032      413.971      458.339     -1.00000
      800.000      956.000      199.347      1076.35      232.951      208.318      225.402      313.247      406.973      438.759      491.697     -1.00000
      178.000      852.000      168.299      973.344      219.590      200.737      246.028      285.210      396.929      413.613      482.540     -1.00000
      420.000      918.000      172.354      1015.42      175.051      209.354      173.855      297.623      399.145      432.248      466.009     -1.00000
      44.0000      6.00000      16.7722      15.0333      1129.25      3623.68      1766.44      10815.9      32075.0      51917.0      93992.0     -1.00000
      380.000      803.000      149.187      895.072      187.981      202.302      166.903      270.515      409.089      411.476      463.670     -1.00000
      354.000      280.000      62.5772      139.403      799.028      2636.57      4541.25      8113.63      25928.9      44930.5      93542.7     -1.00000
      849.000      891.000      157.116      968.507      188.940      206.616      248.387      269.408      360.274      416.630      466.444     -1.00000
      718.000      160.000      23.9600      120.915      1047.72      3218.27      5594.53      9732.45      29702.1      49979.5      92979.8     -1.00000
      386.000      777.000      169.911      847.086      152.700      205.966      189.941      251.128      372.677      376.968      460.570     -1.00000
      695.000      723.000      175.091      312.024      1020.51      3178.11      5471.83      9583.69      29773.3      49923.2      91164.4     -1.00000
      358.000      907.000      193.159      950.001      211.814      174.240      189.852      284.818      386.412      413.548      459.874     -1.00000
      235.000      1021.00      209.447      1050.58      248.297      221.638      201.089      254.223      342.572      385.372      434.835     -1.00000
      211.000      500.000      118.196      119.341      866.627      2516.84      3881.32      7817.71      24716.8      43004.3      89905.3     -1.00000
      258.000      770.000      171.635      328.838      1627.94      4834.52      8408.68      14481.8      38728.1      58846.6      90014.9     -1.00000
      281.000      990.000      202.764      1017.57      190.015      182.599      244.025      250.355      350.444      417.440      416.493     -1.00000
      254.000      964.000      186.349      990.875      202.004      226.872      213.739      274.741      351.882      430.651      491.355     -1.00000
      268.000      78.0000      19.5673      11.4626      46.7928      170.521      239.882      273.307      773.931      24762.0      111374.      8.00000
      896.000      73.0000      26.6402      103.442      1087.30      3444.23      6181.43      10437.1      30638.2      49555.5      88484.6     -1.00000
      995.000      339.000      51.0946      172.712      1203.43      3713.61      6545.38      11333.0      32553.8      51070.3      87502.2     -1.00000
      343.000      959.000      196.397      964.516      188.437      201.318      232.694      291.028      357.377      403.888      418.907     -1.00000
      599.000      832.000      155.121      846.713      187.401      211.480      216.166      290.123      420.226      499.659      527.225     -1.00000
      503.000      962.000      182.650      958.838      235.143      215.437      245.569      309.498      422.585      452.509      536.478     -1.00000
      148.000      859.000      169.826      862.904      185.420      194.660      251.971      254.279      371.866      412.286      471.135     -1.00000
      689.000      775.000      163.396      287.999      834.057      2556.65      5503.20      7855.29      24513.3      42451.9      85552.8     -1.00000
      95.0000      485.000      75.0329      99.6491      829.098      2587.84      4539.31      8106.70      25330.5      42919.4      84791.9     -1.00000
      999.000      454.000      63.1589      125.948      795.598      2458.92      4375.61      7715.11      24164.8      42364.3      84418.5     -1.00000
      1000.00      61.0000      18.1496      107.494      843.029      2672.11      4893.65      8259.86      25210.4      42610.3      83830.0     -1.00000
      833.000      329.000      48.3748      60.6473      213.064      347.293      388.203      547.621      2006.99      34769.3      69205.7     -1.00000
      917.000      769.000      158.962      757.639      135.097      203.816      197.378      236.557      339.011      403.826      428.771     -1.00000
      631.000      32.0000      21.9108      131.820      1073.71      3287.11      5628.97      9899.82      29144.3      46936.1      82302.8     -1.00000
      248.000      1006.00      191.248      949.627      208.003      213.403      224.680      283.723      380.404      406.429      445.651     -1.00000
      602.000      231.000      30.5812      139.035      877.643      2780.94      5042.66      8318.20      25116.4      43337.2      81459.8     -1.00000
      426.000      434.000      66.7226      99.4707      764.152      2452.77      4213.10      7491.94      23590.9      40486.8      81203.5     -1.00000
      217.000      967.000      193.791      900.397      203.744      211.462      216.284      285.536      357.919      462.151      544.946     -1.00000
      445.000      842.000      184.519      795.867      200.448      178.908      219.643      242.981      385.468      422.457      421.374     -1.00000
      845.000      827.000      154.215      269.650      891.921      2657.31      4694.62      8296.95      25963.8      43887.9      80372.3     -1.00000
      442.000      855.000      171.242      800.670      173.822      214.397      265.660      276.827      387.580      415.124      456.082     -1.00000
      860.000      925.000      188.254      294.855      1007.86      2958.22      4229.14      8847.82      26526.2      44092.0      80214.6     -1.00000
      762.000      536.000      125.396      180.723      1036.81      2956.74      4899.98      8756.95      27238.4      44559.4      78976.1     -1.00000
      812.000      895.000      183.262      812.601      185.208      186.668      191.560      262.630      374.179      378.714      413.263     -1.00000
      290.000      971.000      179.077      870.641      203.242      187.066      232.602      278.874      331.434      390.251      481.992     -1.00000
      293.000      379.000      75.5021      113.555      779.596      2740.76      5205.09      8360.79      24059.0      43265.2      77485.4     -1.00000
      486.000      353.000      53.1424      135.934      854.434      2741.43      4712.44      8172.89      24882.3      41081.0      77112.9     -1.00000
      554.000      996.000      212.633      881.222      241.972      239.363      222.557      314.162      393.233      442.494      441.313     -1.00000
      236.000      887.000      177.661      793.845      210.128      189.477      193.747      268.655      367.192      385.658      425.666     -1.00000
      117.000      400.000      28.9089      37.3770      801.127      2403.64      4128.82      7431.96      23163.5      38832.7      76410.2     -1.00000
      193.000      706.000      146.509      256.756      848.370      2477.57      4419.15      7765.28      24278.3      39659.5      76504.5     -1.00000
      806.000      136.000      24.6951      105.083      718.450      2240.47      3889.71      6913.08      21667.2      37227.5      75371.1     -1.00000
      149.000      871.000      190.346      296.915      803.370      2400.03      4562.84      7708.32      23765.7      40352.6      75409.6     -1.00000
      747.000      937.000      196.889      808.102      204.513      177.723      198.456      279.953      362.487      415.500      415.263     -1.00000
      313.000      809.000      181.021      270.760      910.292      2480.29      4155.45      7545.24      23544.0      39437.1      74848.9     -1.00000
      577.000      597.000      110.775      75.8255      151.803      213.377      253.702      300.337      1380.03      11682.4      74459.7     -1.00000
      554.000      173.000      24.9735      18.7753      106.897      166.014      219.201      278.379      490.845      10326.0      73845.5     -1.00000
      14.0000      1023.00      201.760      291.622      808.450      2296.37      2169.29      6993.98      22094.4      37670.0      74046.5     -1.00000
      113.000      103.000      23.5855      116.843      937.855      2840.67      5118.39      8359.83      24534.2      39892.0      72466.2     -1.00000
      589.000      469.000      47.6373      97.9993      803.150      2495.68      4354.22      7592.53      22997.4      38547.7      72080.7     -1.00000
      493.000      874.000      181.454      287.413      954.813      2603.55      4485.34      7815.71      23799.9      38646.3      71508.1     -1.00000
      536.000      286.000      50.8154      102.427      771.104      2362.66      4224.68      7297.47      22352.7      37196.6      70931.1     -1.00000
      626.000      890.000      184.492      258.928      871.310      2343.90      4030.39      7215.76      22147.9      37974.1      71305.3     -1.00000
      894.000      781.000      168.854      284.845      863.978      2488.85      4350.98      7752.92      23271.0      38986.1      71177.1     -1.00000
      785.000      542.000      120.180      65.1470      996.944      2910.31      249.859      8660.72      24830.4      40131.0      69425.4     -1.00000
      497.000      390.000      75.0936      118.472      769.907      2437.90      4152.02      7380.32      22861.3      37434.4      68746.9     -1.00000
      97.0000      627.000      99.8483      118.930      833.945      2451.53      3367.24      7346.20      22388.7      37005.3      68611.2     -1.00000
      431.000      741.000      159.863      263.305      807.962      2248.56      3714.65      6797.90      20893.2      35288.3      68545.5     -1.00000
      333.000      901.000      183.561      274.849      758.414      2133.22      3630.16      6389.65      19991.2      34089.6      67369.8     -1.00000
      677.000      370.000      46.5431      88.5960      703.809      2071.95      3592.83      6303.75      19510.0      33006.2      66136.3     -1.00000
      214.000      936.000      182.190      279.498      731.819      1885.97      3282.72      5919.94      19196.6      33300.6      65950.7     -1.00000
      813.000      18.0000      2.52254      110.616      821.372      2429.36      4623.78      7340.47      21437.5      35316.5      65096.5     -1.00000
      149.000      763.000      165.805      255.126      749.590      2171.42      3843.19      6708.97      20810.8      34723.6      65551.3     -1.00000
      278.000      187.000      28.2710      96.6744      720.421      2127.95      3647.55      6365.77      18952.6      32437.0      65078.5     -1.00000
      330.000      298.000      42.6418      110.908      467.018      1401.68      3778.97      4142.34      12545.1      21199.8      42006.7     -1.00000
      643.000      899.000      193.920      247.388      670.967      1617.71      2884.32      4956.57      15964.4      28085.0      61293.3     -1.00000
      990.000      458.000      25.1759      42.9292      560.480      1846.93      3354.67      5756.64      18089.7      31553.2      63663.5     -1.00000
      289.000      420.000      68.4785      253.230      811.112      2503.74      4169.33      7441.77      21770.0      35229.0      63163.4     -1.00000
      1002.00      897.000      166.539      252.134      717.684      2064.21      3603.82      6330.26      19480.7      33348.1      63214.3     -1.00000
      909.000      161.000      27.8170      71.8862      521.633      1877.32      2711.90      5129.59      16452.8      29780.3      62296.2     -1.00000
      356.000      70.0000      25.7157      89.7615      669.454      2095.91      3728.02      6184.51      19694.9      31724.3      62138.4     -1.00000
      760.000      722.000      153.627      162.925      530.990      1908.29      203.405      5783.51      13443.7      39736.2      61790.0     -1.00000
      1014.00      619.000      119.946      105.470      637.836      1809.63      3297.52      5680.95      17581.7      31164.0      61398.4     -1.00000
      971.000      755.000      152.973      237.440      666.722      1938.09      3181.81      5901.29      17483.9      33656.5      61119.3     -1.00000
      878.000      293.000      59.9520      130.120      627.342      1932.87      3482.43      5693.52      17766.1      30250.8      60158.5     -1.00000
      911.000      112.000      16.6974      61.5295      561.675      1803.35      2534.91      5451.26      16988.5      28816.2      59994.9     -1.00000
      933.000      495.000      117.369      93.0964      626.268      1864.55      3271.06      5705.25      17341.7      29948.8      60039.2     -1.00000
      683.000      149.000      24.9137      75.9932      662.319      2016.37      3460.02      6042.00      18387.4      31052.4      59796.4     -1.00000
      888.000      986.000      192.119      268.893      704.005      1895.02      3212.32      5798.12      17690.1      30078.7      60321.5     -1.00000
      674.000      645.000      140.656      135.385      836.019      2406.73      4289.51      7405.74      21727.1      34938.8      60047.8     -1.00000
      991.000      946.000      193.120      286.636      710.808      1856.28      4890.62      5764.02      18223.4      31276.5      59940.8     -1.00000
      206.000      104.000      27.0725      95.3667      673.641      1975.39      3367.30      5908.48      18237.6      30618.0      59351.1     -1.00000
      783.000      337.000      43.1826      105.485      649.733      1948.32      3469.10      5742.03      17658.5      29672.5      59411.5     -1.00000
      349.000      949.000      193.596      261.219      587.444      2038.22      2869.81      6246.02      13081.1      41794.7      59713.1     -1.00000
      952.000      695.000      141.343      263.738      615.655      1767.08      3095.42      5453.86      16884.5      29537.9      59330.3     -1.00000
      94.0000      466.000      61.6340      103.690      595.420      1833.40      3283.07      5695.83      17687.4      30052.3      58647.5     -1.00000
      585.000      354.000      59.8332      67.9863      587.850      1786.43      2721.80      5458.92      17467.1      28592.9      58477.8     -1.00000
      496.000      7.00000     -1.79916      83.8061      533.372      1807.54      3179.00      5480.52      16644.2      28588.6      57755.0     -1.00000
      529.000      804.000      179.193      261.502      765.102      1930.91      3317.41      5592.33      18627.5      28839.9      57831.1     -1.00000
      213.000      240.000      49.0811      107.771      683.635      1924.16      3235.23      5650.44      17176.2      29062.1      57359.7     -1.00000
      899.000      837.000      180.944      241.445      596.516      1726.97      2997.05      5234.41      16576.0      28528.4      57456.5     -1.00000
      911.000      478.000      24.2521      132.307      660.453      1999.46      5173.79      5913.53      17931.4      29969.6      56976.9     -1.00000
      537.000      652.000      146.541      142.570      661.030      1768.53      2962.75      5296.85      16663.9      28563.9      56931.6     -1.00000
      449.000      680.000      144.610      144.520      631.126      1740.89      3417.21      5480.59      17333.3      29420.0      56715.7     -1.00000
      538.000      317.000      47.7857      88.8017      608.504      1903.64      3310.91      5829.62      17649.3      29534.4      56372.8     -1.00000
      601.000      457.000      101.955      129.966      631.813      1806.24      3537.56      5287.11      16022.2      28129.0      56363.4     -1.00000
      641.000      14.0000      27.2055      96.7370      625.068      1879.65      3194.08      5589.16      16993.5      28661.2      55981.6     -1.00000
      590.000      545.000      108.347      92.0924      715.794      2067.12      3567.34      6116.49      18322.4      30328.7      55922.7     -1.00000
      75.0000      421.000      65.6076      105.505      534.637      1762.33      3129.46      5280.71      16499.5      27918.2      54795.8     -1.00000
      285.000      135.000      19.3165      39.1816      793.205      2239.01      235.574      6645.59      19364.0      30406.7      54497.4     -1.00000
      694.000      40.0000      23.3334      110.355      591.003      1734.39      3870.30      5366.34      16660.8      28955.8      51580.8     -1.00000
      730.000      825.000      175.081      187.727      398.734      1479.06      188.238      4972.04      5971.43      35589.6      51860.6     -1.00000
      735.000      955.000      197.482      265.961      669.381      1716.81      2903.90      5021.93      15445.6      26325.1      50934.3     -1.00000
      705.000      439.000      90.8932      118.172      547.746      1637.79      2842.54      4949.98      15450.6      25965.9      50523.8     -1.00000
      604.000      268.000      45.3212      107.076      495.449      1507.17      2594.30      4576.01      14378.4      25561.1      49774.0     -1.00000
      435.000      236.000      34.1951      76.3862      424.859      1487.81      1734.11      4385.43      10083.8      29963.5      49746.9     -1.00000
      398.000      725.000      147.151      262.560      654.790      1780.71      3709.82      5231.81      15864.1      26341.7      49260.9     -1.00000
      979.000      968.000      191.032      228.110      598.656      1630.14      3066.93      5045.57      14183.5      27036.2      49156.7     -1.00000
      87.0000      181.000      32.8315      51.4801      487.465      1519.47      2850.08      4652.27      13288.9      25798.0      48223.2     -1.00000
      179.000      886.000      198.748      237.330      588.277      1565.72      2625.43      4750.30      14424.2      24314.2      48405.2     -1.00000
      168.000      603.000      118.550      132.998      550.901      1637.63      3020.32      5110.79      14091.6      25947.2      48069.1     -1.00000
      280.000      597.000      121.720      103.506      558.797      1608.82      2750.91      4740.90      14526.1      24469.2      47873.4     -1.00000
      259.000      133.000      53.5357      38.9941      138.728      208.106      264.630      330.253      479.666      1700.21      47351.4     -1.00000
      99.0000      868.000      185.475      244.187      579.541      1428.08      2481.37      4320.85      13469.5      23171.0      47524.6     -1.00000
      1002.00      688.000      131.711      313.750      1639.91      4995.83      8133.90      13121.9      27117.8      35822.8      47390.5     -1.00000
      664.000      607.000      105.232      64.7160      129.697      757.143      213.823      2067.46      383.622      22266.7      22239.5     -1.00000
      877.000      1006.00      168.680      202.544      211.942      189.269      2710.23      247.067      308.372      351.069      388.653     -1.00000
      515.000      681.000      128.470      103.851      625.266      1641.29      2814.25      4874.83      14676.1      24769.2      47205.6     -1.00000
      117.000      372.000      53.7984      86.0734      487.238      1358.93      2303.24      3992.56      12763.4      22099.7      46891.4     -1.00000
      474.000      539.000      108.599      96.8453      530.878      1410.93      2704.15      4089.30      12565.1      24524.6      45558.5     -1.00000
      912.000      647.000      122.245      99.2676      517.940      1328.90      2451.77      3880.95      12131.4      21513.6      45358.9     -1.00000
      341.000      275.000      44.8671      75.7095      511.723      1415.42      2418.93      4164.60      12739.9      22025.6      44973.8     -1.00000
      382.000      814.000      178.463      258.212      547.857      1348.61      2435.22      4218.68      13559.9      23046.4      45184.2     -1.00000
      505.000      972.000      195.824      232.862      544.167      1284.56      2124.06      3813.08      12118.4      20922.7      44852.8     -1.00000
      73.0000      633.000      126.462      92.5688      489.052      1304.63      2474.12      3936.34      12428.6      21311.5      44511.1     -1.00000
      802.000      833.000      168.803      232.420      801.119      1432.94      1355.36      4395.21      21701.4      9982.49      44641.4     -1.00000
      734.000      62.0000      15.8686      74.2695      429.768      1442.11      2466.34      4337.19      12941.6      21877.3      44154.5     -1.00000
      594.000      989.000      198.020      211.384      538.384      1312.82      3012.22      3975.63      12311.3      22064.2      44233.1     -1.00000
      893.000      504.000      76.2541      67.6041      506.130      1416.14      2400.79      4172.95      12670.3      21892.8      43717.8     -1.00000
      283.000      219.000      14.7475      53.9080      404.609      1312.40      2152.13      3892.49      12145.1      20831.6      43214.3     -1.00000
      712.000      848.000      176.025      242.058      520.845      1389.25      2372.63      4110.76      12592.5      21635.3      43449.0     -1.00000
      740.000      212.000      33.8863      65.3692      462.113      1399.33      1275.88      4155.83      12607.9      19870.0      42884.7     -1.00000
      472.000      475.000      71.1510      71.6404      428.111      1308.73      2238.03      4056.92      12498.5      21539.3      42891.5     -1.00000
      843.000      346.000      70.0161      70.7302      485.036      1342.38      2313.69      4034.72      12502.4      21251.2      42793.8     -1.00000
      831.000      25.0000      24.2815      67.9108      410.855      1421.58      2517.06      4204.06      12772.9      21478.2      42607.6     -1.00000
      85.0000      62.0000      19.1052      46.5895      379.670      1280.57      2217.77      3860.62      12018.5      20588.2      42538.7     -1.00000
      169.000      539.000      113.775      107.123      490.454      1405.48      1846.90      4093.98      11541.9      22646.0      42656.7     -1.00000
      785.000      438.000      89.2955      65.8475      426.677      1291.55      2180.29      3748.45      11704.1      20330.2      42600.9     -1.00000
      914.000      523.000      82.2528      90.2326      529.110      1439.35      2347.96      4096.75      12817.5      21744.5      42581.0     -1.00000
      6.00000      370.000      61.4406      143.956      449.224      1473.08      2441.29      4385.50      13250.6      22060.8      42315.2     -1.00000
      1002.00      785.000      142.903      231.463      518.450      1326.54      2288.18      3957.29      12097.1      21029.7      42169.2     -1.00000
      418.000      472.000      108.084      38.0998      115.632      700.342      193.060      2017.94      364.849      19543.7      19292.0     -1.00000
      780.000      518.000      81.4082      85.0366      493.135      1370.96      2238.04      3966.31      12275.4      21009.6      41394.9     -1.00000
      751.000      394.000      47.2332      69.1196      470.486      1244.99      2215.93      3685.67      11721.2      19503.7      41309.0     -1.00000
      719.000      114.000      15.3807      40.3892      519.495      1553.89      2639.98      4543.86      13380.8      21990.6      41162.8     -1.00000
      833.000      327.000      52.9741      67.2597      56.6992      148.582      226.192      247.397      374.882      676.656      40712.9     -1.00000
      584.000      626.000      141.035      126.722      769.019      1343.12      4456.46      4056.76      22790.2      4096.03      40758.6     -1.00000
      549.000      715.000      161.868      286.318      551.450      1316.51      2269.35      3919.19      11863.8      20325.2      40533.5     -1.00000
      125.000      390.000      53.5840      48.5167      369.859      1273.31      2240.56      3768.88      11420.8      20502.9      40296.5     -1.00000
      268.000      76.0000      20.8750      13.0811      97.5384      145.607      189.389      206.707      324.032      3134.68      40144.8     -1.00000
      549.000      500.000      122.332      82.9406      479.403      1287.32      2164.06      3669.89      11317.8      19950.3      41444.9     -1.00000
      849.000      579.000      92.9684      96.2950      500.735      1327.57      2192.89      3880.70      12622.0      18655.4      39655.8     -1.00000
      397.000      375.000      55.3863      73.9594      382.149      1327.64      1903.44      3798.53      10104.6      22734.3      39511.2     -1.00000
      650.000      551.000      105.691      108.346      459.732      1242.11      1747.87      3619.59      11259.9      19501.9      39323.3     -1.00000
      806.000      942.000      209.236      245.644      537.102      1191.59      1993.23      3326.22      10675.8      21743.0      39429.7     -1.00000
      496.000      782.000      165.012      219.506      468.761      1204.22      2049.13      3491.66      10915.1      19090.6      39332.1     -1.00000
      865.000      883.000      173.395      214.360      515.223      1247.10      2105.56      3608.56      11331.4      19614.8      39335.7     -1.00000
      783.000      105.000      30.0432      51.4284      392.959      1201.92      2274.68      3682.36      9841.95      21092.3      38616.0     -1.00000
      734.000      477.000      80.6882      50.0915      130.382      692.219      244.441      1869.82      415.431      18196.7      18166.3     -1.00000
      669.000      867.000      168.390      218.518      502.267      1266.22      2036.47      3698.47      11284.9      19647.1      38459.5     -1.00000
      876.000      717.000      129.547      241.595      465.064      1209.95      2031.45      3530.84      11045.3      19084.2      38336.4     -1.00000
      601.000      504.000      81.8928      90.0138      427.178      1250.14      2069.50      3537.65      11009.5      18882.2      38192.7     -1.00000
      640.000      724.000      152.595      203.358      380.630      1052.28      1841.60      3060.11      9221.71      17512.0      36615.3     -1.00000
      528.000      749.000      150.438      260.164      517.610      1270.15      2011.12      3597.70      10780.9      19229.5      37729.4     -1.00000
      298.000      451.000      60.6933      82.2541      453.636      1341.73      2227.32      3876.54      11884.9      19828.1      37593.7     -1.00000
      940.000      335.000      43.0950      69.9535      367.580      1212.86      2057.06      3479.16      10700.5      18238.4      37449.0     -1.00000
      657.000      33.0000      23.1616      89.6347      408.274      1271.89      1934.61      3672.88      10959.3      18621.8      37289.7     -1.00000
      333.000      596.000      116.963      78.1738      476.272      1237.78      2079.20      3651.04      11153.1      18984.3      37419.5     -1.00000
      604.000      844.000      165.446      241.193      465.168      1194.25      1963.24      3312.44      10202.5      18048.2      38206.4     -1.00000
      773.000      74.0000      21.2189      36.0666      400.798      1168.02      2058.81      3459.41      10457.7      18210.9      36619.1     -1.00000
      830.000      608.000      115.600      75.8033      418.452      1093.76      1794.09      3165.98      9835.54      17397.5      36488.4     -1.00000
      426.000      950.000      209.778      226.326      518.905      1189.36      1955.56      3345.01      10673.5      18236.5      36941.9     -1.00000
      586.000      247.000      36.9657      96.9641      349.148      1122.22      1924.26      3293.99      10296.5      17317.7      36592.3     -1.00000
      153.000      15.0000      14.7365      48.6558      399.046      1223.44      2104.86      3634.94      10967.9      18195.9      35980.2     -1.00000
      874.000      751.000      134.907      200.703      487.942      1123.29      1847.18      3162.28      9905.95      17211.2      36205.4     -1.00000
      339.000      693.000      137.970      244.329      478.843      1114.70      2082.59      3255.36      10243.7      17570.8      35899.6     -1.00000
      541.000      363.000      62.5476      72.2038      375.265      1076.93      1780.07      3240.73      10165.3      16688.2      35560.9     -1.00000
      1.00000      565.000      95.5079      106.352      528.025      1359.89      2182.62      3752.25      11468.3      18896.8      35516.9     -1.00000
      795.000      810.000      172.399      235.644      501.862      1067.81      1570.78      3120.03      9759.92      16960.1      35512.0     -1.00000
      943.000      136.000      16.9631      40.7014      412.472      1375.56      2338.70      4067.24      11812.0      19208.4      34884.4     -1.00000
      878.000      182.000      25.2328      56.8197      316.621      1063.98      1552.93      3162.63      9716.32      16690.1      34890.5     -1.00000
      749.000      955.000      183.517      216.186      465.972      1124.24      1834.11      3201.12      9896.87      17128.0      35003.2     -1.00000
      589.000      648.000      131.184      107.151      454.683      1111.54      1955.58      3250.66      9792.73      17011.5      34683.2     -1.00000
      526.000      583.000      114.801      78.0486      456.615      1118.72      1800.59      3042.34      9205.69      15769.7      32206.5     -1.00000
      267.000      6.00000      21.2346      50.4527      378.839      1129.60      1850.31      3281.14      9809.50      16850.8      34262.5     -1.00000
      1.00000      865.000      126.661      233.586      461.792      1142.01      1903.30      3233.45      9987.02      17147.8      34503.4     -1.00000
      337.000      269.000      40.0970      82.4141      389.717      1084.61      1886.90      3287.90      9864.66      16816.7      34245.6     -1.00000
      574.000      827.000      174.317      207.948      456.474      1049.52      2009.11      2953.57      9188.66      16055.0      33671.2     -1.00000
      742.000      246.000      39.2576      74.5079      344.450      1106.27      1803.62      3165.93      9685.86      16419.8      34019.2     -1.00000
      914.000      805.000      151.677      236.852      431.534      1058.57      1815.46      3030.87      9470.04      16546.8      34114.4     -1.00000
      133.000      848.000      166.546      240.871      518.442      1098.86      1944.91      3196.61      11845.9      13104.6      33871.9     -1.00000
      158.000      413.000      43.4919      97.4944      374.502      1132.64      1826.46      3180.72      9766.07      16659.9      33707.3     -1.00000
      839.000      552.000      112.415      87.5463      385.456      932.254      1561.14      2709.46      8153.75      13803.4      28299.3     -1.00000
      404.000      219.000      35.9508      81.5375      409.917      1104.52      2595.29      3212.79      9791.44      16659.3      34204.7     -1.00000
      30.0000      148.000      22.7536      66.8772      399.386      1115.30      1883.45      3219.98      9814.12      16679.5      33154.7     -1.00000
      655.000      969.000      203.123      235.892      491.268      1047.33      1726.49      2956.21      9215.29      15735.9      33262.0     -1.00000
      68.0000      1001.00      203.974      377.857      228.666      196.829      140.466      277.044      331.223      321.620      376.004     -1.00000
      619.000      494.000      71.3306      100.529      383.311      1112.24      1800.80      3178.35      9516.10      16519.6      32851.2     -1.00000
      469.000      19.0000      14.9586      55.7976      411.343      1087.05      1902.77      3165.70      9544.54      16374.3      32613.8     -1.00000
      883.000      9.00000      8.66978      63.2523      340.947      1052.50      1786.16      3174.21      9495.33      16347.0      32277.3     -1.00000
      620.000      217.000      40.6077      87.3930      311.856      1018.26      1679.53      2985.00      9066.65      15827.1      32246.1     -1.00000
      538.000      619.000      117.337      80.5884      409.313      945.689      1632.74      2788.87      8726.87      14892.6      32213.6     -1.00000
      160.000      554.000      140.604      70.8278      380.530      979.128      1670.77      2777.32      8489.96      14633.7      29980.1     -1.00000
      656.000      264.000      44.0937      69.7787      324.401      1002.12      1717.18      2888.84      8907.56      15240.4      31849.9     -1.00000
      935.000      624.000      122.148      78.4861      384.008      940.797      1497.11      2733.06      8355.43      14552.6      30095.9     -1.00000
      349.000      73.0000      22.0074      46.4961      342.128      1020.76      909.522      3018.82      9153.67      15520.5      31620.2     -1.00000
      830.000      669.000      155.247      64.5456      387.629      1024.82      1646.42      2943.97      8988.71      15544.6      31742.5     -1.00000
      524.000      366.000      65.2446      120.039      361.389      1036.93      1570.93      3051.53      9099.35      15565.7      31531.1     -1.00000
      433.000      445.000      107.058      91.2481      344.805      1094.03      1770.69      3046.06      9500.96      15884.7      31492.6     -1.00000
      729.000      676.000      149.180      69.9023      421.183      1013.86      243.594      2864.61      8809.85      14975.3      31515.6     -1.00000
      74.0000      253.000      44.1080      33.6032      348.461      964.894      1318.41      2760.90      8535.22      14769.1      31367.4     -1.00000
      742.000      390.000      40.8016      64.6728      440.220      1299.89      2130.94      3805.98      11310.5      18023.1      31145.9     -1.00000
      528.000      635.000      135.532      78.2626      431.659      1019.66      1669.95      2780.84      8590.86      14776.0      31086.7     -1.00000
      333.000      66.0000      15.5761      39.0086      327.137      1027.40      1744.63      2963.35      8902.06      15210.2      30802.6     -1.00000
      577.000      747.000      174.223      261.516      457.778      1068.65      1740.12      2985.77      8840.89      15344.2      30971.6     -1.00000
      991.000      235.000      44.6943      72.6925      364.868      978.292      1512.94      2851.92      8715.55      14879.2      30782.7     -1.00000
      710.000      19.0000      15.6883      29.6407      348.111      999.073      1708.46      2941.69      8888.55      15171.5      30650.2     -1.00000
      441.000      823.000      179.440      222.984      459.133      1040.85      1660.42      2903.67      8880.19      15372.5      30559.4     -1.00000
      490.000      624.000      126.039      50.8061      388.937      948.756      1545.99      2660.27      8200.50      14386.0      30420.2     -1.00000
      119.000      869.000      187.550      214.509      447.654      963.125      1592.41      2723.22      8745.21      14837.1      30398.7     -1.00000
      614.000      300.000      50.3064      36.9984      350.696      894.286      1519.95      2492.41      7649.86      13196.4      27485.0     -1.00000
      676.000      139.000      28.1587      70.6269      231.470      955.723      1412.38      2753.74      7489.81      16238.4      30078.2     -1.00000
      605.000      658.000      138.065      95.5017      393.529      969.851      1613.47      2787.11      8636.42      14920.4      30242.9     -1.00000
      401.000      676.000      145.597      97.5823      416.385      1000.63      1655.27      2834.75      8754.76      14949.8      30173.3     -1.00000
      358.000      224.000      26.4937      69.3000      242.906      719.965      1187.51      2017.60      6529.66      11514.7      29937.7     -1.00000
      140.000      452.000      59.2014      93.7968      371.484      980.830      5753.77      2745.39      8446.50      14458.7      29955.3     -1.00000
      918.000      895.000      183.262      231.044      490.809      1109.51      1768.75      3054.98      9218.35      15492.0      30094.8     -1.00000
      814.000      352.000      50.5719      82.3817      344.048      1015.41      1686.99      2941.81      8690.29      15127.6      29906.5     -1.00000
      449.000      291.000      32.7777      62.6863      320.392      957.868      1666.31      2849.48      8617.22      14709.1      29815.7     -1.00000
      213.000      47.0000      12.8711      46.0054      332.149      949.366      1520.06      2827.30      8498.47      14349.5      29685.6     -1.00000
      63.0000      866.000      161.773      181.982      477.569      1122.28      185.328      3169.57      9316.88      15522.2      29789.5     -1.00000
      323.000      931.000      190.310      264.873      449.640      1048.83      1672.90      2842.42      8616.86      14771.4      29802.9     -1.00000
      84.0000      903.000      185.396      237.968      475.726      1048.23      1604.50      2994.49      9265.99      16054.8      34507.3     -1.00000
      655.000      666.000      148.314      77.2077      387.398      954.040      1430.22      2587.01      8021.02      13930.3      29262.2     -1.00000
      282.000      250.000      41.1397      91.1638      388.532      997.280      1634.47      2874.76      8684.44      14690.5      29417.7     -1.00000
      92.0000      857.000      190.446      256.636      427.771      912.207      2305.25      2646.09      8027.98      13914.9      29132.0     -1.00000
      397.000      807.000      189.818      207.569      445.879      991.793      213.885      2842.25      8679.22      14894.0      29557.7     -1.00000
      987.000      41.0000      2.45377      50.6820      308.705      887.911      1489.59      2644.48      8105.18      14019.7      29595.3     -1.00000
      902.000      897.000      172.024      228.553      412.116      967.200      1550.68      2687.46      8299.52      14376.8      29479.1     -1.00000
      610.000      850.000      176.268      210.274      425.028      920.722      1487.79      2630.03      8113.36      14224.1      29439.1     -1.00000
      0.00000      253.000      76.1793      172.093      500.911      1274.74      2121.68      3318.62      9041.16      14713.7      29097.5     -1.00000
      833.000      731.000      318.220      243.851      555.044      1059.73      1604.68      2862.69      8414.26      14420.9      29216.6     -1.00000
      871.000      40.0000      11.4853      48.6381      340.015      919.397      1462.14      2736.58      8296.95      14135.4      28938.5     -1.00000
      432.000      406.000      74.9455      93.7416      345.045      1001.87      1658.33      2886.72      8712.48      14858.4      29023.4     -1.00000
      939.000      387.000      26.9738      60.6599      358.001      1110.67      1596.83      3247.51      9609.41      15296.2      29014.6     -1.00000
      858.000      560.000      97.1515      76.1218      325.921      936.416      1474.59      2606.45      7366.12      15047.0      29057.7     -1.00000
      234.000      334.000      55.0525      121.024      336.438      1036.27      1846.71      2931.86      9569.29      13611.3      30101.1     -1.00000
      519.000      500.000      82.6083      91.6606      331.106      886.518      1402.58      2463.56      7481.29      12817.7      26402.1     -1.00000
      29.0000      803.000      156.525      290.064      425.666      983.587      5535.99      2789.29      8352.70      14215.0      28978.5     -1.00000
      471.000      91.0000      16.5820      57.5295      341.465      965.995      1651.47      2734.20      8223.51      14126.0      28730.5     -1.00000
      882.000      758.000      138.111      228.212      409.419      887.249      1440.44      2511.83      7671.90      13315.0      28275.5     -1.00000
      333.000      827.000      192.788      235.628      387.662      904.989      1096.22      2542.19      7668.82      13606.6      28817.4     -1.00000
      104.000      13.0000      12.6049      26.9276      295.911      918.604      1517.56      2571.92      7877.06      13658.0      28482.7     -1.00000
      911.000      557.000      100.086      75.5973      380.547      1000.30      1651.02      2901.78      8523.05      14488.0      28561.7     -1.00000
      68.0000      1021.00      188.383      330.344      195.332      182.948      195.877      258.830      301.235      289.535      326.284     -1.00000
      77.0000      269.000      34.0626      89.5908      284.174      977.884      1638.05      2707.13      8176.04      13875.8      28102.3     -1.00000
      103.000      635.000      126.646      73.5819      379.383      930.247      1525.83      2580.74      8054.88      13875.3      28124.1     -1.00000
      81.0000      332.000      41.1950      77.8047      335.181      933.402      1528.38      2738.58      8084.79      13803.5      28021.8     -1.00000
      895.000      903.000      176.309      219.637      425.052      973.273      1547.75      2683.98      8084.43      14089.5      28169.0     -1.00000
      585.000      646.000      123.974      72.3576      382.706      860.597      1401.16      2426.32      7863.24      13009.8      27895.5     -1.00000
      996.000      806.000      165.124      209.640      367.670      888.668      1485.34      2528.48      7711.66      13713.0      27997.8     -1.00000
      554.000      313.000      67.1755      62.7101      311.115      915.579      1118.04      2606.12      7605.47      13436.8      27754.8     -1.00000
      244.000      451.000      30.8224      76.6930      303.104      939.421      1600.03      2656.40      7985.21      13807.0      27729.8     -1.00000
      990.000      742.000      156.814      160.803      330.410      909.256      1521.42      2664.72      7889.53      13667.7      27748.2     -1.00000
      358.000      228.000      28.0709      61.3060      322.706      906.583      1498.38      2593.19      7792.68      13396.4      27573.7     -1.00000
      385.000      377.000      65.6556      85.3682      332.243      914.384      1497.82      2633.24      8000.10      13559.3      27537.2     -1.00000
      777.000      947.000      191.671      241.012      463.501      977.781      1492.78      2555.22      7356.89      13867.3      27670.5     -1.00000
      518.000      858.000      175.560      209.666      399.436      930.411      1529.60      2562.30      7850.87      13532.0      27620.3     -1.00000
      736.000      378.000      41.1349      80.8295      364.383      1008.20      1219.05      2773.96      6041.06      17076.4      27395.1     -1.00000
      996.000      905.000      167.313      213.513      413.558      830.376      1522.77      2350.06      7398.45      12805.5      27148.6     -1.00000
      583.000      9.00000      23.0554      50.5795      241.290      830.582      1150.08      2435.82      7254.08      12749.7      26725.7     -1.00000
      7.00000      729.000      144.869      219.222      367.622      824.356      1380.10      2297.20      6925.02      12334.2      26203.5     -1.00000
      763.000      937.000      197.043      206.321      409.214      869.338      216.368      2374.87      7303.70      12817.0      26917.8     -1.00000
      835.000      964.000      191.690      231.014      442.258      895.885      1486.47      2434.08      7361.96      13082.7      26896.4     -1.00000
      791.000      422.000      66.3301      28.1795      251.548      844.023      222.081      2457.59      6537.30      14505.4      26683.1     -1.00000
      288.000      610.000      124.903      95.8018      408.286      1003.09      1677.18      2827.83      8347.75      13893.7      26675.5     -1.00000
      511.000      801.000      173.634      195.763      387.584      822.238      254.337      2356.97      7365.47      12220.9      26721.9     -1.00000
      516.000      1007.00      205.004      202.271      423.063      891.101      1440.84      2497.48      7514.56      13142.8      26775.6     -1.00000
      774.000      127.000      21.9174      61.2788      350.163      910.731      1570.25      2686.40      7893.38      13251.8      26508.7     -1.00000
      193.000      305.000      48.7831      49.3517      275.682      891.132      194.020      2571.02      7259.89      13447.2      26492.5     -1.00000
      5.00000      896.000      158.190      207.224      378.887      815.491      1302.78      2291.01      6949.57      12211.5      26032.3     -1.00000
      487.000      919.000      189.789      212.942      426.703      825.972      1305.52      2343.70      7184.09      12636.7      26562.4     -1.00000
      228.000      447.000      89.1863      92.3817      337.252      961.226      1631.37      2748.39      8318.91      14162.7      26416.1     -1.00000
      409.000      357.000      22.7373      44.4781      356.447      878.530      1488.28      2483.38      7529.48      12810.4      26297.5     -1.00000
      1022.00      193.000      26.2570      69.8648      282.369      884.489      1307.16      2526.54      6822.56      13852.5      26233.2     -1.00000
      115.000      807.000      161.098      235.249      504.631      932.359      1999.16      2543.66      10507.2      7984.31      26272.3     -1.00000
      951.000      621.000      120.087      106.520      372.407      862.092      1461.26      2450.54      7524.95      13035.2      26991.1     -1.00000
      794.000      525.000      61.8963      76.6427      312.250      829.139      1435.54      2314.41      7038.53      12471.8      25975.2     -1.00000
      844.000      704.000      137.438      218.843      424.354      972.666      1568.63      2709.78      8073.10      13810.2      26057.5     -1.00000
      282.000      969.000      208.282      213.191      420.906      880.423      1436.76      2399.85      7193.83      12653.3      26056.1     -1.00000
      849.000      208.000      15.0587      50.8736      233.405      753.506      1240.97      2025.43      6168.00      10486.5      21659.0     -1.00000
      84.0000      6.00000      11.9377      25.4222      272.020      825.730      1407.81      2386.40      7346.53      12530.4      25766.9     -1.00000
      407.000      69.0000      30.9587      33.2514      302.630      885.021      1350.04      2579.94      7004.13      13440.3      25721.7     -1.00000
      508.000      661.000      146.486      83.6600      351.743      894.439      1520.75      2433.52      7450.19      12722.7      25729.5     -1.00000
      619.000      866.000      205.078      234.412      441.253      891.865      1484.13      2414.50      7529.06      13584.1      28570.2     -1.00000
      873.000      722.000      158.140      176.708      415.636      896.143      5766.53      2470.39      7509.19      12866.7      25715.2     -1.00000
      794.000      636.000      123.541      97.7419      327.536      850.621      1671.21      2297.80      7065.08      12183.1      25631.7     -1.00000
      871.000      37.0000      12.9864      49.7120      252.875      853.485      1389.22      2382.56      7112.54      12618.4      25224.3     -1.00000
      258.000      180.000      18.3838      54.7196      306.414      802.786      1351.74      2303.74      7003.05      12179.6      25229.9     -1.00000
      736.000      479.000      70.8274      95.9892      304.833      848.640      1362.62      2338.12      7215.99      12218.6      25269.9     -1.00000
      800.000      273.000      44.7810      60.7070      342.183      824.817      1436.92      2396.99      7138.38      12377.5      25730.2     -1.00000
      934.000      407.000      57.0121      63.2553      324.611      856.202      1819.01      2428.01      7471.51      12837.8      26177.7     -1.00000
      401.000      0.00000     -6.61147      40.9611      266.162      838.655      1440.16      2366.24      6754.05      12109.7      25265.7     -1.00000
      487.000      773.000      156.982      213.618      404.026      814.118      1627.41      2267.09      8793.24      8469.93      25811.9     -1.00000
      726.000      492.000      62.1065      73.5768      302.030      852.626      911.855      2338.05      6973.24      12109.8      25097.6     -1.00000
      543.000      118.000      27.4880      54.1117      302.510      869.146      1492.02      2417.41      7274.46      12329.2      25611.8     -1.00000
      483.000      353.000      46.1699      68.7813      365.627      870.920      1447.31      2471.88      7308.48      12451.3      24992.9     -1.00000
      668.000      562.000      93.8721      96.9369      338.832      799.329      1878.18      2266.11      6968.13      12286.5      25161.6     -1.00000
      406.000      233.000      38.0648      38.7601      241.166      823.513      1165.11      2340.31      7159.98      12333.9      24894.3     -1.00000
      631.000      548.000      123.832      120.354      380.061      847.418      1291.13      2322.76      7168.04      12174.4      24866.1     -1.00000
      582.000      882.000      180.147      206.790      396.618      832.748      1413.94      2240.19      7314.42      10786.4      24468.6     -1.00000
      583.000      453.000      60.2984      66.5617      333.339      869.538      1395.98      2413.39      7213.23      12171.4      24713.2     -1.00000
      258.000      429.000      35.2194      53.0210      265.943      813.689      1360.16      2308.31      7059.24      12237.2      25452.4     -1.00000
      994.000      577.000      102.394      66.3806      314.560      778.956      1254.92      2144.45      6485.22      11057.7      22544.5     -1.00000
      236.000      397.000      32.4224      46.6244      292.823      831.430      1350.77      2353.59      6997.91      11926.9      24599.5     -1.00000
      407.000      36.0000      22.8008     -6.11483      262.279      820.808      451.707      2312.87      6810.66      11775.8      24072.9     -1.00000
      597.000      503.000      87.7242      68.9261      300.136      815.445      1282.56      2199.04      6697.55      11559.4      24229.3     -1.00000
      950.000      834.000      162.376      217.646      375.446      786.972      1242.86      2146.51      6562.68      12010.4      24236.5     -1.00000
      845.000      724.000      159.073      185.059      372.667      836.277      1536.29      2260.20      6872.10      11867.2      24461.2     -1.00000
      1000.00      773.000      150.507      205.484      367.716      820.737      1350.33      2321.58      6935.35      12013.2      24169.6     -1.00000
      806.000      11.0000      11.6677      11.0570      219.084      809.819      1427.77      2362.12      6994.72      11829.8      23855.4     -1.00000
      5.00000      543.000      79.8464      80.2297      321.143      791.682      1303.12      2180.49      6638.20      11504.5      23976.1     -1.00000
      516.000      918.000      189.306      185.022      377.894      800.846      1249.21      2163.12      6752.74      11541.6      23997.8     -1.00000
      194.000      79.0000      22.9635      56.6215      280.887      691.259      1221.09      1922.14      5594.00      9541.18      19303.3     -1.00000
      15.0000      161.000      19.3393      44.2062      239.679      760.494      1301.51      2201.35      6629.19      11368.2      24018.5     -1.00000
      637.000      143.000      16.0327      45.1652      294.645      840.529      1372.02      2338.87      6914.27      11653.8      23754.4     -1.00000
      937.000      995.000      183.262      243.298      386.267      756.474      1407.10      2207.45      7194.98      10675.1      23895.4     -1.00000
      845.000      878.000      180.264      205.780      384.288      819.930      1330.98      2246.45      6710.83      11733.1      23849.5     -1.00000
      855.000      569.000      107.889      67.1890      333.357      783.394      1638.76      2188.76      6555.70      11335.0      23725.5     -1.00000
      506.000      190.000      36.0099      53.2577      293.914      844.561      1355.37      2354.07      6809.20      11839.3      24337.7     -1.00000
      97.0000      232.000      42.0273      64.8459      301.207      821.255      1380.39      2356.11      6981.23      11806.4      23423.2     -1.00000
      372.000      114.000      17.9918      12.7092      247.723      777.357      1395.21      2306.06      6682.81      11369.0      23772.8     -1.00000
      282.000      199.000      28.9838      77.4732      222.108      816.104      1358.60      2275.59      6737.44      11573.4      23295.6     -1.00000
      538.000      1018.00      215.637      212.446      404.463      751.839      1195.70      2021.09      6038.32      10553.8      22484.7     -1.00000
      656.000      940.000      195.380      240.433      374.436      791.512      1251.09      2139.64      6292.75      11212.1      23323.7     -1.00000
      814.000      283.000      59.5103      45.9917      325.179      797.605      1381.23      2254.98      6663.48      11376.1      23133.6     -1.00000
      844.000      115.000      25.6790      38.6193      304.891      758.419      1276.79      2180.40      6763.90      11161.9      23587.0     -1.00000
      537.000      139.000      7.42640      7.01415      273.858      818.543      1324.89      2333.35      6645.76      11648.8      23075.7     -1.00000
      153.000      472.000      104.324      37.5811      286.301      767.479      177.013      2122.46      6425.94      11288.8      23137.2     -1.00000
      764.000      390.000      49.1862      64.6728      276.673      731.654      1272.19      2121.12      6408.75      11034.4      23221.9     -1.00000
      518.000      381.000      62.8360      78.1912      332.950      803.001      1329.73      2224.20      6622.81      11345.6      22987.9     -1.00000
      137.000      284.000      50.9967      38.9477      339.398      808.211      1293.27      2265.01      6701.18      11320.1      22954.6     -1.00000
      691.000      42.0000      8.41214      43.7367      238.310      758.126      1243.76      2206.24      6475.54      11114.8      22883.4     -1.00000
      399.000      826.000      168.038      239.952      342.831      787.036      1099.78      2186.71      6724.10      8412.18      22976.1     -1.00000
      476.000      930.000      210.843      214.092      375.497      781.449      1271.21      2176.78      6517.93      11146.5      22946.7     -1.00000
      879.000      235.000      37.2605      66.1520      252.236      698.423      1125.97      2014.00      5946.86      10920.7      22825.9     -1.00000
      216.000      681.000      128.542      63.9494      355.780      810.988      239.456      2144.51      6576.52      11193.9      22815.1     -1.00000
      599.000      572.000      123.596      52.5650      134.462      818.188      230.171      2208.99      423.225      22244.3      22651.5     -1.00000
      235.000      338.000      39.5453      79.5643      319.186      826.427      1333.13      2291.44      6835.05      11431.4      22547.1     -1.00000
      877.000      1007.00      179.781      202.271      211.978      190.124      1293.94      233.413      334.195      366.821      422.967     -1.00000
      437.000      113.000      33.5324      43.1384      250.235      732.006      1175.27      2092.37      6193.18      10598.7      22586.3     -1.00000
      321.000      366.000      71.1081      96.6166      286.558      715.361      1087.17      1906.87      5667.86      9753.44      20204.8     -1.00000
      453.000      667.000      133.570      86.7163      356.895      788.011      1231.14      2146.21      6507.73      11055.0      22413.6     -1.00000
      519.000      948.000      203.155      227.911      399.984      759.328      1212.69      2008.08      6024.89      10706.5      22377.1     -1.00000
      343.000      276.000      27.8674      61.9575      279.885      767.791      1267.98      2183.25      6465.93      10817.1      22191.3     -1.00000
      295.000      423.000      70.0254      81.1065      271.027      750.406      1361.52      2188.23      6528.05      10965.5      22733.8     -1.00000
      243.000      436.000      29.9497      77.5502      291.062      850.417      1032.63      2332.41      6860.73      11422.3      22200.4     -1.00000
      526.000      179.000      28.4777      35.6422      269.203      795.507      549.101      2212.12      6484.35      10871.1      22062.4     -1.00000
      477.000      924.000      203.895      224.865      371.918      723.403      799.018      1994.60      6168.98      10612.9      22177.3     -1.00000
      947.000      169.000      30.8737      35.5743      263.277      721.827      1268.35      2147.11      6319.98      10864.8      22513.6     -1.00000
      995.000      502.000      93.6167      67.6532      229.762      721.920      1292.79      1856.66      6547.20      10135.5      22222.4     -1.00000
      281.000      307.000      45.8471      66.5366      226.074      703.012      907.976      2110.96      6520.69      10956.9      21964.0     -1.00000
      696.000      962.000      197.740      211.023      341.814      844.160      1002.51      2205.50      4142.98      14973.2      21944.4     -1.00000
      149.000      699.000      140.165      191.897      335.163      724.298      1137.39      1924.41      5951.20      10242.4      21652.4     -1.00000
      475.000      445.000      89.3725      99.1802      309.624      771.291      1272.73      2043.83      6216.34      10697.2      22224.0     -1.00000
      803.000      134.000      15.6729      17.3312      213.993      732.688      1287.27      2059.01      6220.64      10614.6      22140.7     -1.00000
      248.000      323.000      22.1387      51.3101      278.205      758.749      1192.85      2096.20      6299.24      10629.1      21745.3     -1.00000
      318.000      560.000      92.1505      66.6214      271.062      695.196      1159.67      1898.04      5593.81      9525.28      19119.2     -1.00000
      864.000      553.000      92.1519      63.4192      304.689      767.349      1256.13      2051.33      6093.53      10427.7      21864.5     -1.00000
      737.000      554.000      117.395      62.5867      286.714      737.576      1148.30      1932.67      5832.68      10289.1      21730.4     -1.00000
      853.000      858.000      182.244      209.666      407.931      856.727      1033.30      2138.25      6037.69      10593.0      21779.3     -1.00000
      433.000      106.000      26.5313      44.8042      234.636      776.709      1055.40      2146.29      6445.44      10814.0      21582.9     -1.00000
      644.000      586.000      123.402      69.6691      304.516      748.527      1216.18      2017.93      5992.49      10151.9      21559.4     -1.00000
      671.000      581.000      122.153      66.8326      191.483      775.476      665.103      2109.58      2763.69      16385.5      21431.5     -1.00000
      228.000      987.000      187.832      247.695      402.441      777.150      1219.09      2019.65      5932.28      10269.6      21523.1     -1.00000
