PDS_VERSION_ID         = PDS3
RECORD_TYPE            = STREAM
OBJECT                 = TEXT
  PUBLICATION_DATE     = 2017-12-05
  INTERCHANGE_FORMAT   = ASCII
  NOTE                 = "WAC hot pixel file for epoch 2014.3."
END_OBJECT             = TEXT
END

WAC hot pixel list. Lines 1 and 2 are column headings giving exposure time 
(sec) and gain state (e-/DN), respectively, of source dark images. Starting 
on line 3, first two columns indicate x and y value of hot pixel; columns 3 
through N-1 give median electron counts for each exposure bin, and last (Nth) 
column contains either the index of the exposure bin where saturation first 
occurs, or -1 if no saturation.

\begindata
      0.00000      0.00000      0.00000      10.0000      32.0000      100.000      560.000      1200.00
      0.00000      0.00000      11.7270      11.7270      27.6800      27.6800      27.6800      27.6800
      441.000      853.000      294.896      22029.5      69432.3      113526.      113521.      113520.      3.00000
      911.000      495.000      230.812      20934.3      67327.6      113534.      113523.      113517.      3.00000
      64.0000      68.0000      226.609      21836.2      63627.1      113530.      113513.      113531.      3.00000
      792.000      1007.00      297.167      20998.0      57034.2      111899.      113529.          NaN      3.00000
      554.000      174.000      116.996      12863.4      39099.9      101083.      113536.      113520.      4.00000
      833.000      328.000      94.8045      13005.7      39203.7      98241.2      113529.      113525.      4.00000
      511.000      126.000      90.9487      7723.93      24606.2      73405.6      113521.      113529.      4.00000
      413.000      578.000      156.628      9630.47      29580.5      75830.7      113520.      113523.      4.00000
      518.000      858.000      226.903      6567.27      22362.4      66327.0      113525.      113527.      4.00000
      365.000      612.000      154.416      6011.11      19553.6      59437.1      113529.      113516.      4.00000
      476.000      670.000      187.897      6185.56      20255.5      56618.8      113527.      113521.      4.00000
      685.000      585.000      163.700      7460.30      22679.9      58039.8      113531.      113525.      4.00000
      561.000      116.000      55.2555      6862.77      20663.4      55067.4      113533.      113517.      4.00000
      259.000      132.000      77.0117      5594.04      17834.0      52161.3      113528.      113521.      4.00000
      231.000      20.0000      47.9245      5479.08      16834.4      47540.6      113523.      113525.      4.00000
      962.000      403.000      88.7626      4914.72      15312.2      43477.0      113523.      113533.      4.00000
      648.000      531.000      117.941      3992.89      13319.3      40493.0      113530.      113517.      4.00000
      891.000      939.000      210.666      4309.40      14189.6      40890.6      113531.      113529.      4.00000
      804.000      646.000      151.582      4158.37      13224.2      37738.7      113525.      113520.      4.00000
      108.000      289.000      86.8684      4181.50      13248.6      38221.2      113534.      113522.      4.00000
      749.000      834.000      179.652      3517.41      11568.0      36011.7      113514.      113515.      4.00000
      947.000      51.0000      60.1346      3511.83      11331.7      34764.6      113527.      113516.      4.00000
      354.000      544.000      128.475      3273.35      11062.4      33722.2      113520.      113527.      4.00000
      162.000      1018.00      182.579      2632.77      9872.00      31330.7      111912.          NaN      4.00000
      707.000      655.000      147.803      3065.54      10442.1      31438.5      110750.      113523.      4.00000
      224.000      420.000      53.4255      2790.99      9602.34      30181.9      113527.      113530.      4.00000
      98.0000      390.000      32.8897      2760.25      9509.17      29898.1      113300.      113517.      4.00000
      474.000      416.000      55.2647      2787.18      9413.41      29135.3      113523.      113519.      4.00000
      91.0000      394.000      88.3844      2576.93      8549.05      27272.4      113531.      113514.      4.00000
      640.000      997.000      220.678      2351.26      8308.79      26834.3      113526.          NaN      4.00000
      594.000      21.0000      2.34706      2604.77      8580.34      26266.7      113520.      113527.      4.00000
      114.000      405.000      30.1621      2330.16      7896.63      24808.5      113519.      113530.      4.00000
      842.000      712.000      156.836      1931.69      7111.18      23495.2      113525.      113513.      4.00000
      343.000      726.000      159.515      1626.06      5696.88      19273.8      104817.      113531.      5.00000
      991.000      762.000      146.290      1706.20      5751.71      19697.7      104417.      113528.      5.00000
      44.0000      269.000      82.0960      2820.76      8872.80      26740.8      107853.      113525.      5.00000
      339.000      693.000      167.425      2412.90      8762.90      27334.7      108493.      113517.      5.00000
      666.000      481.000      83.7232      2856.36      9181.98      27450.7      105992.      113527.      5.00000
      87.0000      781.000      143.535      2514.23      8797.94      27084.2      105844.      113028.      5.00000
      633.000      123.000      18.7553      2927.16      9405.97      27607.4      105407.      113528.      5.00000
      663.000      382.000      59.2262      2081.68      6973.86      21861.2      102012.      113529.      5.00000
      615.000      629.000      126.490      1889.46      6626.57      22059.2      101491.      113522.      5.00000
      143.000      272.000      80.2922      2543.13      8221.90      25137.1      101705.      113516.      5.00000
      1000.00      61.0000      34.6917      2318.59      7561.85      22659.0      101728.      113528.      5.00000
      577.000      598.000      102.835      2128.47      7474.94      22952.0      99262.2      113525.      5.00000
      54.0000      76.0000      28.8370      2539.11      7966.39      23493.6      95887.0      113518.      5.00000
      570.000      705.000      141.067      1601.71      5670.86      18673.4      91776.7      113527.      5.00000
      815.000      104.000      8.99938      2137.08      6731.27      20396.8      92087.4      113528.      5.00000
      237.000      376.000      95.2770      1754.03      6168.12      19654.2      91158.1      113523.      5.00000
      787.000      651.000      118.354      1902.42      6341.32      19850.1      89650.9      113520.      5.00000
      826.000      799.000      177.190      1850.33      6313.61      19973.7      88998.2      113534.      5.00000
      372.000      333.000      53.9798      1622.33      5513.87      14976.7      85433.3      113515.      5.00000
      594.000      989.000      214.449      1862.22      6701.17      21656.5      86879.9          NaN     -1.00000
      630.000      1000.00      220.815      1615.25      5889.40      19164.3      86729.4          NaN     -1.00000
      55.0000      294.000      33.4182      3067.46      10447.3      30235.6      93767.8      113521.      5.00000
      519.000      951.000      173.467      1619.39      5690.12      18373.8      86769.7      113519.      5.00000
      188.000      899.000      169.796      1806.13      6335.52      20092.1      87628.5      113527.      5.00000
      906.000      454.000      74.7016      1784.66      6041.18      19004.8      86260.8      113517.      5.00000
      119.000      316.000      105.858      2322.63      7753.95      22977.1      87765.0      113520.      5.00000
      600.000      44.0000      61.0692      2757.56      8589.29      24652.5      88033.0      113531.      5.00000
      162.000      666.000      134.475      1528.34      5292.97      17527.1      82840.2      113530.      5.00000
      598.000      415.000      62.0857      1706.57      5657.18      18023.2      82809.7      113519.      5.00000
      733.000      26.0000     -9.05595      1133.66      3717.68      11402.8      78374.5      113527.      5.00000
      29.0000      605.000      121.808      1692.87      5388.79      17245.7      80992.2      112083.      5.00000
      78.0000      277.000      33.2259      1795.83      5858.95      18044.0      82250.7      113518.      5.00000
      971.000      821.000      165.968      1355.74      4873.52      15657.4      78377.9      113532.      5.00000
      27.0000      157.000      40.0447      1650.39      5402.33      16562.8      79238.0      113518.      5.00000
      486.000      334.000      82.7404      1541.00      5070.14      15650.5      78107.9      113519.      5.00000
      210.000      792.000      137.172      1337.28      4864.10      15908.2      77594.9      113522.      5.00000
      950.000      163.000     -1.63980      1408.59      4541.46      14707.1      76432.4      113523.      5.00000
      1012.00      563.000      88.3079      1217.68      4326.62      13976.3      74855.7      113531.      5.00000
      264.000      275.000      22.1682      2038.13      6554.85      19398.3      77729.4      113518.      5.00000
      339.000      789.000      154.965      1361.38      4638.74      14835.4      73740.1      113516.      5.00000
      518.000      314.000      48.3246      1661.47      5459.39      16531.6      75463.8      113520.      5.00000
      630.000      841.000      145.163      1291.77      4648.21      15134.2      73193.1      113529.      5.00000
      239.000      948.000      192.503      1154.25      4273.08      14610.9      71673.1      112760.      5.00000
      196.000      538.000      91.1726      1092.98      3911.74      12854.5      69711.6      113521.      5.00000
      597.000      612.000      118.537      2156.85      7171.83      21201.6      74566.8      109853.      5.00000
      293.000      642.000      123.383      1410.43      4902.48      15565.1      71107.8      113528.      5.00000
      554.000      175.000      74.3075      128.148      222.477      399.890      61837.3      113523.      5.00000
      176.000      663.000      138.853      1102.26      3897.81      13061.7      69567.4      113529.      5.00000
      588.000      255.000     -5.89757      1252.76      4109.94      13040.4      67543.4      113518.      5.00000
      358.000      225.000      63.4204      1153.12      3992.83      12311.0      67053.8      113529.      5.00000
      538.000      619.000      117.781      976.589      3558.02      11762.5      66325.2      113524.      5.00000
      547.000      370.000      69.5973      1656.62      5300.61      16390.7      68381.4      109298.      5.00000
      675.000      364.000      73.9537      1388.71      4668.58      14489.1      68073.9      113530.      5.00000
      232.000      277.000      21.1578      1329.97      4603.60      14087.6      67610.6      113518.      5.00000
      898.000      537.000      69.1484      1123.71      4060.25      13267.9      65210.5      112990.      5.00000
      139.000      210.000      40.2193      1506.74      4742.66      14367.4      66664.5      113062.      5.00000
      625.000      654.000      111.580      1166.36      4073.15      13235.7      64960.9      112343.      5.00000
      569.000      760.000      135.645      1327.10      4446.05      14324.4      66215.2      110919.      5.00000
      864.000      553.000      105.514      1041.47      3747.52      12269.6      63784.6      113516.      5.00000
      685.000      840.000      188.037      1105.03      3864.06      12421.5      62379.2      110259.      5.00000
      670.000      99.0000      34.8455      1338.86      4366.35      13376.5      63570.7      113402.      5.00000
      662.000      623.000      128.380      955.771      3322.12      11051.4      60496.8      113530.      5.00000
      353.000      817.000      172.957      926.357      3156.93      10856.8      59899.8      109924.      5.00000
      239.000      74.0000     -33.3528      1253.68      4253.10      12981.7      61258.5      108548.     -1.00000
      632.000      453.000      104.850      996.830      3574.09      11619.0      60236.0      108777.     -1.00000
      57.0000      393.000      30.9357      1125.51      3939.98      12381.3      60771.1      108606.     -1.00000
      278.000      928.000      175.662      985.602      3491.65      11740.4      60988.0      108322.     -1.00000
      31.0000      908.000      175.741      1401.05      4665.10      15289.5      72140.7      107732.     -1.00000
      131.000      429.000      33.6689      1032.12      3600.08      11663.0      58252.2      107113.     -1.00000
      83.0000      346.000      18.0619      1098.23      3717.26      11667.3      59436.2      106719.     -1.00000
      465.000      787.000      163.739      877.189      3118.81      10110.6      55094.8      104836.     -1.00000
      86.0000      392.000      76.9839      1286.79      4218.56      13356.4      62428.5      104202.     -1.00000
      912.000      647.000      138.135      734.913      2483.52      8474.56      49404.2      104074.     -1.00000
      198.000      682.000      142.186      2119.42      7026.92      20418.3      72192.9      103380.     -1.00000
      378.000      741.000      143.040      959.572      3378.84      11183.0      57370.3      103359.     -1.00000
      124.000      967.000      166.445      753.051      2592.72      8491.28      48834.2          NaN     -1.00000
      631.000      4.00000     -19.6630      1057.63      3674.59      11032.9      54892.2      102056.     -1.00000
      270.000      26.0000     -14.3122      1039.77      3534.02      10851.2      54822.0      101367.     -1.00000
      460.000      163.000      53.5084      951.472      3270.45      10210.4      52986.5      101511.     -1.00000
      398.000      742.000      160.389      1050.15      3680.86      11752.7      57683.2      101853.     -1.00000
      208.000      776.000      153.200      913.399      3176.05      10446.5      53826.8      101096.     -1.00000
      250.000      121.000      45.7395      1010.04      3343.93      10505.4      52653.2      99274.7     -1.00000
      238.000      409.000      22.0767      848.239      3124.81      10440.5      53549.0      99412.2     -1.00000
      393.000      618.000      149.577      927.878      3127.73      10285.3      53575.2      99377.7     -1.00000
      175.000      25.0000     -9.43762      723.714      2698.50      8373.54      46036.3      97850.6     -1.00000
      25.0000      584.000      85.1440      896.348      3082.31      10088.8      52674.3      98000.8     -1.00000
      907.000      991.000      198.690      964.888      3369.93      10809.2      46345.3          NaN     -1.00000
      996.000      806.000      140.861      834.398      2888.55      9565.15      50912.5      97690.4     -1.00000
      651.000      746.000      147.868      836.953      2921.21      9577.33      51633.2      96560.8     -1.00000
      511.000      127.000      65.0192      128.567      158.821      353.851      41786.2      94753.6     -1.00000
      540.000      139.000      60.3184      879.306      2900.63      8981.14      47776.9      94291.2     -1.00000
      95.0000      485.000      58.9186      798.659      2765.72      8810.37      47894.2      94404.4     -1.00000
      718.000      160.000      11.9556      897.018      3002.18      9381.57      49538.6      93749.1     -1.00000
      518.000      859.000      180.223      303.916      543.985      1055.53      40089.8      113532.      5.00000
      303.000      956.000      179.141      678.307      2362.71      8004.83      44562.1          NaN     -1.00000
      641.000      14.0000      30.0466      971.153      3161.09      9766.18      49705.8      93365.8     -1.00000
      44.0000      6.00000      26.6032      999.548      3453.21      10476.0      50959.0      93253.0     -1.00000
      204.000      490.000      83.8957      1139.39      3625.06      11552.1      54037.0      93605.2     -1.00000
      304.000      417.000      57.6962      821.573      2673.41      8501.79      46582.3      93011.7     -1.00000
      234.000      803.000      178.528      936.839      3239.45      10307.2      51051.4      90364.4     -1.00000
      511.000      125.000      5.32902      66.6175      163.337      280.058      2936.51      89564.2     -1.00000
      999.000      454.000      34.3812      715.021      2433.09      8020.53      44153.1      88978.5     -1.00000
      765.000      21.0000     -11.2912      793.415      2599.91      8404.05      44530.6      88552.4     -1.00000
      319.000      366.000      55.5148      1175.16      3858.16      11856.1      55071.9      88811.3     -1.00000
      689.000      775.000      155.953      654.521      2189.45      7520.14      42870.9      87991.9     -1.00000
      788.000      101.000      7.38305      796.648      2715.37      9025.75      45752.9      87150.5     -1.00000
      719.000      37.0000     -9.96212      769.765      2658.38      8420.50      44306.1      87013.7     -1.00000
      281.000      753.000      140.385      837.468      2953.37      9470.98      47892.3      87186.6     -1.00000
      302.000      482.000      96.3721      747.993      2454.48      8184.30      44004.1      86594.0     -1.00000
      55.0000      906.000      210.398      934.186      3298.75      10608.8      50115.9      85887.2     -1.00000
      907.000      84.0000      32.9503      988.483      3474.95      10705.9      49235.1      85096.9     -1.00000
      714.000      257.000      32.7561      686.955      2289.93      7623.74      42441.9      84670.1     -1.00000
      1016.00      482.000      40.3080      833.004      2653.71      8403.96      43700.3      84650.3     -1.00000
      348.000      584.000      129.353      684.366      2189.20      7342.26      41891.4      84647.7     -1.00000
      631.000      32.0000      28.5454      889.203      3074.14      9633.44      46906.5      83725.1     -1.00000
      856.000      823.000      149.434      806.486      2792.79      9778.75      47087.0      84168.0     -1.00000
      365.000      473.000      69.3524      800.757      2663.71      8613.07      44502.0      83323.3     -1.00000
      762.000      536.000      80.5422      843.112      2858.54      9442.55      47787.4      83220.5     -1.00000
      586.000      155.000      51.2868      960.728      3420.91      10343.4      47561.8      82845.5     -1.00000
      476.000      192.000     -6.08673      766.962      2658.83      8296.90      42751.1      82503.6     -1.00000
      775.000      945.000      172.797      680.795      2281.46      7613.32      42869.9      82732.8     -1.00000
      748.000      440.000      58.3683      827.678      2905.55      9232.40      45865.5      82184.2     -1.00000
      712.000      786.000      162.728      773.168      2706.92      8617.57      45442.0      82296.4     -1.00000
      117.000      400.000      15.7982      748.482      2463.82      8154.08      43038.2      81854.7     -1.00000
      175.000      26.0000     -35.6719      620.145      2155.86      6771.12      37944.6      81369.2     -1.00000
      235.000      338.000      3.51466      966.830      3393.44      10705.0      47851.5      80886.9     -1.00000
      682.000      926.000      173.623      698.115      2338.12      7874.41      42878.4      81023.0     -1.00000
      5.00000      342.000      30.9893      573.745      2007.42      6629.77      37668.8      80200.0     -1.00000
      732.000      177.000      46.8423      776.890      2661.11      8428.31      42711.9      79841.6     -1.00000
      385.000      611.000      111.534      729.457      2555.50      8325.69      43059.6      80120.8     -1.00000
      426.000      434.000      72.6946      648.741      2058.22      6785.07      38765.4      79871.3     -1.00000
      40.0000      513.000      60.1404      726.298      2495.20      7806.06      40860.1      78738.4     -1.00000
      602.000      231.000     -1.30432      700.823      2393.87      7772.05      40553.6      78451.6     -1.00000
      72.0000      178.000      17.8485      780.202      2541.52      8043.47      41512.5      78144.6     -1.00000
      486.000      353.000      46.1114      748.430      2565.79      8065.09      41194.9      78166.1     -1.00000
      349.000      949.000      197.117      661.559      2402.82      8066.53      41959.2      78595.5     -1.00000
      220.000      824.000      177.076      636.463      2077.91      7429.47      41136.0      78439.8     -1.00000
      515.000      977.000      183.096      603.845      2039.63      6800.72      37094.6          NaN     -1.00000
      845.000      827.000      146.861      619.185      2157.26      7523.81      41862.0      77928.5     -1.00000
      911.000      112.000      23.2597      594.391      2076.98      6736.11      37092.3      77261.7     -1.00000
      83.0000      762.000      153.731      647.296      2299.48      7524.71      40661.5      77783.5     -1.00000
      560.000      414.000      56.8296      762.144      2514.60      8274.42      42133.1      76843.9     -1.00000
      310.000      842.000      193.321      599.208      1918.65      6446.45      37750.1      77185.9     -1.00000
      193.000      706.000      131.580      610.424      2104.03      7095.15      39597.7      76749.9     -1.00000
      213.000      194.000     -5.45776      827.848      2818.89      9041.11      42949.3      75852.7     -1.00000
      589.000      469.000      67.7660      721.023      2393.01      7685.70      40302.9      76016.1     -1.00000
      357.000      203.000      13.6223      773.231      2503.97      8049.94      40972.8      75744.0     -1.00000
      475.000      445.000      50.6506      683.496      2167.86      6985.76      38548.6      75912.7     -1.00000
      896.000      456.000      43.5983      681.128      2310.44      7702.43      40237.8      75826.7     -1.00000
      860.000      925.000      173.756      661.300      2238.80      7546.13      40179.8      76158.1     -1.00000
      880.000      959.000      175.307      520.185      1703.38      5978.49      35941.1          NaN     -1.00000
      691.000      62.0000      9.85167      808.717      2713.42      8336.33      40949.8      75360.4     -1.00000
      149.000      763.000      128.111      697.535      2264.80      7814.75      40556.9      75888.9     -1.00000
      750.000      438.000      67.1703      540.110      1789.73      6262.61      36384.4      75272.7     -1.00000
      107.000      183.000      23.4761      751.317      2566.48      8137.62      40213.7      74955.3     -1.00000
      585.000      354.000      50.7067      590.480      2073.38      6731.73      37297.4      74659.1     -1.00000
      147.000      861.000      175.408      648.947      2183.85      7281.62      39739.1      74934.3     -1.00000
      750.000      895.000      182.588      655.157      2154.47      7523.02      40197.3      74887.6     -1.00000
      522.000      40.0000     -12.2135      838.047      1620.94      5856.00      36016.0      74154.7     -1.00000
      554.000      173.000     -19.1439      61.1452      136.583      239.638      8383.77      74203.2     -1.00000
      323.000      210.000      43.2406      787.404      2390.98      7442.54      38350.7      73975.2     -1.00000
      776.000      274.000      22.7180      644.695      2022.07      6575.48      35581.6      73558.6     -1.00000
      468.000      653.000      111.027      628.244      1989.94      6622.07      36672.1      73398.7     -1.00000
      229.000      432.000      93.4495      595.954      2023.92      6533.63      36410.1      72477.6     -1.00000
      449.000      291.000      14.9456      650.472      2279.73      7465.51      37927.5      71569.2     -1.00000
      816.000      564.000      94.3984      498.922      1666.48      5597.73      32698.3      70693.5     -1.00000
      899.000      837.000      173.150      573.161      1897.80      6381.53      35870.0      71602.5     -1.00000
      982.000      15.0000      41.4282      741.899      2615.60      8041.81      38806.4      70773.4     -1.00000
      113.000      618.000      122.671      604.574      1944.96      6491.56      36320.9      71129.3     -1.00000
      330.000      195.000      69.0143      672.443      2235.91      7019.70      36202.6      70783.8     -1.00000
      636.000      793.000      130.548      725.280      2294.92      7854.11      40024.9      71145.3     -1.00000
      411.000      51.0000     -6.22526      618.673      2133.37      6706.69      35640.7      70518.1     -1.00000
      268.000      77.0000      3.74605      822.864      2723.97      8557.39      39548.1      70239.9     -1.00000
      894.000      781.000      148.980      585.600      2035.50      7022.34      37902.8      70738.4     -1.00000
      833.000      329.000      39.5874      204.065      448.017      709.211      36307.3      70094.0     -1.00000
      343.000      725.000      156.169      338.131      1043.42      3463.00      25853.3      70370.5     -1.00000
      420.000      156.000      41.4246      651.566      2104.33      6824.78      35832.3      69873.3     -1.00000
      580.000      753.000      138.647      619.302      2035.30      6805.29      36710.9      70238.0     -1.00000
      113.000      103.000      23.0215      733.485      2498.47      7811.29      37948.7      69717.6     -1.00000
      826.000      893.000      164.275      601.877      1979.30      6502.93      36165.2      70272.3     -1.00000
      106.000      252.000      52.2222      917.233      3118.13      9610.74      41830.4      69775.5     -1.00000
      750.000      336.000      33.7449      635.342      2072.47      6840.52      36491.6      69586.8     -1.00000
      732.000      577.000      114.947      712.083      2260.38      7655.66      39077.9      69639.3     -1.00000
      497.000      390.000      73.7993      716.489      2247.91      7218.20      37420.6      69316.2     -1.00000
      214.000      936.000      196.497      528.337      1531.87      5300.19      33548.8      68883.2     -1.00000
      879.000      131.000      6.65420      687.942      2419.34      7614.29      37060.6      67680.2     -1.00000
      94.0000      466.000      80.5025      584.502      1948.88      6409.67      34866.6      67908.2     -1.00000
      287.000      352.000      61.7450      521.597      1672.61      5379.43      31739.2      67555.2     -1.00000
      97.0000      627.000      98.8757      632.580      2042.60      6735.27      35687.7      67417.3     -1.00000
      813.000      18.0000      14.8839      691.958      2308.40      7206.33      35758.9      66964.0     -1.00000
      841.000      382.000      89.2259      613.411      1967.95      6632.49      34998.4      66913.4     -1.00000
      178.000      169.000      23.0520      568.192      1902.10      5973.27      32005.8      66526.2     -1.00000
      668.000      920.000      178.161      590.751      1676.16      8005.66      36101.2      66872.2     -1.00000
      812.000      397.000      4.96106      609.402      1982.04      6588.22      34158.6      66380.7     -1.00000
      677.000      370.000      61.4248      537.319      1786.99      5882.88      32564.9      66060.4     -1.00000
      552.000      971.000      169.956      482.630      1526.99      5277.37      31315.3          NaN     -1.00000
      108.000      686.000      118.400      571.127      1820.50      6033.20      33296.8      66015.0     -1.00000
      820.000      198.000      20.1040      610.675      2065.36      6456.24      33396.9      65646.0     -1.00000
      732.000      351.000      73.1376      650.127      2201.34      6879.80      35288.2      65665.9     -1.00000
      604.000      532.000      96.2827      593.387      1921.08      6193.70      33386.0      65349.1     -1.00000
      618.000      759.000      146.023      485.215      1576.07      5328.64      31266.3      65276.9     -1.00000
      896.000      374.000      10.3570      534.601      1771.23      5985.46      32773.0      64630.5     -1.00000
      783.000      337.000      91.0661      591.336      1911.53      6084.90      32179.9      64533.9     -1.00000
      324.000      751.000      136.789      521.587      1635.80      5652.58      32424.8      64788.3     -1.00000
      125.000      477.000      57.8284      597.474      1993.46      6532.57      33640.1      63689.5     -1.00000
      278.000      187.000      55.9218      573.624      1765.83      5841.53      31301.7      63140.0     -1.00000
      333.000      901.000      170.245      515.706      1653.51      5568.39      31310.9      63441.8     -1.00000
      150.000      648.000      117.394      540.187      1739.76      5920.05      31917.3      63176.9     -1.00000
      858.000      215.000      16.0657      523.139      1883.89      5962.17      31860.0      62782.8     -1.00000
      449.000      824.000      168.924      502.715      1625.91      5510.71      32193.5      63138.1     -1.00000
      107.000      799.000      163.333      499.471      1585.15      5349.37      31115.9      63083.5     -1.00000
      160.000      635.000      124.758      606.192      2025.62      6656.12      34047.5      62949.3     -1.00000
      493.000      874.000      170.370      616.893      1943.81      6362.62      33619.3      63086.5     -1.00000
      379.000      609.000      122.942      481.099      1729.45      5779.64      32181.4      62740.5     -1.00000
      356.000      70.0000     -10.8300      575.636      1957.58      6018.73      32788.5      62228.2     -1.00000
      602.000      587.000      93.3443      636.279      2015.93      6616.43      33437.5      62548.4     -1.00000
      908.000      592.000      66.7721      583.871      1887.05      6206.53      32619.7      62476.1     -1.00000
      359.000      223.000      1.87998      534.142      1780.82      5802.73      30879.5      61531.1     -1.00000
      154.000      725.000      133.110      497.864      1592.54      5302.30      30196.3      61797.0     -1.00000
      683.000      149.000      51.5062      540.069      1907.27      6066.05      31555.3      61340.1     -1.00000
      1002.00      897.000      165.026      481.393      1641.60      5739.47      31899.4      61698.6     -1.00000
      154.000      319.000      70.5119      616.584      2004.57      6298.99      32353.6      61136.2     -1.00000
      990.000      458.000      33.5040      400.626      1489.60      5133.64      29547.6      61041.1     -1.00000
      489.000      675.000      89.0756      596.121      1986.82      6382.70      32665.1      61121.6     -1.00000
      814.000      283.000      51.5984      629.965      2126.61      6662.20      32998.1      60851.4     -1.00000
      365.000      371.000      21.8970      553.145      1845.63      6099.71      31868.8      60591.3     -1.00000
      289.000      420.000      78.4574      671.296      2113.50      6718.48      33305.3      60574.5     -1.00000
      223.000      974.000      173.387      500.250      1555.20      5291.13      28695.6          NaN     -1.00000
      193.000      305.000      41.4967      544.361      1725.68      5624.70      30296.8      60318.3     -1.00000
      434.000      738.000      135.813      478.389      1648.53      5614.42      31169.5      60341.6     -1.00000
      888.000      986.000      185.671      398.058      1435.97      5015.97      28564.2          NaN     -1.00000
      909.000      161.000     -10.1649      339.264      1744.05      5421.72      28826.5      59783.9     -1.00000
      431.000      741.000      120.711      549.023      1689.22      5488.83      30374.5      60103.1     -1.00000
      800.000      542.000      84.7618      552.131      1871.31      6078.97      31302.7      59757.4     -1.00000
      854.000      69.0000     -3.60623      656.232      2059.09      6320.85      31364.9      59123.4     -1.00000
      791.000      327.000      37.8219      546.776      1886.83      6164.91      31409.5      59240.8     -1.00000
      837.000      172.000     -23.4197      610.609      1988.10      6306.27      31577.6      59131.3     -1.00000
      679.000      128.000      40.7207      543.587      1775.55      5758.83      30576.2      59087.8     -1.00000
      674.000      645.000      112.648      588.055      1964.72      6615.51      33277.3      58991.1     -1.00000
      393.000      191.000      33.1189      376.634      1505.04      5480.28      21588.4      58675.2     -1.00000
      654.000      45.0000      6.62214      512.932      1748.97      5757.31      29755.5      58499.1     -1.00000
      991.000      946.000      161.744      459.003      1532.05      5141.75      29673.0      59022.6     -1.00000
      988.000      295.000      37.5035      542.349      1818.43      5887.10      30465.3      58352.1     -1.00000
      140.000      452.000      55.8829      505.867      1579.42      5289.18      28950.5      58085.2     -1.00000
      137.000      284.000      67.1154      538.010      1872.40      5799.54      30058.9      57774.4     -1.00000
      494.000      322.000      90.4186      472.865      1540.84      4970.63      27748.7      57632.7     -1.00000
      206.000      104.000      32.6082      491.702      1747.61      5477.49      29328.0      57400.3     -1.00000
      163.000      9.00000     -5.44840      275.131      1026.47      3121.62      29263.2      57337.4     -1.00000
      213.000      240.000     -11.1261      517.429      1662.88      5412.20      29012.7      57403.0     -1.00000
      21.0000      55.0000     -10.9973      576.684      1874.05      5873.20      29933.0      57278.7     -1.00000
      974.000      538.000      79.5901      454.736      1489.61      5019.00      28506.5      57543.8     -1.00000
      971.000      755.000      115.610      435.849      1457.50      5081.71      28939.3      57625.4     -1.00000
      390.000      983.000      182.654      469.598      1452.23      4903.27      27281.9          NaN     -1.00000
      940.000      335.000      81.0733      480.813      1598.76      5317.50      28507.2      56776.1     -1.00000
      239.000      636.000      111.306      559.892      1793.21      5881.93      30927.5      56726.3     -1.00000
      328.000      714.000      118.968      485.749      1613.83      5326.74      29176.4      56543.3     -1.00000
      1014.00      619.000      82.8633      448.410      1437.51      4658.61      27358.5      56476.1     -1.00000
      538.000      317.000      54.8910      515.195      1717.67      5549.86      29000.8      56159.3     -1.00000
      131.000      610.000      114.529      479.768      1686.00      5514.20      29081.6      56300.8     -1.00000
      529.000      804.000      148.416      548.216      1546.70      5172.22      28705.9      56355.1     -1.00000
      298.000      451.000      88.3250      517.867      1643.84      5537.81      29060.3      56068.4     -1.00000
      690.000      144.000      41.3169      620.080      2070.59      6424.35      30858.2      55774.0     -1.00000
      537.000      652.000      141.238      475.450      1377.12      4780.67      27594.2      56020.1     -1.00000
      1013.00      608.000      90.8006      496.545      1636.11      5409.62      28677.9      55938.4     -1.00000
      952.000      695.000      130.770      414.741      1388.89      4666.81      26783.5      55372.2     -1.00000
      172.000      77.0000      59.0097      482.514      1711.38      5455.97      28239.8      54908.3     -1.00000
      365.000      613.000      136.107      265.497      428.052      824.605      4566.21      55201.1     -1.00000
      938.000      389.000      45.4084      488.138      1536.75      5008.22      27094.6      54923.0     -1.00000
      751.000      394.000      32.5365      493.869      1522.51      4866.13      26924.6      54907.4     -1.00000
      413.000      579.000      108.142      200.154      453.360      762.178      4756.76      54831.1     -1.00000
      366.000      50.0000      40.4781      510.646      1617.45      5058.36      26953.6      54428.4     -1.00000
      540.000      163.000      14.1036      434.227      1454.19      4616.27      25607.6      54056.5     -1.00000
      418.000      237.000      58.7356      540.365      1766.33      5826.63      29192.5      53989.4     -1.00000
      196.000      915.000      169.395      370.003      1258.36      4295.27      25876.1      53973.7     -1.00000
      508.000      950.000      210.017      386.207      1243.56      4118.02      25626.5      53790.7     -1.00000
      933.000      495.000      58.8897      410.492      1417.07      4669.64      26045.5      53473.3     -1.00000
      868.000      257.000      61.2151      416.955      1393.57      4576.81      24943.2      52851.1     -1.00000
      600.000      592.000      105.234      459.481      1462.59      4978.13      26696.0      52895.3     -1.00000
      399.000      297.000      72.8144      487.233      1693.50      5218.75      27100.0      52536.0     -1.00000
      482.000      844.000      165.414      432.025      1359.38      4699.45      26565.2      52816.2     -1.00000
      320.000      413.000      43.5598      487.583      1532.28      4898.48      26397.2      52571.4     -1.00000
      506.000      560.000      94.1633      587.993      1976.80      6613.78      34045.2      52528.0     -1.00000
      1022.00      161.000      19.6667      509.708      1594.40      5144.90      26986.6      52297.6     -1.00000
      722.000      564.000      118.214      451.503      1387.64      4711.53      25962.5      52470.7     -1.00000
      922.000      786.000      141.674      410.847      1231.56      4090.81      24043.8      52459.7     -1.00000
      293.000      379.000      34.8944      476.931      1488.85      4994.19      26532.6      52232.4     -1.00000
      828.000      681.000      138.735      465.388      1601.60      5071.54      26415.6      52380.7     -1.00000
      735.000      955.000      198.018      418.072      1275.83      4409.84      24697.3          NaN     -1.00000
      583.000      9.00000     -21.9949      419.285      1377.74      4486.18      24352.3      51753.0     -1.00000
      810.000      104.000     -18.5351      462.248      1603.70      4966.65      26072.6      51776.3     -1.00000
      87.0000      181.000      34.9238      467.496      1564.58      4948.04      26184.3      51716.9     -1.00000
      522.000      263.000      49.3240      496.621      1523.14      4819.33      25871.9      51546.5     -1.00000
      523.000      664.000      135.526      429.992      1169.44      3732.38      23816.2      51716.0     -1.00000
      221.000      285.000      31.7298      433.096      1413.96      4902.69      26054.8      51142.2     -1.00000
      441.000      22.0000     -8.04834      397.273      1428.74      4349.74      24016.2      50868.8     -1.00000
      781.000      619.000      88.1112      447.003      1326.64      4601.32      25977.0      50954.5     -1.00000
      258.000      770.000      151.161      515.417      1701.71      5622.80      28055.6      50972.2     -1.00000
      40.0000      721.000      112.745      343.563      1211.71      4052.44      23798.8      50929.3     -1.00000
      992.000      263.000      29.6776      503.619      1645.81      5296.91      26557.1      50510.4     -1.00000
      794.000      178.000      41.8418      398.770      1296.95      4378.67      24261.2      50391.2     -1.00000
      358.000      228.000      28.1192      462.167      1448.24      4587.66      24644.4      50413.3     -1.00000
      437.000      657.000      128.179      399.414      1335.14      4349.96      24710.7      50534.3     -1.00000
      889.000      953.000      157.862      448.216      1365.13      4443.47      25493.1      50648.1     -1.00000
      132.000      1020.00      167.576      439.347      1280.23      4244.37      23860.2          NaN     -1.00000
      855.000      1021.00      162.699      421.331      1188.03      4094.89      23834.0          NaN     -1.00000
      48.0000      920.000      156.145      381.733      1162.66      4037.31      23647.5      50312.7     -1.00000
      130.000      428.000      59.1928      405.239      1304.98      4381.83      24788.4      49857.7     -1.00000
      75.0000      421.000      90.6607      440.250      1321.35      4494.35      24516.0      49680.8     -1.00000
      300.000      655.000      121.563      510.623      1542.78      4426.08      24464.7      49422.2     -1.00000
      728.000      585.000      105.974      426.855      1332.39      4351.86      24693.3      49343.1     -1.00000
      320.000      996.000      163.072      404.232      1211.20      3935.90      23382.0          NaN     -1.00000
      911.000      492.000      61.3429      91.9533      181.206      237.212      404.457      49155.6     -1.00000
      691.000      696.000      118.377      415.091      1371.14      4416.12      24694.2      49194.8     -1.00000
      386.000      21.0000      8.45291      467.905      1548.48      4751.78      25016.6      48831.3     -1.00000
      13.0000      24.0000      5.61000      397.865      1336.07      4176.61      22844.4      48628.6     -1.00000
      897.000      155.000      47.9982      445.903      1429.86      4586.77      24588.5      48527.4     -1.00000
      501.000      563.000      107.747      385.608      1258.72      4157.66      23168.1      48495.8     -1.00000
      721.000      540.000      96.4316      401.967      1325.41      4355.70      24115.7      48314.6     -1.00000
      963.000      861.000      138.953      408.677      1158.79      4100.04      23697.3      48348.9     -1.00000
      289.000      509.000      72.4519      414.955      1336.42      4356.07      23586.7      48028.7     -1.00000
      995.000      339.000      64.9542      440.036      1553.50      4829.49      25119.1      47877.9     -1.00000
      349.000      978.000      187.088      374.761      1238.82      4084.96      22669.4          NaN     -1.00000
      276.000      938.000      163.887      441.431      1259.15      4422.96      26219.1      47958.1     -1.00000
      403.000      664.000      130.278      471.974      1438.29      4617.41      23984.0      47805.5     -1.00000
      842.000      225.000      12.2338      431.175      1308.94      4340.07      23441.5      47542.2     -1.00000
      874.000      37.0000      37.2682      419.778      1358.37      4395.42      23321.3      47245.1     -1.00000
      261.000      351.000      44.1581      404.092      1303.27      4154.94      22985.2      47251.2     -1.00000
      965.000      673.000      119.098      381.254      1146.14      3855.69      22340.5      47386.6     -1.00000
      394.000      73.0000      31.1031      376.592      1290.94      4109.86      22500.4      47041.9     -1.00000
      868.000      13.0000     -33.6946      471.110      1572.84      5029.52      24835.2      47003.7     -1.00000
      179.000      886.000      178.959      414.763      1293.10      4344.13      23667.5      47353.6     -1.00000
      259.000      133.000    -0.110462      117.625      237.744      361.391      1533.53      46835.4     -1.00000
      979.000      968.000      141.613      389.102      1243.97      3984.40      22180.3          NaN     -1.00000
      16.0000      30.0000      7.69210      464.810      1450.32      4508.73      23342.9      46486.5     -1.00000
      117.000      372.000      32.1792      339.964      1185.25      3792.37      21553.0      46448.7     -1.00000
      400.000      356.000      36.7850      413.250      1256.25      4228.66      23682.1      46508.7     -1.00000
      934.000      993.000      139.596      367.476      1137.91      3926.40      22103.4          NaN     -1.00000
      53.0000      501.000      80.8288      400.325      1242.77      3869.67      22082.8      46527.4     -1.00000
      204.000      24.0000      39.5642      310.915      1212.85      3548.75      22500.8      46229.6     -1.00000
      833.000      676.000      151.016      265.288      698.583      2075.89      21912.1      46541.7     -1.00000
      734.000      62.0000     -11.3896      411.068      1356.75      4302.46      22794.3      46197.3     -1.00000
      397.000      374.000      89.0742      402.515      1346.32      4260.49      22835.4      46190.6     -1.00000
      894.000      576.000      112.077      363.246      1248.90      4101.51      22573.2      46185.3     -1.00000
      573.000      498.000      57.5141      419.573      1308.14      4222.97      22857.8      46107.2     -1.00000
      673.000      38.0000      26.4920      393.383      1356.59      4254.99      22456.0      45812.5     -1.00000
      436.000      910.000      165.228      342.811      1130.84      3992.23      22081.9      45995.2     -1.00000
      160.000      554.000      82.1955      392.938      1220.77      4107.24      22199.1      45729.8     -1.00000
      961.000      252.000      36.7732      393.621      1311.40      4106.19      22132.6      45582.5     -1.00000
      313.000      809.000      156.123      451.336      1385.06      4301.23      22947.1      45785.2     -1.00000
      38.0000      338.000      75.7594      473.392      1468.37      4583.04      23852.2      45535.5     -1.00000
      655.000      969.000      198.639      381.990      1120.88      3664.49      21639.5          NaN     -1.00000
      164.000      894.000      174.449      410.182      1316.79      4290.70      23430.5      45609.8     -1.00000
      626.000      890.000      165.346      373.622      1134.84      3812.96      22500.1      45566.9     -1.00000
      383.000      257.000      69.6404      395.416      1242.84      4147.12      22503.2      45127.0     -1.00000
      619.000      494.000      79.9104      396.462      1294.90      4334.43      22893.6      45177.6     -1.00000
      888.000      368.000      42.2997      380.774      1149.22      3944.20      22087.5      45034.6     -1.00000
      648.000      532.000      86.3805      156.202      309.780      564.977      1384.10      45014.3     -1.00000
      693.000      648.000      117.394      319.367      1066.62      3570.24      20945.1      44944.6     -1.00000
      62.0000      367.000      25.6815      409.167      1265.30      4095.77      22086.2      44781.1     -1.00000
      803.000      678.000      112.075      358.486      1059.04      3308.33      20030.4      43764.4     -1.00000
      524.000      212.000      13.4594      424.987      1437.46      4570.05      23316.5      44530.5     -1.00000
      358.000      224.000      20.9038      238.486      774.335      2499.52      16671.9      44403.0     -1.00000
      472.000      475.000      62.4885      366.779      1132.66      3840.03      21650.4      44431.7     -1.00000
      844.000      458.000      78.3593      413.314      1223.38      3847.05      21589.3      44362.3     -1.00000
      582.000      354.000      34.4593      380.086      1242.86      3964.61      21668.6      44120.1     -1.00000
      1002.00      785.000      121.853      371.047      1167.65      3851.30      21593.1      44118.8     -1.00000
      249.000      519.000      88.5337      397.444      1298.71      4177.57      22297.4      43974.2     -1.00000
      994.000      577.000      96.7064      353.146      1164.87      3908.79      21844.8      43607.4     -1.00000
      22.0000      494.000      63.8777      388.351      1133.25      3589.32      20541.8      43514.8     -1.00000
      856.000      763.000      116.598      364.668      1058.83      3653.14      21478.5      43603.7     -1.00000
      330.000      298.000      36.7510      379.006      1358.06      4097.24      21630.9      43314.4     -1.00000
      751.000      766.000      138.169      369.403      1096.72      3747.22      20979.4      43379.2     -1.00000
      23.0000      356.000      45.7127      392.595      1260.94      4192.87      21421.5      43006.9     -1.00000
      536.000      286.000      4.48342      394.368      1282.52      4038.57      21801.2      42971.8     -1.00000
      897.000      560.000      96.3894      410.969      1219.53      3905.90      21307.9      42941.0     -1.00000
      474.000      539.000      86.5160      380.260      1242.53      3900.71      21080.6      42808.5     -1.00000
      746.000      648.000      112.980      376.592      1074.31      3562.92      20201.6      42853.9     -1.00000
      283.000      219.000      38.1173      366.858      1114.98      3662.60      20429.4      42653.8     -1.00000
      663.000      668.000      128.121      431.425      1237.80      4063.83      21654.1      42511.2     -1.00000
      417.000      397.000      35.5668      429.536      1282.40      4132.63      21698.1      42363.8     -1.00000
      586.000      158.000      9.40038      390.819      1233.60      3876.32      20672.3      42109.9     -1.00000
      833.000      327.000      56.9180      42.9199      150.250      237.139      641.884      42020.3     -1.00000
      373.000      677.000      117.215      358.389      1130.09      3585.41      20319.4      42136.3     -1.00000
      377.000      252.000      23.9086      399.939      1244.95      3840.94      20788.6      41927.6     -1.00000
      705.000      439.000      54.5585      414.641      1152.10      3760.96      20447.1      41884.0     -1.00000
      505.000      972.000      170.845      344.147      1038.61      3250.92      19880.4          NaN     -1.00000
      785.000      438.000      40.9312      349.289      1046.13      3397.06      19316.7      41555.3     -1.00000
      842.000      713.000      137.654      176.496      283.572      503.962      1311.83      41908.5     -1.00000
      914.000      523.000      94.1910      360.453      1123.68      3659.60      20488.7      41804.2     -1.00000
      719.000      114.000      11.0886      447.917      1415.16      4521.35      22146.3      41482.1     -1.00000
      125.000      390.000     -2.93521      367.584      1074.98      3626.83      19949.1      41293.1     -1.00000
      939.000      660.000      104.860      316.200      1041.24      3530.87      20420.7      41397.6     -1.00000
      947.000      52.0000      36.4877      40.9128      106.272      184.490      477.824      40949.3     -1.00000
      672.000      145.000      57.9426      381.122      1142.67      3732.12      19712.7      40856.7     -1.00000
      403.000      37.0000      24.1610      295.440      945.166      3291.46      19116.3      41361.4     -1.00000
      849.000      118.000      24.3077      349.183      1107.53      3607.04      19669.6      40796.4     -1.00000
      196.000      949.000      176.126      313.547      969.914      3345.27      19697.2      40883.6     -1.00000
      802.000      375.000      10.6351      380.002      1121.15      3622.32      19697.1      40564.1     -1.00000
      85.0000      62.0000      33.1219      341.576      1107.34      3527.73      19252.5      40376.4     -1.00000
      780.000      518.000      87.7949      382.080      1146.51      3737.22      20114.7      40553.8     -1.00000
      864.000      864.000      148.238      341.581      1107.85      3513.88      19947.9      40668.4     -1.00000
      438.000      617.000      117.360      391.399      1062.39      3554.78      19489.4      40389.8     -1.00000
      536.000      746.000      130.835      349.073      1079.40      3311.77      19123.1      40286.6     -1.00000
      340.000      336.000      31.6163      369.444      1117.89      3499.74      18937.0      39997.7     -1.00000
      683.000      788.000      144.134      333.978      1015.00      3243.09      18668.8      40121.1     -1.00000
      389.000      1000.00      168.337      366.011      986.357      3241.16      18954.5          NaN     -1.00000
      661.000      848.000      149.557      336.244      1025.37      3322.11      19222.5      40051.6     -1.00000
      168.000      603.000      80.4971      375.187      1118.37      3684.24      20450.9      39875.5     -1.00000
      572.000      255.000      4.59805      477.873      1640.10      5021.76      22954.4      39723.5     -1.00000
      408.000      578.000      114.154      382.959      1080.38      3381.16      19320.8      39770.8     -1.00000
      456.000      288.000      62.1459      375.701      1207.74      4094.04      20668.9      39603.4     -1.00000
      896.000      73.0000      28.2160      323.915      1097.66      3530.90      19524.1      39456.0     -1.00000
      333.000      596.000      99.8279      388.432      1139.79      3663.80      20206.5      39639.9     -1.00000
      38.0000      370.000      27.0823      372.918      1135.90      3615.30      19325.6      39531.9     -1.00000
      549.000      715.000      126.667      381.580      1142.80      3554.14      19573.0      39590.3     -1.00000
      893.000      627.000      100.708      178.846      879.701      4257.39      13826.4      39417.3     -1.00000
      482.000      595.000      114.829      311.526      1004.84      3348.75      18904.6      39161.1     -1.00000
      181.000      101.000      7.34108      389.065      1296.18      4035.72      20246.8      38775.9     -1.00000
      1002.00      688.000      102.039      866.003      3135.63      9310.12      28627.3      38915.6     -1.00000
      496.000      782.000      140.910      336.331      998.333      3213.62      18455.7      38901.8     -1.00000
      449.000      680.000      122.373      310.678      932.947      3144.10      18345.3      38557.4     -1.00000
      464.000      883.000      184.667      346.980      971.183      3261.65      18820.7      38628.2     -1.00000
      734.000      477.000      51.9467      361.935      1032.77      3414.56      18759.7      38300.7     -1.00000
      653.000      939.000      150.708      371.271      1075.62      3412.71      19113.0      38370.8     -1.00000
      688.000      996.000      170.367      339.313      998.151      3175.21      18135.1          NaN     -1.00000
      515.000      915.000      165.300      349.012      1016.66      3356.43      18522.3      38350.3     -1.00000
      1011.00      303.000      67.4086      321.458      953.057      3188.89      17820.6      38081.3     -1.00000
      364.000      114.000     0.939208      395.334      1267.66      3870.93      19741.5      37995.1     -1.00000
      487.000      919.000      174.241      313.919      919.826      2931.02      17738.8      38090.9     -1.00000
      574.000      827.000      157.357      319.053      996.011      3053.77      17760.9      38005.4     -1.00000
      648.000      629.000      108.724      347.511      1062.35      3337.87      18557.7      37911.6     -1.00000
      615.000      147.000     -15.8323      331.314      1095.00      3617.96      18842.0      37703.9     -1.00000
      515.000      290.000      12.5953      425.252      1424.82      4685.47      19702.8      39746.7     -1.00000
      582.000      882.000      153.298      314.417      903.995      2821.50      20897.9      37816.9     -1.00000
      811.000      215.000     -16.8108      333.240      1070.90      3382.57      18796.1      37440.5     -1.00000
      498.000      299.000      37.0182      340.093      973.924      3154.21      17661.5      37449.4     -1.00000
      535.000      689.000      123.419      359.317      1108.37      3476.34      18808.4      37603.3     -1.00000
      72.0000      429.000      50.3142      338.840      1049.22      3349.71      18158.8      37399.5     -1.00000
      717.000      385.000      20.0420      338.208      955.642      3144.78      17513.4      37286.6     -1.00000
      371.000      307.000      63.4296      316.925      974.810      3232.58      17919.1      37118.4     -1.00000
      1007.00      848.000      133.706      304.758      939.718      2909.63      17447.1      37247.0     -1.00000
      740.000      184.000      18.1512      351.056      1069.30      3437.01      18150.1      36975.1     -1.00000
      1003.00      454.000      40.8104      347.374      1104.65      3483.56      19113.8      37066.4     -1.00000
      793.000      110.000      14.7735      354.744      1132.53      3552.49      18797.4      36898.9     -1.00000
      669.000      867.000      169.483      342.899      980.790      3321.73      18495.3      37173.7     -1.00000
      987.000      41.0000      11.5783      296.119      988.241      3094.64      17138.2      36715.3     -1.00000
      306.000      131.000      32.0055      329.965      1038.07      3200.38      17681.5      36722.3     -1.00000
      876.000      717.000      130.817      312.171      956.435      3146.57      17863.4      36949.8     -1.00000
      339.000      709.000      136.703      358.446      1048.81      3395.00      18025.2      36789.9     -1.00000
      612.000      670.000      146.085      313.018      920.521      3053.61      17340.0      36712.1     -1.00000
      1.00000      565.000      101.090      371.573      1150.95      3714.57      19173.6      36669.3     -1.00000
      553.000      1019.00      169.084      300.037      844.440      2879.73      17394.6          NaN     -1.00000
      335.000      344.000      41.7536      355.805      1100.19      3495.61      18459.2      36453.8     -1.00000
      537.000      256.000      33.1508      330.273      1021.21      3262.34      17873.1      36406.0     -1.00000
      590.000      970.000      185.877      321.190      857.717      2809.87      17315.6          NaN     -1.00000
      773.000      74.0000      13.5517      316.036      1059.10      3364.00      17783.5      36295.8     -1.00000
      2.00000      121.000      36.2352      528.069      1704.28      5397.34      19648.2      36245.3     -1.00000
      795.000      138.000      16.3458      349.022      1093.74      3548.15      18142.4      36211.5     -1.00000
      942.000      660.000      117.548      281.883      964.937      2986.07      17366.7      36392.4     -1.00000
      760.000      189.000      69.4896      306.705      1032.45      3153.34      17337.0      36191.1     -1.00000
      603.000      359.000      23.7860      284.089      931.199      2939.15      16799.3      36084.1     -1.00000
      658.000      605.000      91.0064      282.701      893.959      2879.28      16538.5      36108.0     -1.00000
      35.0000      313.000     -9.66706      404.343      1167.10      3463.09      18419.2      35769.0     -1.00000
      806.000      942.000      190.481      315.122      844.857      2648.75      16820.9      35977.6     -1.00000
      876.000      0.00000     -1.55309      324.465      1060.62      3215.78      17111.4      35393.0     -1.00000
      825.000      762.000      133.852      306.060      927.093      2848.11      16705.3      35660.2     -1.00000
      194.000      921.000      164.058      340.121      972.046      3261.52      18399.0      35686.8     -1.00000
      203.000      156.000      36.1768      276.815      1028.91      3093.11      16996.4      35373.3     -1.00000
      98.0000      934.000      166.127      319.315      933.717      3130.78      17830.2      35621.6     -1.00000
      792.000      1008.00      251.819      590.020      1038.33      1573.25      16754.4          NaN     -1.00000
      710.000      19.0000      13.3339      312.308      1038.91      3262.75      17152.9      34863.8     -1.00000
      991.000      306.000      37.7723      302.925      946.248      3044.82      16875.5      34776.8     -1.00000
      416.000      834.000      153.413      320.883      869.689      2725.14      16465.1      34925.7     -1.00000
      822.000      465.000      55.4667      316.838      953.901      3114.63      16712.4      34773.7     -1.00000
      229.000      941.000      185.724      325.510      816.167      2795.84      16464.5      34857.6     -1.00000
      1.00000      475.000      52.0129      298.625      908.427      3655.48      18903.0      34644.3     -1.00000
      280.000      597.000      110.358      305.482      965.122      3078.94      16836.1      34677.9     -1.00000
      777.000      947.000      169.137      363.240      995.529      2856.33      16219.8      34742.0     -1.00000
      227.000      720.000      140.102      283.737      823.004      2558.13      15069.8      33269.0     -1.00000
      193.000      502.000      70.4513      303.704      916.999      2894.55      16551.4      34566.3     -1.00000
      453.000      804.000      153.558      296.578      872.891      2901.53      16781.2      34653.2     -1.00000
      382.000      814.000      144.844      328.167      882.987      2711.63      16512.7      34431.4     -1.00000
      64.0000      676.000      354.269      314.158      932.073      2896.51      16585.9      34359.6     -1.00000
      267.000      6.00000      11.8895      278.537      960.140      3127.94      16621.3      34104.9     -1.00000
      738.000      231.000      34.0723      304.256      956.203      2981.79      16593.0      34119.9     -1.00000
      657.000      33.0000     -39.3307      342.521      1041.51      3259.37      16688.8      33785.9     -1.00000
      158.000      413.000      16.3744      338.600      995.875      3027.97      16562.2      33901.5     -1.00000
      589.000      648.000      117.394      348.478      971.798      3024.76      16511.9      33964.1     -1.00000
      533.000      948.000      208.231      326.813      982.599      2979.67      17188.4      34051.2     -1.00000
      651.000      352.000      60.6870      285.380      923.162      2992.31      16451.5      33732.1     -1.00000
      742.000      246.000     -5.86997      289.950      968.797      2920.39      16080.0      33633.2     -1.00000
      549.000      500.000      65.6564      312.911      913.858      2781.30      16010.9      33690.6     -1.00000
      947.000      587.000      84.0359      302.419      895.251      2735.47      15513.2      33442.2     -1.00000
      669.000      1020.00      158.149      280.805      805.018      2579.88      16004.4          NaN     -1.00000
      640.000      724.000      132.140      308.764      911.078      2693.12      15969.4      33665.4     -1.00000
      202.000      892.000      160.062      351.115      925.277      2938.84      16719.3      33677.7     -1.00000
      695.000      759.000      146.388      299.494      857.130      2717.94      15597.3      33506.0     -1.00000
      491.000      212.000     -3.76509      301.633      952.838      3008.39      15981.3      33227.1     -1.00000
      54.0000      102.000      16.3820      344.899      990.777      3203.85      16656.7      33164.2     -1.00000
      752.000      617.000      117.360      285.681      860.971      2953.45      15999.1      33321.3     -1.00000
      783.000      105.000      35.5439      292.309      927.431      2952.86      16069.0      33121.4     -1.00000
      835.000      717.000      129.477      320.018      898.666      2843.28      16168.6      33133.2     -1.00000
      67.0000      630.000      100.444      283.783      821.761      2662.51      15452.3      33064.3     -1.00000
      169.000      539.000      79.1360      331.916      936.689      2866.64      16213.7      33030.0     -1.00000
      246.000      899.000      166.873      320.054      820.740      2470.95      14872.1      33108.3     -1.00000
      261.000      330.000      47.4036      304.139      923.477      2761.66      15706.6      32815.2     -1.00000
      872.000      573.000      84.0594      318.733      872.560      2754.84      16002.3      32853.2     -1.00000
      364.000      221.000    -0.653986      303.376      889.129      2817.31      15476.8      32701.3     -1.00000
      802.000      772.000      132.798      312.164      1013.67      2948.70      16411.4      32891.4     -1.00000
      337.000      35.0000      28.4851      298.942      960.395      3034.38      15900.4      32475.5     -1.00000
      78.0000      397.000      28.4051      297.093      881.164      2614.75      14249.3      30217.3     -1.00000
      338.000      279.000      69.6201      368.601      1085.30      3462.49      17210.0      32525.2     -1.00000
      554.000      313.000      85.7360      319.939      952.600      2913.63      15694.0      32513.5     -1.00000
      134.000      531.000      92.9425      253.591      809.099      2651.02      15521.1      32477.6     -1.00000
      458.000      135.000     -7.23191      232.232      735.983      2961.92      15564.0      32312.6     -1.00000
      112.000      531.000      66.7034      315.603      888.318      2824.43      15730.6      32423.3     -1.00000
      103.000      37.0000      29.4089      274.007      877.246      2678.26      14875.3      31721.2     -1.00000
      518.000      857.000      163.487      72.8365      131.465      230.910      1702.02      32465.3     -1.00000
      620.000      217.000      31.0676      259.130      899.430      2865.85      15389.5      32224.5     -1.00000
      671.000      581.000      110.895      308.219      901.419      2874.68      15726.8      32295.6     -1.00000
      104.000      128.000      7.05040      351.392      924.466      2825.06      15188.5      32015.0     -1.00000
      586.000      618.000      108.406      296.985      796.248      2609.20      15143.3      32044.1     -1.00000
      213.000      47.0000     -22.1931      316.781      904.099      2931.33      15520.5      31821.0     -1.00000
      440.000      500.000      76.9591      318.006      936.005      2933.65      15860.2      31972.8     -1.00000
      538.000      1018.00      222.277      296.444      752.353      2495.47      15177.7          NaN     -1.00000
      590.000      545.000      78.9128      298.251      884.344      2801.19      15626.6      31903.3     -1.00000
      729.000      676.000      124.777      311.664      840.200      2665.31      14867.1      31899.2     -1.00000
      732.000      346.000      28.8793      344.394      1004.15      3042.57      15432.9      31798.0     -1.00000
      1008.00      157.000      49.7070      256.057      891.611      2686.14      14918.6      31718.5     -1.00000
      78.0000      372.000      68.9139      298.890      894.260      2780.62      15205.8      31724.4     -1.00000
      906.000      836.000      153.925      266.830      838.802      2581.84      14826.3      31873.2     -1.00000
      736.000      479.000      60.2880      278.330      853.948      2680.65      15201.3      31698.2     -1.00000
      127.000      884.000      201.597      306.375      790.889      2404.66      14851.3      31804.2     -1.00000
      299.000      367.000     -5.80540      283.219      814.657      2608.84      14846.2      31617.5     -1.00000
      526.000      583.000      114.466      328.423      950.611      2882.22      15274.2      31629.5     -1.00000
      644.000      586.000      116.284      284.382      802.883      2545.56      14571.1      31625.1     -1.00000
      567.000      595.000      93.8374      275.496      801.653      2433.40      14732.9      31611.6     -1.00000
      618.000      559.000      85.4165      306.590      871.216      2737.18      15662.4      31499.2     -1.00000
      603.000      145.000      5.46452      297.157      934.170      2928.02      15470.2      31344.4     -1.00000
      599.000      149.000      47.4056      305.349      925.264      2880.85      15214.6      31282.3     -1.00000
      84.0000      903.000      151.539      263.418      785.730      2475.85      14379.6      31519.9     -1.00000
      808.000      793.000      135.795      302.747      852.420      2771.87      15879.0      31480.6     -1.00000
      354.000      280.000      53.1796      275.443      828.582      2620.68      14631.4      31274.5     -1.00000
      704.000      599.000      101.135      332.489      858.158      2777.50      15247.2      31378.2     -1.00000
      742.000      390.000      10.8256      354.978      1142.97      3609.99      17971.8      31307.4     -1.00000
      604.000      268.000      62.4934      277.363      858.432      2685.69      14816.6      31199.2     -1.00000
      282.000      969.000      205.478      273.445      806.316      2505.62      14844.1          NaN     -1.00000
      433.000      445.000      35.9752      265.743      773.244      2279.26      12226.6      31217.6     -1.00000
      597.000      83.0000     -16.5145      230.571      851.372      2554.39      14206.8      30261.9     -1.00000
      909.000      125.000      13.6193      276.363      854.766      2691.47      14709.7      30961.2     -1.00000
      145.000      302.000      14.3774      276.303      891.885      2706.24      14999.9      31000.0     -1.00000
      917.000      320.000      45.1943      265.843      860.920      2700.16      15001.6      30982.9     -1.00000
      147.000      807.000      141.596      289.546      786.941      2340.60      13621.5      29922.9     -1.00000
      149.000      759.000      156.519      337.857      829.111      2623.02      15467.7      31040.8     -1.00000
      75.0000      895.000      149.798      261.116      781.862      2479.64      14799.2      31027.3     -1.00000
      71.0000      531.000      75.5456      275.192      801.885      2415.64      13361.0      28361.7     -1.00000
      372.000      917.000      226.572      293.066      922.971      2927.94      14603.4      30908.8     -1.00000
      425.000      364.000      4.83936      312.586      888.178      2673.26      14834.6      30696.5     -1.00000
      694.000      40.0000      44.3179      302.921      871.755      2780.08      15004.5      30538.6     -1.00000
      722.000      636.000      88.2112      149.580      536.921      2320.65      12973.0      30723.5     -1.00000
