PDS_VERSION_ID         = PDS3
RECORD_TYPE            = STREAM
OBJECT                 = TEXT
  PUBLICATION_DATE     = 2014-02-19
  INTERCHANGE_FORMAT   = ASCII
  NOTE                 = "WAC hot pixel file for epoch 2008.5."
END_OBJECT             = TEXT
END

WAC hot pixel list. Lines 1 and 2 are column headings giving exposure time 
(sec) and gain state (e-/DN), respectively, of source dark images. Starting 
on line 3, first two columns indicate x and y value of hot pixel; columns 3 
through N-1 give median electron counts for each exposure bin, and last (Nth) 
column contains either the index of the exposure bin where saturation first 
occurs, or -1 if no saturation.

\begindata
      0.00000      0.00000      0.00000      10.0000      32.0000      100.000      560.000      1200.00
      0.00000      0.00000      11.7270      11.7270      27.6800      27.6800      27.6800      27.6800
      518.000      858.000      251.835      11228.5      35608.5      98121.0      111354.      111356.      4.00000
      554.000      174.000      149.176      12809.0      38398.2      98116.9      111345.      111350.      4.00000
      833.000      328.000      128.361      13525.9      40333.7      98313.1      111354.      111351.      4.00000
      792.000      1007.00      295.902      13037.6      39065.1      96644.6      111354.      111353.      4.00000
      577.000      598.000      173.811      6264.24      20353.2      58587.0      111355.      111353.      4.00000
      685.000      585.000      171.351      7413.38      22454.1      56634.8      111340.      111348.      4.00000
      259.000      132.000      86.5867      5715.41      18132.0      52200.1      111347.      111347.      4.00000
      561.000      116.000      77.0267      6098.77      18686.2      50218.9      111345.      111346.      4.00000
      962.000      403.000      78.1050      5274.19      16580.7      45950.6      111348.      111351.      4.00000
      162.000      1018.00      229.266      4009.60      13945.6      41884.9      111352.      111347.      4.00000
      947.000      51.0000      52.8375      3813.61      12148.7      36637.4      111349.      111350.      4.00000
      365.000      612.000      150.252      3283.91      11023.5      33042.0      111359.      111352.      4.00000
      224.000      420.000      99.2424      2944.26      9833.40      30219.9      111349.      111352.      4.00000
      906.000      454.000      89.9883      2979.39      9570.23      28943.8      111345.      111346.      4.00000
      945.000      87.0000      19.5479      749.299      2370.96      25005.9      105124.      73826.0     -1.00000
      518.000      859.000      217.411      312.823      584.571      1057.84      95269.4      111355.      5.00000
      9.00000      297.000      87.4926      3173.11      10157.9      30409.8      108721.      111343.      5.00000
      971.000      821.000      181.235      2341.51      7881.66      24046.8      103713.      111354.      5.00000
      666.000      481.000      86.3176      2984.52      9693.97      28358.9      105204.      111359.      5.00000
      615.000      629.000      135.100      2208.00      7420.17      23271.1      102105.      111355.      5.00000
      119.000      316.000      69.0219      3144.77      9797.72      28314.7      104403.      111351.      5.00000
      54.0000      76.0000      47.2606      2912.00      9138.06      26270.5      100275.      111345.      5.00000
      826.000      799.000      169.671      2428.42      8048.44      24512.4      98843.8      111356.      5.00000
      707.000      655.000      146.796      2792.82      9143.83      27309.7      98558.6      111345.      5.00000
      281.000      753.000      172.376      3030.69      10068.7      29538.9      98200.1      111345.      5.00000
      640.000      997.000      276.041      6324.43      21056.4      30844.0      111351.      111346.      4.00000
      675.000      929.000      205.770      1958.89      6649.27      20295.2      88880.3      111351.      5.00000
      787.000      651.000      154.896      2041.34      6661.67      19706.5      88106.4      111358.      5.00000
      662.000      623.000      138.695      1532.67      5009.31      15869.5      84496.0      111349.      5.00000
      630.000      1000.00      212.489      1937.12      6393.55      19797.1      86098.2      111343.      5.00000
      775.000      945.000      189.498      1920.75      6254.33      19665.3      85948.8      111349.      5.00000
      842.000      712.000      151.859      1530.15      4928.39      15598.0      81787.9      111350.      5.00000
      570.000      705.000      146.049      1656.97      5591.87      17383.8      83421.2      111356.      5.00000
      1007.00      108.000      35.6530      1994.89      6288.48      19196.4      80935.3      111343.      5.00000
      898.000      537.000      101.053      1685.13      5676.22      17516.0      79547.6      111355.      5.00000
      78.0000      277.000      69.5624      1823.17      5849.27      17792.8      78026.9      111351.      5.00000
      950.000      163.000      27.8402      1529.61      4918.39      15058.9      76725.5      111353.      5.00000
      27.0000      157.000      53.6015      1712.51      5455.67      16609.8      78099.9      111348.      5.00000
      518.000      314.000      62.1666      1751.76      5675.08      16919.2      75608.6      111350.      5.00000
      196.000      915.000      176.399      1504.87      4953.97      15996.3      75758.0      111354.      5.00000
      385.000      611.000      107.624      1821.22      5981.25      17847.0      74900.4      111349.      5.00000
      176.000      663.000      118.249      1353.07      4467.22      13839.1      70664.5      111349.      5.00000
      293.000      642.000      145.587      1535.14      5011.76      15600.4      69795.8      111345.      5.00000
      822.000      465.000      98.7851      1468.54      4754.86      14735.0      70002.7      111350.      5.00000
      554.000      175.000      46.7927      122.245      249.079      381.902      58210.9      111351.      5.00000
      569.000      760.000      155.147      1524.56      4906.75      15028.1      67030.6      110887.      5.00000
      378.000      87.0000      43.0018      1662.25      5311.70      15860.3      68836.6      111350.      5.00000
      139.000      210.000      35.2677      1586.88      4929.80      14833.2      67119.9      111345.      5.00000
      631.000      4.00000      22.0177      1500.34      4514.99      13620.1      65206.8      111348.      5.00000
      625.000      654.000      135.971      1329.80      4422.92      13803.7      65311.9      111035.      5.00000
      675.000      260.000      51.1499      1320.25      4376.11      13270.3      63551.1      110049.      5.00000
      372.000      333.000      36.0865      1145.43      3595.18      11333.3      61502.9      111347.      5.00000
      91.0000      394.000      63.6636      1178.33      3713.04      11590.8      60667.1      109662.      5.00000
      1000.00      61.0000      30.9881      1190.01      3851.42      10438.8      59412.8      111339.      5.00000
      268.000      77.0000      39.2488      2341.79      7049.50      20015.4      72067.9      107081.     -1.00000
      788.000      101.000      18.3067      1242.75      4001.80      12305.8      60221.0      106724.     -1.00000
      714.000      257.000      32.2808      1077.34      3529.62      10989.1      57019.7      106376.     -1.00000
      131.000      429.000      82.1479      1231.25      3904.34      12125.4      59205.8      106227.     -1.00000
      31.0000      908.000      157.938      1543.36      4982.52      15945.2      73411.9      106692.     -1.00000
      856.000      823.000      164.331      1278.02      4460.08      14531.6      64204.9      106225.     -1.00000
      982.000      15.0000      31.8833      1395.07      4218.33      12539.2      58825.2      104978.     -1.00000
      547.000      370.000      30.0406      1645.64      5174.27      15633.0      65716.8      105182.     -1.00000
      996.000      243.000      30.2357      1368.78      4344.74      13311.3      60799.4      103898.     -1.00000
      198.000      682.000      142.819      2313.51      7342.38      21064.0      72630.6      103291.     -1.00000
      378.000      741.000      182.783      1149.91      3794.27      11901.2      57925.1      102006.     -1.00000
      300.000      655.000      143.381      1283.05      4133.82      12757.1      63100.5      101778.     -1.00000
      348.000      584.000      96.6108      948.530      3068.81      9498.72      51042.8      101585.     -1.00000
      590.000      545.000      116.860      1448.17      4623.39      13776.5      61022.9      100426.     -1.00000
      270.000      26.0000      7.15784      1067.69      3513.73      10849.1      54193.1      99861.1     -1.00000
      679.000      128.000      40.2508      1179.11      3849.28      12120.0      57035.5      98915.4     -1.00000
      705.000      195.000      65.3221      1252.25      3873.50      11703.7      55183.2      98205.5     -1.00000
      204.000      490.000      88.1723      1297.39      4159.14      12528.2      56794.7      97079.0     -1.00000
      44.0000      6.00000     0.297433      1172.77      3627.85      11051.9      52861.1      95206.4     -1.00000
      519.000      951.000      215.797      1011.27      3289.22      10309.3      51850.4      95623.9     -1.00000
      718.000      160.000      53.1697      959.675      3133.23      9651.17      49895.7      93003.1     -1.00000
      107.000      183.000      63.6779      1186.50      3702.91      11235.4      52983.0      93017.4     -1.00000
      169.000      539.000      107.767      1014.83      3243.06      10071.9      50711.0      93103.9     -1.00000
      83.0000      346.000      55.2903      1395.76      4266.92      9819.11      49959.0      92527.8     -1.00000
      382.000      814.000      153.321      1003.09      3402.40      10984.0      52870.2      91476.6     -1.00000
      999.000      454.000      45.9890      810.266      2622.00      8141.84      43917.3      88259.4     -1.00000
      208.000      776.000      152.634      1027.29      3106.05      9682.56      47604.0      88215.5     -1.00000
      258.000      770.000      152.534      1219.32      3992.79      12172.4      53447.8      87547.9     -1.00000
      339.000      693.000      158.740      995.042      3137.46      9871.73      48489.6      86591.1     -1.00000
      117.000      400.000      62.8904      852.174      2793.02      8632.49      45024.7      85694.4     -1.00000
      776.000      274.000      61.5050      868.734      2651.22      8069.71      42267.7      85490.0     -1.00000
      349.000      949.000      186.586      945.399      3118.11      9680.03      47880.3      86010.4     -1.00000
      95.0000      485.000      60.0436      843.414      2630.02      8210.36      42977.0      84996.1     -1.00000
      689.000      775.000      161.494      774.844      2529.75      7910.85      42881.9      85156.4     -1.00000
      911.000      112.000      40.6259      771.029      2458.26      7612.08      40926.2      84253.3     -1.00000
      996.000      806.000      127.627      778.962      2549.35      7927.88      42587.0      83188.5     -1.00000
      631.000      32.0000      24.4498      1079.17      3226.24      9825.64      46972.0      82411.9     -1.00000
      640.000      998.000      200.829      237.129      434.231      584.631      1347.94      82385.1     -1.00000
      762.000      536.000      92.3827      952.551      3266.16      10169.5      46026.0      81298.2     -1.00000
      602.000      231.000      57.6592      903.735      2739.26      8210.42      42095.8      80457.3     -1.00000
      476.000      192.000      45.9656      878.297      2718.95      8382.84      41944.7      80096.5     -1.00000
      426.000      434.000      51.1807      764.710      2264.70      7197.87      39680.6      80133.9     -1.00000
      971.000      699.000      110.790      770.646      2475.97      7842.27      42103.3      80289.9     -1.00000
      719.000      37.0000      9.42376      816.293      2539.51      7617.24      40136.0      78740.8     -1.00000
      845.000      827.000      150.500      783.020      2525.02      8113.19      42926.6      79375.3     -1.00000
      293.000      379.000      60.9788      921.959      3010.45      9136.20      44168.6      78702.8     -1.00000
      193.000      706.000      135.856      785.346      2538.65      7836.08      41299.9      78672.8     -1.00000
      860.000      925.000      165.939      812.043      2609.22      8301.98      42134.0      78184.1     -1.00000
      911.000      478.000      64.5118      855.090      2769.02      8386.41      41902.4      76979.9     -1.00000
      518.000      857.000      190.252      107.549      189.750      272.354      13983.1      77074.0     -1.00000
      486.000      353.000      66.3829      882.987      2739.38      8189.16      40797.1      76558.0     -1.00000
      828.000      871.000      182.879      809.977      2557.28      7859.07      40382.5      76368.5     -1.00000
      640.000      996.000      191.465      104.275      196.436      261.175      392.724      76300.2     -1.00000
      57.0000      393.000      73.7840      833.445      2624.30      8025.20      40759.2      75667.6     -1.00000
      113.000      103.000      25.6280      896.386      2860.38      8494.87      40050.7      72736.6     -1.00000
      298.000      451.000      37.4199      866.086      2698.72      8328.67      40709.9      72796.6     -1.00000
      577.000      599.000      148.590      166.311      339.016      584.737      5740.50      72768.1     -1.00000
      264.000      275.000      56.5664      928.474      2766.51      8611.85      40954.5      72460.6     -1.00000
      668.000      920.000      150.451      700.014      2234.58      7487.15      39020.1      72453.9     -1.00000
      813.000      18.0000     -3.59940      838.576      2572.60      7837.03      38577.8      71300.8     -1.00000
      894.000      781.000      156.565      801.785      2396.68      7534.92      38307.2      71169.7     -1.00000
      626.000      890.000      179.538      733.266      2182.71      7013.22      37506.5      71167.9     -1.00000
      812.000      397.000      45.3907      754.406      2320.37      7225.01      37045.7      70656.4     -1.00000
      899.000      837.000      165.920      681.853      2184.29      6711.12      36036.5      70916.9     -1.00000
      358.000      225.000      57.1891      677.753      2053.65      6282.34      34378.2      70309.3     -1.00000
      880.000      959.000      166.131      613.135      1866.70      5912.27      33698.3      70467.0     -1.00000
      449.000      291.000      50.9552      767.465      2496.27      7443.54      37175.9      69638.5     -1.00000
      750.000      336.000      17.9702      715.431      2296.13      7113.34      36693.6      69422.9     -1.00000
      1002.00      695.000      116.634      730.768      2293.75      7073.65      36096.6      69655.4     -1.00000
      833.000      329.000      45.3433      221.003      380.736      610.745      35094.1      69147.3     -1.00000
      377.000      252.000      51.5502      740.061      2299.08      6938.83      35606.4      68636.4     -1.00000
      497.000      390.000      57.3618      791.799      2376.87      7529.90      37175.3      68641.0     -1.00000
      97.0000      627.000      98.1323      781.803      2411.18      7266.32      36917.8      68500.0     -1.00000
      149.000      763.000      142.361      791.998      2669.49      7031.94      35626.6      67997.8     -1.00000
      75.0000      421.000      41.9840      729.998      2240.99      6610.91      34898.0      67402.6     -1.00000
      585.000      354.000      72.9656      630.452      1963.47      6142.93      33236.4      67307.3     -1.00000
      554.000      173.000      38.4139      61.4492      169.099      273.972      6220.12      67038.4     -1.00000
      988.000      777.000      108.658      564.550      1802.98      5510.86      31194.2      66725.0     -1.00000
      333.000      901.000      166.503      621.027      2017.73      6260.80      33455.4      66642.1     -1.00000
      493.000      874.000      190.770      779.963      2407.95      7172.65      35922.5      66366.2     -1.00000
      231.000      20.0000      28.0549      933.868      2764.07      8157.49      37774.5      65682.0     -1.00000
      690.000      144.000      35.9928      851.123      2744.13      8210.03      37508.4      65652.5     -1.00000
      677.000      370.000      65.2915      649.320      1964.40      6110.32      32684.7      65793.4     -1.00000
      431.000      741.000      143.520      703.529      2108.69      6448.78      33593.8      64823.3     -1.00000
      356.000      70.0000      35.6389      690.795      2077.62      6589.20      33660.8      63573.5     -1.00000
      868.000      257.000     -15.3509      605.830      1882.89      5612.90      30731.7      63666.9     -1.00000
      912.000      647.000      127.584      572.580      1837.37      5452.58      30312.8      63737.1     -1.00000
      783.000      337.000      23.6060      665.661      2084.21      6065.64      31595.5      63153.2     -1.00000
      278.000      187.000      19.5008      623.346      1999.78      6085.50      30458.8      62881.7     -1.00000
      1002.00      897.000      162.569      593.276      1946.67      6056.19      33025.7      62966.2     -1.00000
      730.000      825.000      130.105      647.387      1970.49      5945.39      31690.1      62028.1     -1.00000
      909.000      161.000      46.1252      546.965      1903.59      5528.76      30072.1      61305.0     -1.00000
      289.000      420.000      84.4700      758.941      2403.18      7133.44      33981.1      60947.1     -1.00000
      386.000      21.0000      16.3921      648.966      2015.21      6079.64      31374.8      60558.8     -1.00000
      524.000      212.000      37.2971      810.063      2433.95      7212.83      33737.1      59948.8     -1.00000
      990.000      458.000     -1.56772      480.112      1736.97      5313.63      29226.5      59974.9     -1.00000
      683.000      149.000      40.6377      616.339      2044.06      6142.19      30931.9      59758.3     -1.00000
      489.000      675.000      138.756      657.244      2070.96      6369.33      32090.4      60050.3     -1.00000
      991.000      946.000      184.794      593.414      1800.22      5646.39      31322.2      60026.4     -1.00000
      814.000      283.000      43.6963      685.534      2236.55      6613.17      32457.7      59553.2     -1.00000
      888.000      986.000      174.070      585.000      1742.48      5532.25      29729.3      59804.6     -1.00000
      674.000      645.000      127.888      743.150      2297.60      6952.61      34148.6      59252.9     -1.00000
      601.000      457.000      97.0099      606.584      1852.74      5559.93      29176.8      59004.8     -1.00000
      206.000      104.000      34.2097      634.589      1902.35      5714.99      29968.8      58225.5     -1.00000
      503.000      279.000      25.9922      520.359      1682.24      5282.96      28603.9      58231.6     -1.00000
      1014.00      619.000      96.6083      545.779      1694.43      5255.48      28882.3      58146.5     -1.00000
      908.000      592.000      107.065      597.606      1902.19      5893.09      30228.1      57999.4     -1.00000
      178.000      169.000      38.3468      557.916      1741.67      5195.23      27691.0      57644.7     -1.00000
      952.000      695.000      100.418      515.043      1574.38      4970.80      28154.1      57677.3     -1.00000
      694.000      40.0000      26.8910      591.441      1967.46      5549.99      29559.2      57123.0     -1.00000
      213.000      240.000      41.6611      613.678      1908.86      5590.45      28912.2      57125.8     -1.00000
      1012.00      731.000      140.085      569.878      1754.34      5360.57      28609.6      57061.2     -1.00000
      537.000      652.000      124.676      585.080      1744.59      5243.47      28351.1      56916.3     -1.00000
      214.000      936.000      164.227      521.491      1492.58      4696.50      27603.6      56933.5     -1.00000
      922.000      786.000      135.064      505.484      1497.73      4578.10      25439.1      54946.3     -1.00000
      515.000      681.000      130.564      634.307      1907.85      5866.63      29694.2      56370.1     -1.00000
      94.0000      466.000      64.9795      543.933      1746.29      5276.00      28281.1      56129.7     -1.00000
      529.000      804.000      164.414      629.919      1860.49      5609.19      29466.8      56185.6     -1.00000
      800.000      542.000      88.8809      600.399      1858.76      5635.38      28856.3      55952.6     -1.00000
      878.000      293.000      38.6614      600.599      1807.44      5278.63      28012.4      55623.7     -1.00000
      449.000      680.000      155.967      542.269      1693.28      5339.12      28911.3      55848.9     -1.00000
      538.000      317.000      32.8482      624.221      1856.23      5682.67      29116.9      55574.1     -1.00000
      835.000      717.000      148.171      585.728      1769.50      5373.09      28355.9      55689.8     -1.00000
      113.000      618.000      145.520      547.414      1692.39      5119.67      27156.9      55103.2     -1.00000
      223.000      974.000      192.351      574.264      1798.95      5613.83      29385.4      55276.3     -1.00000
      441.000      22.0000    -0.700318      556.733      1606.85      4804.01      25897.2      54548.4     -1.00000
      641.000      14.0000      7.04746      561.311      1823.85      5344.59      27875.9      54461.5     -1.00000
      1022.00      161.000      22.0097      552.430      1792.63      5396.52      27526.3      53775.6     -1.00000
      589.000      469.000      31.2343      594.946      1764.50      5285.76      27525.5      53242.0     -1.00000
      552.000      971.000      175.546      473.867      1389.52      4290.39      24912.5      53391.7     -1.00000
      150.000      648.000      125.136      536.358      1661.71      5091.10      26818.2      53147.0     -1.00000
      460.000      163.000      16.9435      587.674      1637.57      5012.46      26237.8      52533.7     -1.00000
      364.000      114.000      30.0023      858.970      2692.79      7876.77      31960.8      52478.0     -1.00000
      735.000      955.000      184.615      531.058      1684.80      5109.91      27000.6      52541.1     -1.00000
      933.000      495.000      79.0373      512.164      1582.60      4781.07      25597.0      52261.7     -1.00000
      583.000      9.00000      9.02870      491.193      1527.83      4533.33      24796.1      51955.2     -1.00000
      816.000      564.000      97.4313      442.719      1403.27      4238.48      24162.7      51540.2     -1.00000
      896.000      73.0000      26.3677      553.605      1584.22      4899.47      25737.5      51002.5     -1.00000
      597.000      612.000      106.852      656.219      1969.93      5945.67      28592.1      51082.0     -1.00000
      333.000      1021.00      181.534      489.232      1553.16      4844.81      25759.1      51180.9     -1.00000
      995.000      339.000      54.7538      617.289      1782.04      5345.62      27078.4      50692.1     -1.00000
      705.000      439.000      95.3556      545.256      1583.73      4907.95      26007.4      50584.0     -1.00000
      760.000      722.000      120.325      474.260      1456.75      4569.03      24656.8      50455.4     -1.00000
      594.000      989.000      198.244      482.802      1459.42      4515.63      25138.1      50112.2     -1.00000
      148.000      20.0000      26.9291      535.106      1630.38      4666.59      24575.9      49508.6     -1.00000
      506.000      560.000      82.2363      680.994      2274.00      7054.06      33438.8      49671.4     -1.00000
      604.000      268.000      58.7093      511.883      1623.13      4541.34      24819.8      49502.7     -1.00000
      802.000      772.000      135.415      521.859      1632.97      5013.08      26036.6      49716.2     -1.00000
      515.000      977.000      192.761      544.573      1638.43      4944.13      25807.1      49647.9     -1.00000
      87.0000      181.000      40.3528      503.618      1574.88      4733.76      24772.7      49016.9     -1.00000
      164.000      894.000      164.139      519.274      1526.24      4919.28      25475.3      49382.7     -1.00000
      893.000      627.000      104.931      173.466      1420.25      5398.36      26316.0      49067.5     -1.00000
      979.000      968.000      166.105      494.202      1550.03      4896.13      25264.3      49011.2     -1.00000
      971.000      755.000      130.760      465.546      1411.93      4316.08      24107.8      48854.3     -1.00000
      457.000      201.000      31.6231      486.524      1569.72      4560.82      24056.1      48493.6     -1.00000
      1002.00      688.000      99.7868      1581.12      5008.44      13459.6      36939.4      48595.1     -1.00000
      390.000      983.000      213.922      476.744      1449.46      4347.11      24075.4      48712.3     -1.00000
      791.000      327.000      37.5845      505.964      1661.00      4974.64      25148.5      48322.8     -1.00000
      354.000      280.000      64.1240      462.021      1391.74      4177.55      22911.4      48294.5     -1.00000
      524.000      366.000      46.3429      582.766      1587.50      4707.53      24331.6      47900.5     -1.00000
      846.000      830.000      155.015      506.723      1546.16      4643.15      24395.0      47987.7     -1.00000
      528.000      812.000      165.359      517.498      1469.88      4477.35      24048.2      47927.4     -1.00000
      582.000      354.000      2.60390      444.354      1488.79      4428.81      23465.1      47629.3     -1.00000
      246.000      899.000      154.774      503.670      1365.09      4132.66      22951.1      47880.3     -1.00000
      179.000      886.000      177.496      515.403      1524.55      4639.71      24181.9      47650.3     -1.00000
      522.000      40.0000    0.0353034      500.350      1433.73      4324.54      22604.0      47075.7     -1.00000
      693.000      648.000      104.115      501.086      1323.56      4226.03      22691.8      47309.6     -1.00000
      259.000      133.000      46.6163      62.9419      213.197      386.388      1594.95      46786.0     -1.00000
      117.000      372.000      89.2161      410.432      1326.70      4009.71      22026.7      46769.2     -1.00000
      103.000      37.0000      9.42376      389.148      1321.04      4031.21      21876.0      46381.3     -1.00000
      865.000      883.000      155.490      481.417      1381.74      4297.02      23275.4      46776.0     -1.00000
      619.000      494.000      66.0255      530.217      1529.13      4622.86      23960.5      46447.3     -1.00000
      1002.00      785.000      128.406      470.182      1410.59      4311.31      23060.6      46437.0     -1.00000
      383.000      257.000      78.0003      489.731      1493.97      4395.25      23065.2      46100.5     -1.00000
      22.0000      494.000      85.5175      445.603      1356.21      3975.53      22332.7      46077.0     -1.00000
      858.000      560.000      93.9633      443.411      1360.84      4117.71      22340.8      46058.5     -1.00000
      831.000      25.0000      1.27160      424.214      1484.38      4499.44      23115.4      45672.9     -1.00000
      751.000      394.000      83.7292      495.059      1406.28      4117.19      22045.8      45514.1     -1.00000
      418.000      472.000      77.6327      479.688      1416.64      4197.04      22566.3      45412.8     -1.00000
      149.000      759.000      141.284      478.342      1409.87      4409.83      22938.8      45002.6     -1.00000
      361.000      648.000      144.912      514.488      1600.64      4846.83      24104.8      44825.0     -1.00000
      505.000      972.000      189.563      435.915      1272.33      3695.70      21002.7      44758.0     -1.00000
      618.000      759.000      173.735      460.743      1269.05      3869.40      21360.3      44559.7     -1.00000
      994.000      577.000      88.1699      467.957      1394.01      4222.35      22261.6      44126.6     -1.00000
      472.000      475.000      76.6417      376.621      1277.41      3955.66      21682.3      43819.0     -1.00000
      456.000      171.000      33.3367      450.135      1357.79      4015.14      21106.5      43640.0     -1.00000
      734.000      62.0000      7.72873      428.309      1428.70      4255.52      21998.7      43374.9     -1.00000
      375.000      165.000      16.2684      403.722      1362.33      3917.61      20921.2      43357.9     -1.00000
      594.000      21.0000      9.06444      398.982      1315.61      3875.69      20558.6      43111.4     -1.00000
      843.000      346.000      69.1982      413.339      1331.06      3979.02      20897.9      42565.1     -1.00000
      947.000      52.0000      9.10164      87.2217      142.371      248.287      545.798      42347.7     -1.00000
      445.000      159.000      50.3792      425.214      1459.50      4087.86      20528.4      42373.0     -1.00000
      85.0000      62.0000      23.1350      451.702      1275.02      3848.35      20442.0      42294.8     -1.00000
      6.00000      370.000      53.4309      510.946      1382.73      4264.63      21955.6      42349.3     -1.00000
      914.000      523.000      106.796      445.610      1332.90      4051.36      21115.2      42404.5     -1.00000
      474.000      539.000      69.8787      416.754      1337.63      3950.57      21069.0      42339.1     -1.00000
      330.000      298.000      24.2043      448.913      1391.23      4126.47      21308.2      42038.6     -1.00000
      283.000      219.000      39.1561      411.474      1252.28      3782.18      20230.7      41953.2     -1.00000
      168.000      603.000      82.9282      458.543      1353.82      4150.44      21628.0      42082.6     -1.00000
      785.000      438.000      66.0666      416.174      1245.01      3688.03      19789.3      41890.6     -1.00000
      842.000      225.000      12.4497      468.091      1304.34      3902.74      20740.7      41778.6     -1.00000
      719.000      114.000      21.8494      530.381      1563.42      4595.75      22446.1      41617.2     -1.00000
      125.000      390.000      74.0794      436.239      1331.18      3839.93      20448.7      41460.0     -1.00000
      101.000      753.000      157.453      412.646      1305.56      3906.43      20359.6      41432.9     -1.00000
      914.000      586.000      98.7451      431.408      1320.05      3869.71      20524.2      41352.5     -1.00000
      536.000      746.000      147.064      437.419      1219.56      3673.12      19891.5      41384.0     -1.00000
      780.000      518.000      82.3209      455.344      1360.99      3956.22      20647.2      41217.2     -1.00000
      940.000      335.000      9.03380      449.935      1269.31      3752.65      20203.9      41033.9     -1.00000
      682.000      313.000      64.8846      441.092      1293.85      3731.86      19924.5      40654.6     -1.00000
      833.000      327.000      14.1306      107.310      153.075      242.130      691.544      40655.9     -1.00000
      549.000      715.000      146.848      466.325      1320.11      3798.46      20083.9      40518.5     -1.00000
      73.0000      633.000      102.743      397.021      1162.70      3405.18      19002.5      40398.2     -1.00000
      140.000      452.000      55.9471      180.728      466.137      3286.58      18789.4      11004.5     -1.00000
      734.000      477.000      59.1970      417.389      1268.08      3930.62      19938.4      39966.6     -1.00000
      695.000      759.000      156.252      413.011      1187.40      3516.76      19152.6      39982.5     -1.00000
      582.000      882.000      165.298      384.997      1072.85      3325.01      22089.6      40016.8     -1.00000
      81.0000      332.000      6.27206      452.459      1320.27      3949.06      20244.1      39592.8     -1.00000
      115.000      807.000      140.710      457.031      1283.45      3787.11      19945.0      39760.5     -1.00000
      371.000      307.000     -1.43904      385.398      1216.78      3512.09      19124.8      39185.2     -1.00000
      939.000      660.000      113.796      384.671      1149.32      3571.99      19394.9      38980.5     -1.00000
      496.000      782.000      149.741      383.682      1168.34      3479.10      18709.6      38922.1     -1.00000
      501.000      563.000      100.233      369.660      1127.85      3411.27      19012.5      38827.7     -1.00000
      601.000      504.000      83.1934      419.413      1197.96      3557.70      18680.2      38576.6     -1.00000
      324.000      751.000      149.550      410.199      1180.01      3588.81      19312.9      38517.4     -1.00000
      603.000      145.000      26.9180      413.377      1273.92      3643.88      18985.6      38180.5     -1.00000
      155.000      280.000      10.3799      432.343      1252.51      3625.62      19299.1      38214.8     -1.00000
      64.0000      541.000      84.2981      435.615      1278.16      3778.07      19279.5      38294.7     -1.00000
      643.000      899.000      165.515      359.249      1081.11      3219.49      17830.7      38372.3     -1.00000
      876.000      717.000      117.143      379.765      1148.69      3432.21      19001.3      38262.7     -1.00000
      574.000      827.000      158.876      390.144      1140.47      3284.07      18043.4      38147.9     -1.00000
      895.000      587.000      73.3715      393.568      1142.68      3378.92      18526.8      38050.4     -1.00000
      333.000      596.000      84.8511      424.116      1268.31      3700.25      19268.6      38024.8     -1.00000
      669.000      867.000      192.690      401.283      1164.72      3634.09      19443.9      38033.2     -1.00000
      133.000      181.000      39.2625      425.716      1239.76      3705.20      19102.6      37616.6     -1.00000
      487.000      919.000      165.577      411.256      1099.70      3236.10      18007.3      37889.2     -1.00000
      180.000      864.000      164.455      443.358      1225.45      3760.73      19259.7      37798.4     -1.00000
      528.000      749.000      115.520      407.577      1194.21      3426.31      18493.0      37663.1     -1.00000
      258.000      857.000      163.241      372.821      1061.25      3234.11      17678.5      37685.3     -1.00000
      106.000      508.000      54.7037      355.243      1027.25      3093.18      17416.5      37484.9     -1.00000
      657.000      33.0000      25.3483      442.789      1251.48      3637.49      18492.4      37136.3     -1.00000
      999.000      354.000      58.1231      352.835      1101.82      3346.35      17761.4      37108.7     -1.00000
      874.000      751.000      114.346      380.904      1138.12      3391.38      17825.1      37133.1     -1.00000
      401.000      676.000      134.202      409.210      1131.63      3370.30      18394.8      37005.2     -1.00000
      586.000      247.000      76.2155      360.072      1114.65      3285.46      17546.9      36812.4     -1.00000
      773.000      74.0000     -8.30844      354.362      1142.10      3461.23      18028.8      36637.6     -1.00000
      359.000      173.000      68.1097      391.223      1216.51      3560.49      18316.6      36451.3     -1.00000
      792.000      1008.00      187.159      386.663      672.342      1118.70      11236.1      36643.8     -1.00000
      806.000      942.000      181.879      387.303      1032.50      2892.70      17129.3      36593.6     -1.00000
      103.000      36.0000     0.248897      390.822      1095.35      3242.29      17188.6      36168.4     -1.00000
      906.000      836.000      149.243      380.995      1062.53      3160.39      17156.5      36181.6     -1.00000
      1.00000      565.000      80.8135      448.909      1305.66      3701.91      18948.1      35962.6     -1.00000
      282.000      969.000      162.173      404.665      1095.53      3133.77      17261.2      35865.5     -1.00000
      902.000      897.000      163.524      374.522      1055.43      3235.99      17592.8      35808.3     -1.00000
      711.000      659.000      136.860      375.522      1137.70      3354.31      17659.8      35708.2     -1.00000
      806.000      136.000     -5.87633      317.755      1073.81      3149.85      16908.8      35394.3     -1.00000
      280.000      597.000      90.5241      381.853      1137.78      3395.46      17648.5      35422.6     -1.00000
      540.000      950.000      176.783      368.850      995.774      3162.51      16518.4      35515.9     -1.00000
      795.000      810.000      146.847      390.682      975.573      2957.75      16740.9      35121.1     -1.00000
      299.000      367.000      13.3515      317.643      1034.58      3018.78      16607.9      34928.3     -1.00000
      1.00000      865.000      133.909      370.481      1112.36      3176.23      17480.2      35063.9     -1.00000
      315.000      153.000      31.2083      330.841      1052.97      2930.21      15679.2      33097.2     -1.00000
      438.000      617.000      108.382      386.560      1074.13      3073.75      16782.8      34913.9     -1.00000
      84.0000      903.000      131.694      352.354      995.827      2951.95      16264.0      34997.8     -1.00000
      376.000      807.000      128.983      398.397      1122.01      3260.91      16909.4      34889.1     -1.00000
      883.000      9.00000      21.4519      310.541      1171.28      3479.83      17719.4      34571.9     -1.00000
      943.000      136.000      33.5757      407.707      1382.26      3979.46      18949.0      34447.9     -1.00000
      729.000      676.000      124.088      369.618      1085.98      3127.31      16457.8      34565.2     -1.00000
      267.000      6.00000     -8.37408      371.586      1078.19      3258.54      16988.4      34317.2     -1.00000
      541.000      363.000      37.2128      359.875      1033.19      3070.27      16320.7      34258.1     -1.00000
      404.000      219.000      23.8261      356.747      1089.22      3141.20      16584.8      34174.9     -1.00000
      589.000      648.000      95.3763      405.659      1088.69      3118.27      16912.8      34296.1     -1.00000
      158.000      413.000      66.7379      410.785      1130.89      3203.91      16653.8      34093.8     -1.00000
      742.000      246.000      8.09790      370.437      1062.86      3073.34      16427.2      34019.0     -1.00000
      823.000      408.000      66.3889      379.853      1108.64      3218.64      16820.9      34042.4     -1.00000
      655.000      969.000      188.647      386.360      1055.40      2923.16      16084.6      34230.8     -1.00000
      112.000      1007.00      190.475      405.954      1170.12      3288.04      17572.0      34181.8     -1.00000
      811.000      215.000      14.9886      375.458      1088.36      3249.31      17134.4      33796.7     -1.00000
      947.000      587.000      105.513      346.661      1028.83      3007.38      16071.3      33856.2     -1.00000
      939.000      387.000      68.7362      423.084      1279.01      3914.37      18865.5      33707.1     -1.00000
      907.000      84.0000      14.9061      378.720      1073.09      3236.80      16584.5      33376.6     -1.00000
      682.000      926.000      164.026      366.219      1025.13      2950.27      16215.2      33645.4     -1.00000
      496.000      7.00000      5.25105      334.102      1058.08      3065.62      16030.6      33315.9     -1.00000
      162.000      1019.00      159.880      248.048      502.334      778.775      1605.06      33654.5     -1.00000
      126.000      207.000      17.4259      297.679      949.955      2746.39      15246.8      32487.9     -1.00000
      676.000      139.000      44.7250      366.753      1049.89      3042.97      16087.9      33096.8     -1.00000
      202.000      892.000      185.936      372.685      1101.89      3211.76      16514.6      33172.0     -1.00000
      871.000      40.0000      15.5000      415.003      1100.18      3307.35      16900.8      32862.1     -1.00000
      603.000      359.000      59.0679      346.132      964.390      2825.46      15292.8      32787.3     -1.00000
      99.0000      829.000      161.000      392.983      1051.15      2933.53      15900.3      32925.3     -1.00000
      987.000      41.0000      23.9889      270.587      940.242      2735.82      14655.0      30977.3     -1.00000
      671.000      581.000      111.895      333.038      1109.91      3100.56      16321.7      32787.0     -1.00000
      373.000      677.000      103.834      333.238      1040.57      2977.55      15793.2      32771.2     -1.00000
      704.000      599.000      105.113      372.797      1068.98      3038.47      15937.1      32675.9     -1.00000
      66.0000      915.000      164.994      336.907      996.007      2903.90      15649.5      32737.5     -1.00000
      806.000      11.0000      35.2404      334.146      1086.92      3148.65      15968.8      32361.1     -1.00000
      475.000      445.000      70.9566      331.123      994.135      2907.39      15549.1      32488.5     -1.00000
      14.0000      1023.00      150.834      324.607      977.741      2783.28      15526.7      32602.3     -1.00000
      83.0000      454.000      50.3707      352.915      1077.20      3133.46      16204.1      32375.0     -1.00000
      538.000      1018.00      206.901      361.709      962.652      2801.01      16301.1      32495.0     -1.00000
      640.000      724.000      156.548      326.983      1007.31      2875.25      14701.1      32328.7     -1.00000
      99.0000      868.000      162.265      374.366      1006.19      2865.60      15965.5      32352.2     -1.00000
      289.000      792.000      168.122      376.240      1076.77      2976.49      16125.0      32315.3     -1.00000
      526.000      583.000      118.864      368.637      1052.74      3009.67      15583.3      32220.4     -1.00000
      337.000      269.000      52.4004      357.518      1093.03      3145.88      16104.4      32099.2     -1.00000
      695.000      723.000      150.866      342.747      979.603      2816.78      15029.4      32133.7     -1.00000
      313.000      809.000      162.586      398.830      1029.69      3072.65      15555.0      31952.6     -1.00000
      678.000      583.000      71.9557      367.831      1025.16      2991.30      16038.6      31870.9     -1.00000
      528.000      635.000      111.492      363.716      1000.07      2729.57      14681.2      31158.4     -1.00000
      160.000      554.000      90.9107      350.727      1000.67      2899.25      15309.7      31767.5     -1.00000
      74.0000      253.000      39.9548      357.215      1020.41      2848.70      15067.0      31858.9     -1.00000
      149.000      871.000      173.078      351.208      966.629      2835.46      15488.9      31491.9     -1.00000
      914.000      805.000      134.574      364.647      919.033      2729.65      15087.9      31466.6     -1.00000
      433.000      445.000      31.7185      365.597      1026.31      3065.43      15739.9      31160.5     -1.00000
      426.000      950.000      194.546      355.245      995.774      2801.75      15114.1      31220.7     -1.00000
      742.000      390.000      66.4160      424.512      1274.99      3783.10      17864.7      30907.1     -1.00000
      536.000      286.000      36.7738      320.808      991.686      3002.67      15490.1      30868.0     -1.00000
      490.000      624.000      90.1921      299.044      908.370      2602.95      14328.8      30561.5     -1.00000
      30.0000      148.000      13.2727      345.622      1023.75      3013.96      15265.0      30663.7     -1.00000
      830.000      669.000      132.675      343.942      962.795      2820.05      14917.9      30727.7     -1.00000
      241.000      281.000      30.9221      343.599      949.012      2769.66      14713.4      30578.3     -1.00000
      496.000      58.0000      21.1972      319.043      1017.24      3013.71      15153.3      30498.1     -1.00000
      78.0000      397.000      32.8170      333.034      959.418      2716.36      14514.3      30586.4     -1.00000
      364.000      221.000      48.8189      358.151      995.815      2786.97      14413.1      30649.4     -1.00000
      282.000      199.000      59.1087      380.347      1055.76      3002.85      15227.0      30473.6     -1.00000
      712.000      848.000      141.444      360.460      1002.43      2838.63      15048.7      30596.8     -1.00000
      710.000      19.0000      22.8017      302.277      1001.65      2896.65      14788.0      30267.9     -1.00000
      499.000      361.000      63.9702      349.003      1029.69      2962.79      15296.6      30334.0     -1.00000
      605.000      658.000      110.928      347.235      963.412      2758.71      14825.9      30327.0     -1.00000
      549.000      500.000      91.9483      318.759      946.115      2722.18      14171.3      30257.9     -1.00000
      63.0000      866.000      163.220      370.136      1077.48      3096.86      15764.3      30333.4     -1.00000
      599.000      149.000      17.6465      309.985      1002.66      2847.71      14762.7      30074.2     -1.00000
      441.000      823.000      162.281      351.824      1029.56      2934.89      15211.6      30274.8     -1.00000
      935.000      624.000      95.7039      285.504      908.370      2602.95      14575.7      30163.6     -1.00000
      585.000      646.000      109.052      294.083      890.122      2522.32      14164.5      30165.9     -1.00000
      209.000      664.000      122.687      336.741      907.514      2573.54      14167.8      30133.3     -1.00000
      92.0000      857.000      161.807      334.908      939.114      2680.17      14253.6      30128.4     -1.00000
      518.000      860.000      207.217      160.731      308.321      462.874      1289.23      30107.4     -1.00000
      604.000      844.000      155.527      329.318      801.559      2439.51      14356.1      29951.5     -1.00000
      683.000      853.000      155.398      358.139      993.588      2853.02      14624.7      29854.2     -1.00000
      386.000      935.000      188.908      361.075      916.299      2617.03      14230.8      29730.3     -1.00000
      430.000      729.000      136.068      308.129      897.171      2627.19      14033.8      29658.1     -1.00000
      282.000      250.000      24.9069      354.422      995.042      2865.06      14573.5      29477.9     -1.00000
      737.000      541.000      83.9855      341.899      950.458      2729.02      14481.7      29503.8     -1.00000
      292.000      308.000      17.2073      353.346      907.798      2591.53      13951.0      29341.5     -1.00000
      15.0000      161.000      10.2827      335.997      879.814      2650.32      13939.1      29291.1     -1.00000
      538.000      619.000      108.335      328.369      884.262      2503.70      13712.3      29196.1     -1.00000
      432.000      406.000      51.8603      372.981      1027.95      2929.42      14758.6      29345.3     -1.00000
      833.000      731.000      281.179      375.135      987.786      2709.42      14405.8      29357.9     -1.00000
      274.000      1013.00      178.538      301.955      808.267      2353.40      13682.0      29331.5     -1.00000
      471.000      91.0000      26.5385      334.560      965.628      2783.58      14210.1      28999.9     -1.00000
      839.000      552.000      100.484      300.116      963.104      2701.62      14193.5      29094.9     -1.00000
      213.000      47.0000      7.25822      289.322      924.292      2676.03      14119.7      28914.2     -1.00000
      461.000      293.000      38.6614      314.853      919.417      2637.29      13813.6      28953.0     -1.00000
      827.000      332.000      66.1942      312.793      904.797      2648.10      14098.3      28921.7     -1.00000
      882.000      758.000      143.041      312.846      863.113      2359.07      12950.9      28081.3     -1.00000
      228.000      447.000      84.4851      334.927      948.963      2713.85      14157.9      28866.3     -1.00000
      878.000      182.000      40.2603      324.892      905.533      2620.90      13588.1      28869.1     -1.00000
      619.000      866.000      184.588      333.632      884.274      2489.47      13473.9      28720.2     -1.00000
      996.000      905.000      182.522      303.142      836.511      2395.51      13204.0      28435.6     -1.00000
      594.000      431.000      47.7875      280.367      862.107      2598.28      13804.6      28689.3     -1.00000
      104.000      13.0000      20.3627      272.312      915.256      2571.63      13623.3      28533.9     -1.00000
      1007.00      848.000      153.171      295.217      837.506      2509.55      13304.4      28636.8     -1.00000
      644.000      586.000      87.5355      333.725      877.175      2538.68      13368.7      28502.3     -1.00000
      992.000      546.000      63.2728      161.354      440.266      2547.91      13834.4      28441.8     -1.00000
      911.000      557.000      77.9865      352.928      974.822      2844.70      14469.0      28432.3     -1.00000
      823.000      997.000      181.328      301.004      880.955      2471.71      13426.2      28557.2     -1.00000
      610.000      850.000      185.578      297.030      882.992      2454.28      13498.5      28492.8     -1.00000
      848.000      835.000      156.137      341.974      923.718      2700.97      12425.0      28403.1     -1.00000
      77.0000      269.000      28.9465      357.610      964.094      2730.96      13889.4      28118.6     -1.00000
      650.000      551.000      127.194      297.501      896.045      2518.70      13662.2      28149.1     -1.00000
      513.000      668.000      130.776      322.217      898.252      2483.54      12903.5      28122.7     -1.00000
      103.000      635.000      95.5131      304.029      888.795      2634.47      13813.1      28108.2     -1.00000
      696.000      962.000      163.239      379.196      1028.17      2795.93      14273.1      28204.5     -1.00000
      447.000      680.000      104.543      342.110      967.357      2681.78      14101.9      28112.7     -1.00000
      358.000      228.000      56.8547      300.079      900.381      2630.15      13354.6      28237.2     -1.00000
      895.000      903.000      155.148      321.418      926.985      2589.73      13777.8      28119.0     -1.00000
      856.000      296.000      41.8682      336.736      884.050      2564.41      13585.0      27893.2     -1.00000
      918.000      895.000      139.680      345.861      971.521      2721.66      14293.5      27989.1     -1.00000
      310.000      697.000      129.351      304.145      913.044      2621.45      13775.2      27869.2     -1.00000
      777.000      947.000      172.003      377.716      920.344      2511.58      13565.8      27924.6     -1.00000
      159.000      679.000      113.102      359.808      904.949      2515.57      13244.9      27827.9     -1.00000
      385.000      377.000      35.1885      371.571      898.054      2570.22      13593.3      27709.0     -1.00000
      736.000      479.000      32.9929      323.781      890.754      2487.08      13394.1      27667.5     -1.00000
      249.000      742.000      135.870      308.176      858.057      2463.33      13337.3      27624.3     -1.00000
      614.000      300.000      33.7655      285.156      856.184      2485.68      13011.7      27442.9     -1.00000
      990.000      742.000      119.979      303.499      861.985      2516.26      13576.7      27560.7     -1.00000
      995.000      502.000      91.6215      262.354      844.082      2442.28      12984.9      27543.5     -1.00000
      934.000      407.000      97.6120      279.190      884.096      2625.38      13634.9      27321.8     -1.00000
      46.0000      624.000      83.9769      331.925      910.849      2521.30      13249.0      27320.4     -1.00000
      153.000      15.0000      2.04193      298.548      925.515      2730.20      13752.0      27065.7     -1.00000
      951.000      621.000      119.144      334.942      877.736      2376.38      12920.9      27132.3     -1.00000
      119.000      869.000      170.000      342.841      856.849      2440.52      13388.6      27203.1     -1.00000
      0.00000      253.000      64.7873      467.526      1159.39      3059.22      13619.9      26926.0     -1.00000
      516.000      1007.00      192.601      302.090      847.103      2443.52      13121.0      27075.1     -1.00000
      614.000      780.000      168.286      306.393      867.721      2460.80      12884.7      26758.4     -1.00000
      774.000      127.000      42.4297      295.248      883.635      2589.93      13226.0      26514.6     -1.00000
      71.0000      531.000      137.824      321.473      846.782      2438.47      12877.3      26622.5     -1.00000
      814.000      133.000      12.8787      265.244      803.590      2351.14      12445.0      26556.3     -1.00000
      771.000      20.0000      18.3902      290.013      852.493      2517.10      12979.4      26318.7     -1.00000
      519.000      500.000      80.2213      320.572      887.308      2494.12      12787.3      26396.7     -1.00000
      791.000      422.000      58.7839      264.571      823.724      2398.33      12767.4      26263.0     -1.00000
      1023.00      224.000      55.8028      380.211      1108.08      2783.49      12965.1      26194.3     -1.00000
      554.000      313.000      75.4417      291.142      862.890      2481.13      12686.0      26184.0     -1.00000
      949.000      865.000      122.182      272.670      701.933      2074.05      11865.7      25726.1     -1.00000
      288.000      610.000      123.221      325.065      939.121      2682.86      13332.4      26092.8     -1.00000
      409.000      357.000      63.0155      278.377      854.516      2440.38      12803.2      26014.8     -1.00000
      306.000      247.000      30.1141      351.148      899.225      2472.29      12751.7      25882.1     -1.00000
      20.0000      913.000      152.972      298.853      807.560      2322.23      12339.7      26061.1     -1.00000
      84.0000      6.00000      9.61280      275.570      809.562      2458.87      12589.3      25793.2     -1.00000
      871.000      37.0000      14.8273      239.482      818.339      2467.47      12599.3      25683.7     -1.00000
      403.000      238.000     -13.1080      280.555      862.030      2464.58      12512.1      25708.9     -1.00000
      794.000      636.000      124.091      304.032      807.835      2261.31      12189.2      25812.0     -1.00000
      557.000      326.000     0.524015      307.651      877.919      2590.52      12534.9      25682.4     -1.00000
      343.000      842.000      175.188      326.930      889.058      2511.01      12974.0      25817.3     -1.00000
      508.000      661.000      130.667      350.741      866.339      2384.42      12604.4      25718.4     -1.00000
      7.00000      729.000      91.2520      306.182      809.959      2236.34      11977.6      25598.8     -1.00000
      317.000      581.000      111.539      300.317      825.263      2407.46      12497.3      25433.0     -1.00000
      744.000      427.000      87.6295      282.193      867.778      2398.56      12396.1      25364.6     -1.00000
      483.000      353.000      15.5642      323.351      885.060      2460.51      12447.4      25159.4     -1.00000
      824.000      630.000      95.6588      279.427      805.530      2314.30      12199.3      25118.0     -1.00000
      631.000      548.000      112.250      288.983      807.101      2214.75      11951.4      25021.3     -1.00000
      79.0000      979.000      172.568      285.964      796.084      2234.35      11973.1      25131.0     -1.00000
      258.000      180.000      26.1568      246.172      825.786      2292.30      12096.1      24902.7     -1.00000
      924.000      86.0000      31.2393      298.152      771.151      2199.95      11837.7      25065.3     -1.00000
      668.000      562.000      87.4881      306.372      780.829      2203.92      11809.3      24875.6     -1.00000
      583.000      453.000      73.8971      314.657      838.081      2399.08      12036.2      24759.4     -1.00000
      516.000      918.000      166.577      278.164      751.190      2074.62      11281.8      24327.9     -1.00000
      29.0000      803.000      138.611      301.692      834.226      2313.32      12068.4      24722.2     -1.00000
      54.0000      219.000      32.0087      269.356      809.121      2260.55      11949.6      24506.6     -1.00000
      742.000      83.0000      17.4852      285.973      796.793      2263.22      11771.0      24463.9     -1.00000
      169.000      977.000      182.628      272.251      747.975      2287.90      12050.1      24672.8     -1.00000
      74.0000      951.000      181.028      296.108      794.316      2060.98      11161.6      24081.2     -1.00000
      642.000      820.000      164.406      300.797      827.405      2350.98      12151.0      24610.2     -1.00000
      233.000      474.000      92.7085      319.680      769.284      2019.06      10502.3      22023.1     -1.00000
      399.000      826.000      181.527      293.717      767.254      2237.90      11882.8      24551.6     -1.00000
      853.000      858.000      176.329      310.738      769.736      2193.11      11827.2      24550.2     -1.00000
      681.000      401.000      27.4022      267.354      856.110      2317.99      11896.0      24403.2     -1.00000
      398.000      77.0000      19.0742      301.068      777.888      2271.72      11704.3      24647.8     -1.00000
      407.000      36.0000      11.9759      285.280      821.138      2267.20      11923.9      24285.6     -1.00000
      645.000      257.000      21.4443      264.445      827.105      2263.62      11684.6      24332.3     -1.00000
      935.000      328.000      38.8011      278.153      808.462      2269.58      11887.2      24325.0     -1.00000
      937.000      995.000      177.729      275.435      785.068      2308.96      12222.2      24487.9     -1.00000
      236.000      397.000      29.0319      264.440      823.431      2269.46      11717.3      24319.0     -1.00000
      506.000      190.000      12.4628      272.747      803.439      2263.94      11896.5      24192.1     -1.00000
      145.000      302.000      29.8315      309.072      795.379      2212.35      11641.9      24508.8     -1.00000
      950.000      834.000      162.705      298.943      788.613      2187.35      11583.5      24339.7     -1.00000
      764.000      390.000      42.9621      267.347      785.546      2233.29      11588.7      24215.6     -1.00000
      5.00000      543.000      54.1699      267.816      802.759      2229.76      11526.9      24329.0     -1.00000
      947.000      169.000      16.0033      264.350      774.021      2203.21      11545.2      24004.5     -1.00000
      726.000      492.000      79.2861      317.920      801.317      2216.03      11641.4      24025.7     -1.00000
      515.000      638.000      125.944      318.670      901.049      2520.80      11862.5      24042.5     -1.00000
      599.000      572.000      101.110      283.997      767.122      2156.78      11398.1      24126.3     -1.00000
      660.000      424.000      79.8973      290.758      880.634      2403.49      12408.6      23915.2     -1.00000
      740.000      212.000      33.2277      305.804      833.147      2285.51      11619.7      23830.2     -1.00000
      996.000      459.000      41.3678      300.986      720.151      2044.40      10485.9      21942.4     -1.00000
      637.000      143.000      31.3710      322.173      810.628      2306.67      11757.5      23745.8     -1.00000
      1012.00      412.000      50.1694      272.180      764.863      2205.58      11539.0      23711.4     -1.00000
      620.000      217.000      55.5046      215.487      705.329      2014.00      10163.4      21179.3     -1.00000
      1000.00      773.000      152.357      303.998      797.964      2249.45      11741.1      23671.6     -1.00000
