PDS_VERSION_ID         = PDS3
RECORD_TYPE            = STREAM
OBJECT                 = TEXT
  PUBLICATION_DATE     = 2014-02-19
  INTERCHANGE_FORMAT   = ASCII
  NOTE                 = "WAC hot pixel file for epoch 2009.0."
END_OBJECT             = TEXT
END

WAC hot pixel list. Lines 1 and 2 are column headings giving exposure time 
(sec) and gain state (e-/DN), respectively, of source dark images. Starting 
on line 3, first two columns indicate x and y value of hot pixel; columns 3 
through N-1 give median electron counts for each exposure bin, and last (Nth) 
column contains either the index of the exposure bin where saturation first 
occurs, or -1 if no saturation.

\begindata
      0.00000      0.00000      0.00000      10.0000      32.0000      100.000      320.000      560.000      1200.00
      0.00000      0.00000      11.7270      11.7270      27.6800      27.6800      27.6800      27.6800      27.6800
      518.000      858.000      192.067      11236.6      35772.8      98637.7      111352.      111349.      111347.      4.00000
      554.000      174.000      139.191      13109.4      39266.0      99677.4      111341.      111350.      111340.      4.00000
      833.000      328.000      148.926      13462.4      39938.9      97768.8      111344.      111340.      111347.      4.00000
      792.000      1007.00      198.572      12962.2      38903.8      96438.7      111347.      111346.      111343.      4.00000
      413.000      578.000      127.716      7678.16      23550.8      61571.0      111355.      111341.      111349.      4.00000
      577.000      598.000      112.285      6261.71      20120.0      58331.6      111353.      111343.      111344.      4.00000
      685.000      585.000      141.744      7473.72      22442.7      56767.9      111348.      111348.      111348.      4.00000
      259.000      132.000      80.4478      5680.04      18084.3      52058.6      111343.      111354.      111339.      4.00000
      511.000      126.000      44.0336      5261.47      16793.3      50838.7      111352.      111344.      111351.      4.00000
      561.000      116.000      64.0619      6167.19      18802.7      50590.1      111340.      111346.      111337.      4.00000
      640.000      997.000      109.401      3768.00      12781.7      39602.7      106700.      111352.      111354.      5.00000
      947.000      51.0000      59.2351      3815.09      12090.2      36741.9      103290.      111351.      111337.      5.00000
      162.000      1018.00      124.508      3983.26      13835.5      42064.4      104747.      111349.      111350.      5.00000
      339.000      693.000      72.2236      4287.36      14112.3      41897.2      104012.      111350.      111341.      5.00000
      962.000      403.000      57.3077      5119.49      16091.1      44469.1      102388.      111350.      111338.      5.00000
      365.000      612.000      85.9745      3539.36      10904.6      33265.4      91365.4      111346.      111338.      5.00000
      9.00000      297.000      86.8893      3326.04      10568.8      31693.3      83664.0      109472.      111340.      5.00000
      224.000      420.000      80.1101      3020.89      9739.34      29803.9      82012.5      111351.      111342.      5.00000
      310.000      842.000      96.5372      3520.04      10072.5      31734.7      82309.7      111340.      111345.      5.00000
      232.000      277.000      77.8549      3697.24      11637.3      33405.7      83035.9      111351.      111345.      5.00000
      518.000      859.000      116.258      334.098      646.484      1104.55      25379.3      93910.0      111345.      6.00000
      663.000      382.000      105.180      2633.29      8435.47      25465.2      71552.1      109379.      111340.      5.00000
      554.000      175.000      63.0809      100.251      249.400      402.653      6278.91      60608.9      111337.      6.00000
      372.000      333.000      78.5848      1901.63      6267.72      19640.9      60745.5      99861.6      111351.      6.00000
      210.000      792.000      104.974      2213.29      7448.77      23158.6      66313.7      102702.      111348.      6.00000
      615.000      629.000      62.8242      2182.58      7391.37      23169.5      66619.3      102006.      111350.      6.00000
      971.000      821.000      83.4445      2313.95      7684.31      24053.5      67719.6      102915.      111346.      6.00000
      231.000      20.0000      29.4456      2807.55      8900.24      25964.5      69993.1      103917.      111352.      6.00000
      119.000      316.000      64.3094      3162.83      10077.7      29109.1      74106.6      105840.      111347.      6.00000
      666.000      481.000      42.8003      3056.00      9564.86      28115.5      72733.1      104768.      111352.      6.00000
      898.000      537.000      94.5303      2305.65      7721.47      23251.3      64617.2      97665.8      111351.      6.00000
      707.000      655.000      77.4723      3341.56      10978.1      32100.5      80514.2      109161.      111341.      6.00000
      54.0000      76.0000      33.1594      2901.93      8915.52      25951.2      67865.1      99393.8      111343.      6.00000
      906.000      454.000      27.4554      2247.35      7199.80      21824.2      62291.0      95416.4      111350.      6.00000
      787.000      651.000      116.620      1976.57      5726.10      18857.5      55219.4      89735.4      111342.      6.00000
      826.000      799.000      70.1569      2355.04      7777.63      23528.3      64547.9      96590.1      111336.      6.00000
      281.000      753.000      123.056      3276.31      9463.14      28547.3      70964.4      100757.      111349.      6.00000
      842.000      712.000      27.1428      1521.71      5090.44      16358.4      51228.3      86357.5      111348.      6.00000
      570.000      705.000      106.772      1632.17      5445.89      17359.6      52274.1      83558.8      111349.      6.00000
      662.000      623.000      86.2709      1447.02      4621.76      14897.5      47383.6      79849.8      111348.      6.00000
      781.000      619.000      61.5097      1830.76      6207.19      19420.2      56337.6      86310.8      111339.      6.00000
      630.000      1000.00      92.7540      1863.17      6267.29      19843.0      56181.1      86337.5      111352.      6.00000
      775.000      945.000      88.8625      1900.59      6265.74      19409.0      55845.3      85653.7      111339.      6.00000
      721.000      420.000      105.075      1712.98      5593.68      17042.9      50557.9      80372.2      111342.      6.00000
      950.000      163.000      54.9148      1586.67      4806.28      14923.2      46362.9      76433.8      111345.      6.00000
      27.0000      157.000      16.9650      1695.88      5467.05      16670.1      48953.8      77969.2      111338.      6.00000
      78.0000      277.000      1.62971      1863.25      5860.48      17755.5      50175.9      78080.5      111345.      6.00000
      196.000      915.000      67.2798      1422.23      4954.93      16000.7      47967.0      76090.7      111346.      6.00000
      518.000      314.000      69.6237      1815.93      5712.47      16872.2      48370.9      75645.7      111354.      6.00000
      196.000      538.000      44.6397      1255.74      4211.31      13522.5      42288.5      70263.0      111353.      6.00000
      57.0000      393.000      70.3098      1499.51      4835.99      14919.5      44393.3      71669.8      111352.      6.00000
      996.000      806.000      76.3793      1489.86      4891.62      15328.7      45283.3      72354.7      111346.      6.00000
      385.000      611.000      74.1454      1566.25      5151.55      15878.6      46079.8      72756.7      111341.      6.00000
      822.000      465.000      66.9425      1473.08      4808.48      14490.0      43407.4      69795.0      111340.      6.00000
      293.000      642.000      113.488      1496.79      5004.62      15423.2      44499.3      69539.0      111351.      6.00000
      213.000      194.000      60.9118      1544.93      4924.42      14854.1      43164.6      68236.0      111338.      6.00000
      378.000      87.0000     -7.01714      1674.39      5341.32      15782.6      44456.1      68913.4      111346.      6.00000
      139.000      210.000      56.6585      1578.72      4970.92      14659.1      42401.7      67089.9      111349.      6.00000
      625.000      654.000      62.0002      1288.28      4361.24      13687.5      40678.8      65419.3      111187.      6.00000
      909.000      125.000      49.8685      1457.56      4634.49      14016.9      41408.2      65720.3      111352.      6.00000
      176.000      663.000      43.4381      1208.31      3928.09      12176.4      38491.2      63791.5      110386.      6.00000
      569.000      760.000      38.9475      1510.17      4811.21      14981.0      43317.8      67328.8      110373.      6.00000
      982.000      15.0000      21.2159      1731.03      5369.47      15603.1      43301.4      66580.1      109712.      6.00000
      300.000      655.000      37.5606      1121.26      3583.98      11869.8      39024.2      63502.0      111341.      6.00000
      91.0000      394.000      26.6756      1143.39      3728.14      11705.4      36239.6      60646.7      109686.      6.00000
      631.000      4.00000      23.9207      1342.91      4234.20      12702.4      38163.7      61587.6      111095.      6.00000
      1000.00      61.0000      22.9401      1187.09      3858.82      11887.8      35837.7      59549.6      111354.      6.00000
      494.000      322.000      23.8396      1126.56      3630.07      11173.4      35001.0      58847.0      110603.      6.00000
      1007.00      108.000      18.9456      1427.71      4574.53      13928.8      41022.6      65392.9      108531.     -1.00000
      856.000      823.000      105.509      1321.87      4702.81      14747.2      42240.2      65556.2      108196.     -1.00000
      268.000      77.0000      39.8353      2288.11      6996.48      19844.2      49916.1      71724.5      106475.     -1.00000
      714.000      257.000      10.0825      1056.63      3484.36      10884.6      34145.8      56979.8      106634.     -1.00000
      788.000      101.000      39.0743      1228.22      3941.79      12558.4      36647.8      60219.6      106013.     -1.00000
      31.0000      908.000      70.2694      1523.92      4940.96      15749.8      46847.7      73158.4      106627.     -1.00000
      547.000      370.000      31.8053      1651.87      5219.10      15636.7      43401.7      65742.5      105444.     -1.00000
      198.000      682.000      33.0553      2292.21      7339.24      20878.9      51691.6      72435.6      103154.     -1.00000
      394.000      73.0000      26.8490      1014.47      3338.05      10157.0      31643.3      53027.2      100790.     -1.00000
      378.000      741.000      101.464      1107.27      3667.91      11536.2      34991.2      56874.4      100991.     -1.00000
      270.000      26.0000      21.7152      1144.57      3523.89      10778.9      32904.8      54080.5      99702.2     -1.00000
      590.000      545.000      101.001      1420.29      4551.80      13720.8      39325.6      60941.9      100193.     -1.00000
      705.000      195.000      61.4271      1223.68      3906.40      11609.1      34406.3      55435.2      98302.8     -1.00000
      204.000      490.000      68.3951      1302.28      4098.34      12462.3      36159.9      56799.1      96929.0     -1.00000
      131.000      429.000      91.6289      1044.65      3358.85      10355.8      31605.2      52163.3      96545.7     -1.00000
      679.000      128.000      35.9467      1160.36      3742.25      11282.7      34075.3      55028.3      95985.0     -1.00000
      83.0000      346.000      91.4306      1023.89      3263.92      9944.12      31190.1      51710.2      96086.4     -1.00000
      44.0000      6.00000      20.8798      1177.33      3635.70      11066.8      32568.9      52798.2      95155.3     -1.00000
      193.000      706.000      111.153      1013.99      3191.84      10247.5      31596.1      52781.1      95798.0     -1.00000
      169.000      539.000      110.299      1054.00      3387.15      10376.9      31576.9      52088.6      95492.3     -1.00000
      519.000      951.000      129.024      1031.35      3232.79      10268.2      31585.6      51794.5      95499.8     -1.00000
      107.000      183.000      21.3999      1160.11      3762.97      11451.3      33381.2      53238.3      93947.8     -1.00000
      348.000      584.000      60.7307      886.048      2795.63      8727.00      27476.5      46770.9      93648.6     -1.00000
      718.000      160.000      39.6406      963.339      3156.60      9596.09      29546.0      49775.2      93069.4     -1.00000
      49.0000      1003.00      94.7412      950.754      3024.25      9461.58      29835.2      50174.1      92715.0     -1.00000
      828.000      871.000      65.4050      1026.67      3262.54      10185.6      30600.3      50090.5      90061.8     -1.00000
      349.000      949.000      73.3102      965.719      3269.63      10256.6      31017.4      50347.2      88759.7     -1.00000
      117.000      400.000      80.6454      879.025      2881.13      8975.61      27668.7      46536.2      88057.0     -1.00000
      208.000      776.000      57.5728      1017.18      3025.70      9649.08      29231.0      48316.9      87885.2     -1.00000
      258.000      770.000      135.252      1184.70      3967.84      12159.1      34703.4      53356.7      87706.2     -1.00000
      999.000      454.000      10.8518      779.704      2566.10      7985.57      25115.2      42920.6      86119.5     -1.00000
      95.0000      485.000      17.5452      824.070      2656.04      8211.96      25684.9      43171.8      84851.0     -1.00000
      357.000      203.000      69.1073      985.216      3095.50      9445.92      28560.2      46933.4      84559.3     -1.00000
      689.000      775.000      105.857      733.922      2414.95      7551.81      24278.1      41983.8      84690.8     -1.00000
      911.000      112.000      20.9219      757.121      2464.55      7632.98      24067.2      40824.1      83682.0     -1.00000
      382.000      814.000      72.2535      898.790      2853.20      9553.98      29353.9      47413.2      83793.1     -1.00000
      327.000      876.000      104.337      846.576      2683.15      8326.61      26153.9      43896.1      83465.7     -1.00000
      631.000      32.0000      16.0719      976.465      3143.23      9623.58      28672.5      46522.7      82464.0     -1.00000
      618.000      759.000      54.4382      752.118      2270.17      7299.01      23723.9      41160.1      83041.0     -1.00000
      476.000      192.000      29.2714      887.652      2869.56      8713.82      26369.6      43840.4      82414.4     -1.00000
      748.000      440.000      44.5387      1044.46      3378.65      10254.5      30003.0      47785.8      82222.5     -1.00000
      762.000      536.000      91.6170      896.425      2952.68      9504.38      29534.7      46958.8      81402.0     -1.00000
      602.000      231.000      28.7949      899.288      2659.87      8182.48      25029.5      42191.0      80529.6     -1.00000
      293.000      379.000      10.8807      867.724      2532.87      8030.60      24636.1      41184.6      80425.5     -1.00000
      426.000      434.000      17.3222      732.050      2303.54      7184.06      22968.1      39741.1      80211.2     -1.00000
      834.000      993.000      75.2201      997.514      3278.66      9882.23      29342.0      46582.5      80633.4     -1.00000
      719.000      37.0000     -5.51704      782.021      2513.20      7604.56      23648.0      40252.0      78874.4     -1.00000
      845.000      827.000      93.3312      785.060      2487.66      7970.39      25722.7      42917.8      79052.5     -1.00000
      860.000      925.000      82.3710      826.135      2596.75      8230.90      25456.0      42330.8      78334.5     -1.00000
      518.000      857.000      61.9292      97.0251      161.972      266.500      1324.40      13590.4      77667.3     -1.00000
      776.000      274.000      37.7743      767.379      2329.71      7110.32      22009.5      37791.1      77038.2     -1.00000
      486.000      353.000      23.9671      819.284      2704.15      8079.24      24369.8      40787.6      76904.7     -1.00000
      149.000      763.000      102.785      815.597      2570.23      8205.10      24852.8      41102.5      76386.0     -1.00000
      475.000      445.000      74.9235      865.901      2313.43      7212.95      22719.4      38523.6      75730.8     -1.00000
      298.000      451.000      22.3129      868.958      2812.50      8745.15      26442.2      42307.1      75460.9     -1.00000
      113.000      103.000      28.0125      944.642      2835.23      8494.09      24737.1      40197.6      72887.2     -1.00000
      577.000      599.000      112.125      157.333      375.715      578.793      995.881      5574.62      72769.8     -1.00000
      554.000      173.000      14.3610      87.4925      177.531      303.276      511.883      7827.83      72341.1     -1.00000
      794.000      636.000      86.4161      634.073      2090.79      6553.62      20948.8      36104.1      72505.4     -1.00000
      899.000      837.000      58.0342      707.469      2223.90      6846.42      21698.8      37028.9      72442.0     -1.00000
      264.000      275.000      53.9599      909.184      2840.44      8506.76      25037.2      40397.4      71929.3     -1.00000
      683.000      853.000      49.4233      758.069      2336.13      7166.95      22247.8      37467.7      72102.0     -1.00000
      894.000      781.000      37.6722      789.253      2370.52      7479.95      23432.4      38886.9      71875.0     -1.00000
      511.000      127.000      54.5108      66.7696      202.988      363.754      548.785      5160.98      70273.1     -1.00000
      740.000      184.000      18.8664      740.593      2353.93      7136.60      21810.2      36742.9      70122.1     -1.00000
      812.000      397.000      74.6145      745.407      2365.15      7204.72      21884.9      36675.9      70216.2     -1.00000
      813.000      18.0000      19.1204      804.994      2554.06      7584.51      22884.2      37671.2      69790.6     -1.00000
      626.000      890.000      81.8721      673.865      2184.53      6880.56      21796.5      36956.8      70358.8     -1.00000
      358.000      225.000      40.1180      667.246      2062.06      6287.37      19480.5      33629.2      69736.0     -1.00000
      449.000      291.000      65.6163      766.542      2483.33      7436.28      22429.7      37127.8      69652.5     -1.00000
      750.000      336.000      30.6492      688.198      2254.31      7093.78      21943.5      36703.5      69405.7     -1.00000
      880.000      959.000      77.6673      603.495      1754.36      5742.81      19154.9      33242.5      69829.9     -1.00000
      991.000      946.000      77.1171      681.282      2112.20      6762.37      21654.8      36584.8      69801.4     -1.00000
      833.000      329.000      69.3551      241.403      407.312      678.367      2176.02      35024.6      69326.7     -1.00000
      97.0000      627.000      56.8526      788.981      2334.98      7227.66      22226.2      36667.7      68629.1     -1.00000
      912.000      647.000      46.0226      611.986      1821.35      5849.21      18600.0      32569.6      68544.0     -1.00000
      552.000      971.000      53.1343      585.344      1746.03      5598.87      18179.3      31865.2      68560.9     -1.00000
      585.000      354.000      39.6884      614.393      1961.07      6148.48      19324.4      33400.6      67949.3     -1.00000
      377.000      252.000      51.3650      726.120      2245.27      6646.45      20773.4      34670.4      67240.5     -1.00000
      814.000      283.000      54.8905      790.320      2558.69      7583.73      22775.2      36826.6      66797.8     -1.00000
      238.000      409.000      59.4818      597.655      2020.00      6275.99      19697.0      33648.4      66538.0     -1.00000
      668.000      920.000      81.5766      878.314      2371.61      6141.01      22863.6      39176.1      66903.2     -1.00000
      493.000      874.000      134.742      772.394      2308.38      7150.55      21672.3      36121.0      66740.1     -1.00000
      677.000      370.000      31.8053      647.433      1974.59      6106.96      19226.5      32869.2      66167.9     -1.00000
      497.000      390.000     -2.54369      762.988      2236.25      6838.98      18485.8      35300.0      65858.6     -1.00000
      690.000      144.000      12.3900      848.764      2699.30      8093.10      23566.2      37791.5      65585.3     -1.00000
      358.000      228.000      28.9140      622.001      2022.96      6131.13      19003.2      32347.1      65167.2     -1.00000
      791.000      327.000      75.5782      716.373      2313.78      6965.24      20925.9      34551.6      64720.1     -1.00000
      356.000      70.0000      5.02543      690.670      2172.26      6326.44      19921.3      33763.6      64501.1     -1.00000
      333.000      901.000      23.4713      612.874      1947.28      6025.45      19176.5      32572.7      65055.7     -1.00000
      431.000      741.000      49.8160      681.875      2062.59      6385.44      19795.1      33456.1      64619.1     -1.00000
      641.000      14.0000      19.9842      701.533      2127.69      6420.02      19551.4      32820.5      63621.2     -1.00000
      386.000      21.0000      23.4719      591.688      2053.52      6086.60      18674.8      31901.2      62954.5     -1.00000
      347.000      196.000      55.7409      724.361      2073.93      6256.60      19152.8      32289.6      62635.2     -1.00000
      278.000      187.000      20.5829      687.983      1966.90      6039.61      18945.8      31404.7      62553.6     -1.00000
      503.000      279.000      59.0342      582.082      1776.03      5435.33      17560.6      30282.4      62163.9     -1.00000
      988.000      777.000      39.0248      531.307      1652.58      5182.58      16496.0      29052.0      62279.0     -1.00000
      1002.00      695.000      52.3863      631.609      1993.49      6154.28      18808.5      31796.6      62220.7     -1.00000
      601.000      457.000      87.0272      611.572      1889.57      5859.32      18637.9      31817.8      62048.1     -1.00000
      196.000      949.000      112.033      707.911      1984.43      6399.36      22323.0      36851.6      62315.3     -1.00000
      783.000      337.000      61.3745      665.341      2014.59      5962.27      18484.3      30998.6      61690.2     -1.00000
      730.000      825.000      68.5205      640.457      1917.61      5944.27      18644.9      31659.3      61936.0     -1.00000
      1002.00      897.000      29.3614      590.968      1870.69      5990.10      18764.1      31910.6      61902.5     -1.00000
      934.000      993.000      95.3210      586.275      1912.07      5966.71      19240.2      32398.4      61852.7     -1.00000
      289.000      420.000      68.3832      766.505      2348.76      7126.39      20993.9      33820.0      60853.9     -1.00000
      909.000      161.000      34.7094      599.685      1490.49      5917.33      16852.6      28920.7      61182.6     -1.00000
      990.000      458.000      29.1208      437.336      1663.33      5323.00      17076.5      29638.1      60352.4     -1.00000
      524.000      212.000      55.4832      757.144      2393.96      7209.56      21086.5      33961.9      59935.4     -1.00000
      683.000      149.000      24.7223      649.825      2043.71      6105.76      18407.7      30797.7      59616.2     -1.00000
      674.000      645.000      47.5804      716.707      2225.23      6905.01      20897.0      33735.7      59281.7     -1.00000
      1014.00      619.000      55.8987      552.766      1696.35      5233.39      16864.2      29166.1      59121.8     -1.00000
      515.000      681.000      59.9624      634.722      1997.87      6130.15      18788.4      31347.3      58977.1     -1.00000
      888.000      986.000      101.193      555.473      1738.95      5423.01      17073.8      29768.8      58954.0     -1.00000
      206.000      104.000      17.4650      607.994      1875.27      5667.85      17652.1      29901.3      58137.1     -1.00000
      178.000      169.000      27.8070      569.984      1766.10      5110.56      16179.5      27802.5      57424.1     -1.00000
      908.000      592.000      47.5922      623.911      1888.49      5789.23      18087.6      30253.7      57588.8     -1.00000
      373.000      677.000      122.155      534.773      1624.66      5018.53      16090.8      27954.1      57500.2     -1.00000
      893.000      627.000      73.1855      858.917      2256.48      7026.48      18122.2      30807.7      57264.5     -1.00000
      952.000      695.000      53.0067      516.581      1611.61      4993.41      16137.1      27981.3      57289.2     -1.00000
      522.000      40.0000      9.11607      705.649      1364.14      4498.24      19456.4      29845.4      56875.1     -1.00000
      32.0000      47.0000      24.1134      600.180      1260.13      3914.77      12144.5      20646.7      56536.7     -1.00000
      694.000      40.0000      14.3470      618.268      1948.18      5785.30      17796.7      29935.2      56372.4     -1.00000
      150.000      648.000      28.1425      565.228      1763.07      5399.82      16691.1      28390.8      56637.6     -1.00000
      537.000      652.000      93.5222      541.527      1719.84      5171.30      16481.8      28115.9      56572.9     -1.00000
      800.000      542.000      23.5677      594.667      1810.44      5614.94      17262.0      29031.5      56277.5     -1.00000
      573.000      301.000      44.4639      643.896      1792.65      5502.18      16875.3      28526.9      55931.9     -1.00000
      94.0000      466.000      50.6423      515.876      1710.58      5188.08      16582.7      28181.9      55964.2     -1.00000
      214.000      936.000      98.7546      525.347      1531.18      4739.20      15689.9      27401.3      56192.0     -1.00000
      489.000      675.000      90.9768      615.389      1902.21      5678.52      17379.4      29155.8      55535.0     -1.00000
      223.000      974.000      73.4818      594.490      1770.09      5725.30      17592.8      29495.8      55595.0     -1.00000
      449.000      680.000      77.5329      522.866      1656.60      5278.29      16871.7      28710.0      55406.0     -1.00000
      529.000      804.000      57.7939      582.069      1706.18      5243.24      16432.6      28134.4      55098.4     -1.00000
      826.000      893.000      100.705      547.563      1560.27      4802.08      15162.2      26236.6      54955.4     -1.00000
      441.000      22.0000      17.8310      479.910      1598.60      4745.51      14799.7      25721.2      54330.0     -1.00000
      213.000      240.000      15.1181      581.388      1799.45      5365.58      16213.5      27541.2      54444.5     -1.00000
      922.000      786.000      106.831      481.981      1478.60      4587.89      14491.7      25303.7      54721.4     -1.00000
      418.000      472.000      58.3680      556.383      1697.38      5128.06      15999.8      27394.6      54272.9     -1.00000
      113.000      618.000      16.2129      555.781      1625.25      4946.72      15852.7      27437.1      54235.0     -1.00000
      640.000      998.000      67.6698      219.560      466.289      769.710      1302.47      1855.90      54195.5     -1.00000
      75.0000      421.000      43.8946      540.861      1666.10      5073.66      15681.7      26876.6      53230.5     -1.00000
      1022.00      161.000      23.4347      554.586      1759.43      5337.72      16257.6      27322.2      52887.6     -1.00000
      364.000      114.000      4.14810      822.077      2424.62      7096.31      20238.2      31495.0      52727.9     -1.00000
      515.000      977.000      68.6392      568.354      1750.46      5226.41      16425.4      27425.2      53089.7     -1.00000
      933.000      495.000      14.3760      491.551      1535.30      4754.01      14830.3      25649.0      52555.5     -1.00000
      460.000      163.000      30.7661      539.684      1641.88      5015.10      15438.4      26276.5      52286.2     -1.00000
      816.000      564.000      77.9394      482.238      1437.82      4337.77      13883.5      24271.0      51954.7     -1.00000
      735.000      955.000      58.7473      563.528      1668.22      5025.10      15825.3      26846.0      52420.1     -1.00000
      583.000      9.00000      14.3482      454.167      1522.58      4515.56      14092.5      24398.4      51892.4     -1.00000
      506.000      560.000      64.2100      704.152      2298.48      7142.65      21857.7      34501.7      51456.3     -1.00000
      597.000      612.000      26.6758      643.035      1953.79      5916.91      17681.0      28531.6      51418.6     -1.00000
      594.000      989.000      83.6988      479.856      1474.58      4598.41      14938.9      25603.6      51247.8     -1.00000
      971.000      755.000      65.7147      495.086      1419.40      4444.08      14383.9      24905.1      50933.2     -1.00000
      705.000      439.000     -7.45172      525.463      1622.12      4757.24      15211.9      25884.8      50691.1     -1.00000
      333.000      1021.00      63.6879      501.103      1598.26      4714.15      14856.2      25486.8      50921.8     -1.00000
      995.000      339.000      29.4109      537.333      1810.58      5377.15      16331.6      26843.1      50491.2     -1.00000
      896.000      73.0000      13.9746      538.474      1586.75      4749.57      14870.0      25236.2      50107.8     -1.00000
      87.0000      181.000     -9.32168      514.195      1607.54      4832.96      14870.7      25094.9      50045.5     -1.00000
      511.000      125.000      27.4586      102.848      167.673      239.599      407.693      477.301      49920.7     -1.00000
      760.000      722.000      38.1394      500.145      1467.29      4467.09      14222.2      24553.1      50093.0     -1.00000
      457.000      201.000      16.1780      516.096      1590.92      4677.72      14349.6      24478.7      49328.8     -1.00000
      390.000      983.000      88.0061      503.990      1411.66      4340.53      13941.4      23995.2      49298.4     -1.00000
      164.000      894.000      64.6616      541.962      1668.20      4855.92      15261.6      25287.2      49233.7     -1.00000
      354.000      280.000      39.1650      388.589      1385.36      4133.53      13137.9      22860.6      48620.5     -1.00000
      1002.00      688.000      79.1717      1521.02      4914.33      13343.6      28414.2      36836.9      48648.7     -1.00000
      604.000      268.000      45.9679      437.487      1465.27      4398.18      13688.7      23575.0      47812.2     -1.00000
      524.000      366.000      31.1780      505.774      1587.19      4701.78      14352.3      24256.8      47802.4     -1.00000
      528.000      812.000      101.641      500.962      1517.34      4515.24      13993.5      24028.6      47823.4     -1.00000
      693.000      648.000      97.7726      477.297      1400.91      4072.15      12748.5      22643.0      47681.7     -1.00000
      179.000      886.000      71.5651      497.527      1568.53      4619.87      14156.8      24064.9      47737.6     -1.00000
      802.000      772.000      83.4497      537.127      1543.25      4751.43      14603.9      24824.7      47258.7     -1.00000
      117.000      372.000      10.1534      459.971      1301.34      3915.20      12600.1      22055.0      46993.6     -1.00000
      582.000      354.000      32.8251      468.328      1446.26      4279.81      13546.9      23122.3      46954.6     -1.00000
      835.000      717.000      116.746      528.004      1550.14      4529.43      13967.1      24181.2      47035.6     -1.00000
      259.000      133.000      32.0474      114.490      234.176      366.266      596.742      1549.68      46725.0     -1.00000
      756.000      861.000      67.5283      469.351      1236.34      3769.64      12308.8      21496.9      47067.5     -1.00000
      619.000      494.000      55.5605      470.045      1504.97      4603.17      14188.1      23968.7      46619.3     -1.00000
      865.000      883.000      59.3870      491.009      1422.12      4228.51      13610.9      23191.5      46681.8     -1.00000
      979.000      968.000      36.4445      482.705      1458.22      4541.65      14162.1      23740.8      46616.9     -1.00000
      22.0000      494.000      65.4374      459.663      1359.48      3960.28      12694.7      22152.2      46283.5     -1.00000
      831.000      25.0000      28.4153      489.992      1517.60      4467.48      13806.8      23187.0      45699.7     -1.00000
      806.000      136.000      19.5492      434.720      1347.81      4039.58      12586.6      21817.8      45334.3     -1.00000
      615.000      147.000      18.3808      416.870      1266.27      3703.34      11253.7      24683.5      45295.2     -1.00000
      751.000      394.000      43.5099      507.883      1412.92      4086.70      12778.5      22255.3      45344.6     -1.00000
      140.000      394.000      78.6617      468.805      1445.37      4274.44      13324.0      22545.4      45329.9     -1.00000
      361.000      648.000      97.8361      507.137      1527.74      4772.34      14657.6      24137.9      45080.1     -1.00000
      734.000      62.0000      6.82771      476.630      1516.18      4467.56      13537.9      22929.0      44716.1     -1.00000
      894.000      576.000      74.2009      483.698      1385.79      4152.49      13074.3      22343.9      44956.9     -1.00000
      1002.00      785.000      51.7774      460.026      1349.28      4162.94      12907.6      22336.6      44765.9     -1.00000
      251.000      496.000      63.4520      467.985      1341.68      4046.66      12978.2      21989.6      44584.6     -1.00000
      939.000      660.000      50.7583      420.837      1322.69      4048.91      12900.8      22099.8      44316.4     -1.00000
      383.000      257.000      21.0213      438.407      1393.79      4135.31      12775.5      21770.6      44062.8     -1.00000
      432.000      719.000      61.9680      433.640      1392.88      4064.19      12978.1      22263.9      44217.1     -1.00000
      994.000      577.000      41.8808      457.772      1410.31      4202.15      12930.5      22127.6      43867.6     -1.00000
      856.000      763.000      41.7441      425.047      1231.36      3829.81      12567.1      21824.9      43921.5     -1.00000
      505.000      972.000      77.6045      416.075      1211.36      3597.87      11786.5      20747.5      43975.1     -1.00000
      682.000      313.000      57.4505      448.067      1368.06      4051.57      12440.3      21384.3      43398.9     -1.00000
      538.000      317.000      16.5666      483.671      1414.57      4323.82      12981.0      22050.5      43305.8     -1.00000
      472.000      475.000      76.9512      445.063      1259.82      3913.74      12448.8      21352.9      43052.3     -1.00000
      589.000      469.000      14.7209      456.024      1373.95      4111.80      12673.7      21516.3      42733.2     -1.00000
      947.000      52.0000      21.3675      81.0070      124.959      230.791      325.699      534.823      42468.6     -1.00000
      85.0000      62.0000      30.6672      446.550      1289.64      3866.83      11832.4      20546.5      42445.1     -1.00000
      474.000      539.000      94.6426      423.487      1323.76      3936.38      12317.1      21112.5      42389.0     -1.00000
      283.000      219.000      35.5741      413.857      1305.95      3831.37      11836.6      20470.9      42228.5     -1.00000
      6.00000      370.000      86.6517      483.566      1431.01      4266.38      13065.0      21835.9      42155.0     -1.00000
      914.000      523.000      44.5814      475.275      1339.14      3950.81      12536.7      21026.4      42136.6     -1.00000
      842.000      225.000      41.5668      392.552      1293.13      3874.14      12000.6      20690.8      42001.4     -1.00000
      330.000      298.000      56.9083      442.335      1412.11      4097.91      12537.5      21250.3      42014.4     -1.00000
      445.000      159.000      28.2624      450.324      1429.10      4150.15      12663.1      20759.2      41892.4     -1.00000
      785.000      438.000      42.8510      408.911      1238.55      3685.19      11464.3      19898.0      41961.9     -1.00000
      719.000      114.000     -10.2607      476.015      1559.83      4610.87      13600.6      22214.4      41622.7     -1.00000
      168.000      603.000      28.1525      445.496      1364.27      4176.15      12812.5      21440.5      41817.5     -1.00000
      828.000      681.000      59.3958      448.546      1398.43      4184.03      12565.9      21394.0      41738.9     -1.00000
      549.000      715.000      29.0592      472.902      1343.36      3872.69      12122.4      20775.9      41684.9     -1.00000
      940.000      335.000      63.0890      410.682      1296.80      3863.20      11850.3      20218.4      41234.8     -1.00000
      780.000      518.000      5.85297      457.220      1343.99      3912.37      12151.1      20748.3      41270.5     -1.00000
      783.000      105.000      9.41690      419.021      1319.00      3808.74      12116.2      20265.7      40958.9     -1.00000
      536.000      746.000      53.1638      443.506      1238.66      3614.16      11556.6      20063.4      41230.7     -1.00000
      83.0000      454.000      50.2506      416.622      1247.81      3847.05      11998.8      20519.2      40809.0     -1.00000
      914.000      586.000      43.6783      429.148      1293.78      3769.71      11729.2      20112.8      40849.3     -1.00000
      643.000      899.000      78.3543      371.052      1055.86      3119.37      10077.6      17959.1      39342.7     -1.00000
      833.000      327.000     -5.05872      69.2046      159.461      264.282      373.043      672.973      40599.4     -1.00000
      482.000      595.000      34.9017      420.502      1243.08      3919.23      11839.6      19786.0      40684.8     -1.00000
      708.000      786.000      35.4103      426.881      1228.68      3677.32      11964.4      20149.6      40402.4     -1.00000
      501.000      563.000      30.3754      373.853      1172.74      3535.72      11098.7      19342.4      40038.7     -1.00000
      375.000      165.000      34.7820      404.406      1212.02      3616.17      11262.9      19375.0      39842.2     -1.00000
      695.000      759.000      40.6963      403.213      1172.41      3450.35      11062.7      19059.9      40060.8     -1.00000
      115.000      807.000      90.8039      438.845      1324.60      3728.45      11644.5      19971.1      40051.4     -1.00000
      209.000      664.000      81.0063      437.701      1161.95      3362.51      11056.0      19143.0      39970.1     -1.00000
      685.000      840.000      73.5424      611.559      1908.35      6003.64      19010.4      32121.4      39860.3     -1.00000
      594.000      21.0000      23.1598      349.334      1178.68      3517.93      10980.0      18808.8      39412.4     -1.00000
      125.000      390.000      36.6593      381.136      1194.76      3556.26      11183.2      19298.2      39240.4     -1.00000
      456.000      171.000      40.5959      452.536      1235.79      3572.96      11066.7      18976.3      39031.7     -1.00000
      149.000      759.000      38.4733      435.328      1254.62      3641.86      11707.4      19722.0      38921.8     -1.00000
      496.000      782.000      98.2109      387.289      1155.38      3368.40      10624.1      18608.6      38903.3     -1.00000
      487.000      919.000      67.6452      380.683      1076.41      3196.04      10224.3      17730.5      37895.3     -1.00000
      586.000      247.000      16.8181      364.921      1156.46      3407.93      10561.6      18512.5      38497.8     -1.00000
      601.000      504.000      95.9932      431.880      1216.00      3475.35      10809.2      18741.3      38462.5     -1.00000
      771.000      20.0000      37.3849      415.932      1254.01      3712.27      11369.9      19301.8      38181.6     -1.00000
      876.000      717.000      73.6880      391.456      1117.80      3409.25      11070.0      18895.4      38302.6     -1.00000
      333.000      596.000      99.1967      417.340      1225.73      3700.23      11397.4      19370.6      38183.4     -1.00000
      1007.00      848.000      113.628      372.448      1098.10      3221.89      10257.4      18208.8      38255.4     -1.00000
      669.000      867.000      58.5935      244.891      1215.26      3609.28      11331.3      19559.8      38256.4     -1.00000
      574.000      827.000      52.4857      383.640      1116.81      3206.43      10387.2      18125.0      38229.5     -1.00000
      103.000      37.0000      25.3996      358.261      1125.16      3359.12      10289.7      17747.6      37884.9     -1.00000
      371.000      307.000      41.2215      376.145      1140.66      3392.96      10677.7      18370.9      37733.7     -1.00000
      965.000      673.000      84.4471      381.383      1057.84      3225.64      10422.2      18199.3      37861.7     -1.00000
      582.000      882.000      103.440      462.660      1144.85      3163.85      10403.7      18082.8      37922.6     -1.00000
      289.000      792.000      75.9706      331.574      975.497      3004.81      9232.23      15799.5      34798.8     -1.00000
      657.000      33.0000      35.5446      389.172      1268.41      3620.01      10899.2      18635.7      37270.0     -1.00000
      528.000      749.000      63.9451      428.864      1180.23      3492.05      10933.3      18693.6      37525.1     -1.00000
      324.000      751.000      64.3179      430.102      1181.29      3467.12      11003.9      18589.0      37518.4     -1.00000
      364.000      221.000      44.5450      359.426      1082.08      3041.62      9468.22      16264.6      34354.8     -1.00000
      999.000      354.000      43.8759      380.456      1117.25      3385.56      10362.1      18013.8      37140.5     -1.00000
      180.000      864.000      46.5033      418.450      1193.92      3525.50      10978.5      18729.4      37307.7     -1.00000
      792.000      1008.00      106.126      397.178      690.549      1145.92      2328.22      11614.0      37272.0     -1.00000
      106.000      508.000      17.9518      366.550      1008.48      3102.59      9897.69      17450.2      37069.8     -1.00000
      734.000      477.000      26.3691      396.749      1201.70      3487.12      10764.4      18274.7      36959.3     -1.00000
      707.000      758.000      81.1406      434.387      1256.83      3694.87      11260.9      19111.9      36887.2     -1.00000
      682.000      926.000      35.6196      388.874      1099.73      3184.52      10425.1      17979.7      36936.1     -1.00000
      773.000      74.0000     -6.26266      341.122      1176.44      3435.72      10503.0      17868.4      36201.1     -1.00000
      710.000      19.0000    0.0360709      400.874      1192.65      3454.32      10449.6      17786.7      35719.4     -1.00000
      1.00000      565.000      25.1814      436.658      1296.24      3688.56      11406.4      18900.4      35921.8     -1.00000
      711.000      659.000      71.2564      374.763      1133.50      3293.82      10410.3      17780.7      35894.6     -1.00000
      438.000      617.000      16.9795      348.450      1088.50      3175.22      9763.12      16953.3      35612.9     -1.00000
      906.000      836.000      94.6794      367.485      1046.64      3056.42      9881.39      17128.7      35695.7     -1.00000
      777.000      947.000      111.087      409.157      1110.69      3207.06      9948.22      17311.8      35604.7     -1.00000
      282.000      969.000      104.839      363.270      1029.73      3139.59      9760.80      17148.2      35594.8     -1.00000
      604.000      844.000      82.0292      357.062      998.646      2963.17      9535.27      16745.1      35445.6     -1.00000
      541.000      363.000      39.6405      353.536      1091.11      3091.34      9717.30      16777.1      35185.0     -1.00000
      655.000      969.000      84.0480      377.942      1075.20      3068.60      9869.72      16987.4      35390.3     -1.00000
      943.000      136.000      7.68322      464.038      1375.60      4056.36      11870.9      19286.8      35041.5     -1.00000
      874.000      751.000      70.9387      366.938      1050.85      3082.42      9671.21      16793.9      35055.7     -1.00000
      280.000      597.000      68.8011      364.460      1130.82      3304.30      10076.0      17232.2      34984.3     -1.00000
      246.000      899.000      41.3304      377.825      1019.56      2882.35      9257.82      16154.6      34665.9     -1.00000
      802.000      375.000      49.7487      353.854      1104.42      3228.26      9910.22      16853.1      34772.3     -1.00000
      883.000      9.00000     -29.3575      378.658      1135.89      3432.91      10317.9      17301.8      34607.7     -1.00000
      337.000      269.000      19.3977      367.923      1091.36      3255.02      9784.73      16871.6      34568.6     -1.00000
      795.000      810.000      47.4772      371.070      983.825      2928.98      9390.25      16271.6      34627.3     -1.00000
      267.000      6.00000      3.76117      375.333      1113.79      3294.01      9924.29      17026.5      34326.7     -1.00000
      895.000      587.000      29.9054      339.270      1060.15      3065.04      9758.25      16768.2      34510.4     -1.00000
      376.000      807.000      120.022      374.775      1143.16      3230.08      9944.25      17147.1      34540.8     -1.00000
      811.000      215.000      38.4321      349.618      1079.08      3210.05      10039.7      17210.8      34182.3     -1.00000
      589.000      648.000      92.6408      395.240      1070.51      3177.16      9742.57      16875.8      34296.7     -1.00000
      158.000      413.000      7.01247      404.905      1130.32      3164.37      9718.02      16642.1      34161.9     -1.00000
      742.000      246.000     -2.08606      343.673      1058.71      3067.42      9436.08      16297.8      34078.7     -1.00000
      806.000      942.000      66.2655      336.092      1004.09      2793.69      8840.11      15681.4      33736.5     -1.00000
      133.000      181.000      28.1961      371.725      1120.59      3281.56      9999.57      16996.5      33909.5     -1.00000
      1.00000      865.000      56.9308      357.952      1085.65      3201.96      9792.57      16730.9      34146.1     -1.00000
      640.000      724.000      37.8668      351.189      989.857      2840.86      8155.96      15829.1      33960.1     -1.00000
      871.000      40.0000      16.7927      325.739      1109.71      3307.67      9942.02      17100.8      33636.9     -1.00000
      947.000      587.000      26.3385      361.226      1009.19      2985.98      9366.55      16124.1      33815.4     -1.00000
      907.000      84.0000      19.4773      332.230      1112.99      3222.48      9759.21      16679.3      33589.2     -1.00000
      162.000      1019.00      64.1735      269.858      496.106      767.067      1248.61      1649.84      33893.2     -1.00000
      603.000      145.000      36.5005      374.756      1080.79      3233.45      9762.25      16523.8      33560.1     -1.00000
      846.000      830.000      49.4021      351.489      1023.77      3059.37      9386.21      16105.8      33783.1     -1.00000
      586.000      158.000      41.5364      308.088      1085.48      3107.42      9562.52      16307.1      33535.2     -1.00000
      729.000      676.000      91.3983      366.861      1049.15      2995.04      9310.51      16373.7      33632.4     -1.00000
      496.000      7.00000      11.4738      336.930      1070.63      3062.29      9323.84      16091.3      33304.7     -1.00000
      404.000      219.000      25.0137      335.201      1067.44      3060.89      9372.54      16176.8      33256.3     -1.00000
      934.000      407.000      52.7887      373.730      1049.98      3214.05      9607.97      16380.4      33122.4     -1.00000
      603.000      359.000      39.5153      304.374      976.750      2814.39      8926.43      15349.0      33010.7     -1.00000
      202.000      892.000      63.1369      418.950      1048.80      3114.29      9512.83      16383.7      33086.4     -1.00000
      620.000      217.000     -8.71869      334.057      1048.76      2978.11      9175.01      15596.2      32436.8     -1.00000
      839.000      552.000      50.5563      352.571      1003.48      2869.93      9219.89      15855.3      32529.6     -1.00000
      806.000      11.0000      3.05150      308.425      993.836      3094.75      9422.35      15844.1      32099.2     -1.00000
      14.0000      1023.00      72.2769      340.467      1010.52      2799.85      8833.06      15322.3      32362.1     -1.00000
      935.000      624.000      27.9610      318.793      941.868      2623.63      8241.53      14347.8      30288.4     -1.00000
      878.000      182.000      32.2481      262.457      907.277      2644.00      8053.54      13920.6      29177.6     -1.00000
      526.000      583.000      67.6118      366.576      1026.32      3021.59      9153.91      15494.7      31919.1     -1.00000
      160.000      554.000      50.2051      339.983      1024.74      2924.72      8958.84      15427.2      31881.1     -1.00000
      645.000      257.000      56.4462      312.294      824.548      2444.22      7294.57      12589.0      26252.7     -1.00000
      1012.00      412.000      22.0763      289.338      968.021      2882.89      8889.37      15371.0      31641.6     -1.00000
      599.000      572.000      39.4003      358.181      976.821      2769.41      8659.47      14937.9      31743.6     -1.00000
      126.000      207.000      33.8878      277.384      951.934      2723.76      8518.68      14777.0      31578.9     -1.00000
      149.000      871.000      102.982      343.108      983.598      2854.95      9093.42      15466.7      31696.4     -1.00000
      315.000      153.000      55.1040      305.567      992.226      2839.38      8617.69      14941.7      31610.4     -1.00000
      73.0000      633.000      44.5755      307.829      905.657      2627.84      8426.05      14628.0      31335.7     -1.00000
      313.000      809.000      87.2412      368.873      1061.56      2916.66      8965.55      15523.8      31594.5     -1.00000
      433.000      445.000      57.1891      361.209      1024.28      2986.87      9173.17      15597.5      31428.4     -1.00000
      704.000      599.000      24.4092      339.332      1006.91      2900.65      9020.73      15442.1      31440.0     -1.00000
      74.0000      253.000      27.7717      289.423      983.934      2823.30      8668.65      14906.1      31509.6     -1.00000
      299.000      367.000      49.6525      341.700      926.395      2689.24      8444.87      14808.7      31261.5     -1.00000
      15.0000      161.000      33.7999      300.210      958.095      2927.70      8703.06      15197.3      31754.7     -1.00000
      742.000      390.000      52.9344      440.952      1276.83      3754.21      11183.2      18094.5      31242.0     -1.00000
      695.000      723.000      47.3497      311.451      956.789      2682.15      8388.60      14581.7      31336.5     -1.00000
      84.0000      903.000      81.4092      310.383      894.378      2653.22      8296.99      14555.9      31320.8     -1.00000
      830.000      669.000      114.578      320.647      1002.14      2814.00      8731.80      14946.8      31170.2     -1.00000
      213.000      47.0000      30.8606      286.247      996.054      2908.52      8878.21      15164.8      30942.7     -1.00000
      914.000      805.000      13.5740      323.204      934.876      2687.09      8505.02      14952.3      31193.4     -1.00000
      576.000      474.000      95.0813      338.851      1008.25      2973.57      9093.81      15348.9      31074.1     -1.00000
      538.000      1018.00      51.0928      345.729      922.833      2572.71      8295.54      14725.2      31066.4     -1.00000
      528.000      635.000      96.7247      322.889      1005.42      2752.98      8449.81      14747.8      30872.4     -1.00000
      30.0000      148.000      64.4546      337.063      1018.40      2997.15      8986.68      15348.0      30663.4     -1.00000
      536.000      286.000      39.2820      354.331      990.061      2943.23      8922.65      15152.2      30653.3     -1.00000
      712.000      848.000      60.0218      344.155      965.931      2814.16      8678.80      14907.1      30788.1     -1.00000
      490.000      624.000      73.7922      328.043      873.973      2477.51      8271.11      14384.8      30649.9     -1.00000
      518.000      860.000      62.9871      172.388      324.081      464.420      848.946      1346.52      30688.6     -1.00000
      463.000      608.000      43.3970      190.595      408.122      945.948      2599.32      4311.89      30591.6     -1.00000
      585.000      646.000      80.9696      331.379      868.746      2559.63      8182.00      14218.4      30415.3     -1.00000
      605.000      658.000      45.7124      315.508      937.834      2785.45      8607.66      14843.3      30480.6     -1.00000
      441.000      823.000      82.7329      342.631      994.108      2859.04      8941.71      15402.3      30450.6     -1.00000
      599.000      149.000      13.8389      358.874      983.395      2829.06      8718.05      14812.4      30223.5     -1.00000
      549.000      500.000      74.7604      331.070      924.349      2705.13      8135.44      14231.6      30180.7     -1.00000
      63.0000      866.000      51.1464      395.690      1057.50      3161.18      9397.87      15622.2      30226.7     -1.00000
      1.00000      406.000      1.34703      280.691      782.710      2280.34      6757.39      9045.55      18750.1     -1.00000
      78.0000      397.000      52.7157      310.362      952.132      2652.22      8216.17      14154.4      30121.0     -1.00000
      987.000      41.0000      17.0566      278.906      901.461      2640.66      8215.25      14108.6      30025.9     -1.00000
      103.000      36.0000      14.0364      353.409      930.472      2655.13      8156.73      14108.5      29849.6     -1.00000
      678.000      583.000      12.3951      352.210      996.800      2760.56      8685.83      15159.4      29760.7     -1.00000
      274.000      1013.00      77.4747      289.045      847.848      2416.40      7902.04      13712.0      29868.2     -1.00000
      153.000      15.0000      23.4010      335.277      1041.04      3004.82      8960.19      15051.6      29481.8     -1.00000
      426.000      950.000      82.2192      313.962      934.641      2612.33      8265.53      14106.1      29779.3     -1.00000
      119.000      869.000      110.864      316.171      936.742      2620.88      8259.83      14297.7      29570.6     -1.00000
      432.000      406.000      90.6491      336.152      993.942      2896.61      8683.79      14774.7      29421.7     -1.00000
      644.000      586.000      76.6426      361.656      919.828      2639.49      8095.36      13905.7      29526.2     -1.00000
      282.000      250.000      54.1014      367.734      1005.03      2864.51      8546.10      14598.1      29199.8     -1.00000
      833.000      731.000      73.6040      387.134      963.560      2686.37      8297.34      14280.9      29282.9     -1.00000
      471.000      91.0000      31.5620      266.431      951.521      2741.80      8269.58      14077.2      28997.7     -1.00000
      99.0000      868.000      72.6891      309.088      909.683      2609.69      8116.83      14132.2      29172.2     -1.00000
      920.000      486.000      82.4916      278.194      866.995      2535.61      7905.16      13822.7      28890.8     -1.00000
      228.000      447.000      27.2545      334.347      943.017      2695.44      8187.95      14134.0      28868.7     -1.00000
      461.000      293.000      47.5477      290.982      954.834      2672.28      8120.44      13891.2      29197.1     -1.00000
      292.000      308.000      23.2337      306.656      903.048      2533.11      7901.26      13688.6      28957.9     -1.00000
      499.000      361.000      36.4276      323.695      1046.65      2955.12      8440.67      14361.5      28725.2     -1.00000
      619.000      866.000      72.0261      335.730      845.005      2442.47      7594.70      13388.7      28518.5     -1.00000
      594.000      431.000      60.1632      300.634      891.834      2561.34      7902.38      13705.9      28542.3     -1.00000
      996.000      905.000      104.486      314.455      804.825      2485.02      7658.19      13325.7      28453.8     -1.00000
      77.0000      269.000      10.5489      316.720      965.823      2786.25      8270.31      14076.4      28436.8     -1.00000
      696.000      962.000      67.0552      371.420      989.447      2765.59      8486.36      14515.2      28537.9     -1.00000
      911.000      557.000      23.8521      350.811      959.563      2839.58      8540.20      14425.9      28321.5     -1.00000
      650.000      551.000      79.5277      330.894      897.468      2554.06      7900.53      13589.4      28265.5     -1.00000
      81.0000      332.000      47.6688      299.257      939.030      2645.77      8051.83      13773.8      28134.0     -1.00000
      823.000      997.000      56.7295      293.499      827.667      2438.34      7551.44      13253.8      28258.9     -1.00000
      103.000      635.000      46.3131      299.586      895.541      2544.43      7953.61      13653.5      28120.9     -1.00000
      793.000      110.000      41.6344      299.609      919.628      2689.26      8241.67      14467.7      27940.6     -1.00000
      159.000      679.000      87.8983      310.622      878.071      2474.23      7569.47      13351.8      28111.9     -1.00000
      918.000      895.000      102.194      354.987      917.831      2718.28      8380.16      14216.7      28044.7     -1.00000
      939.000      387.000      72.9093      350.315      996.832      3075.63      9156.49      14966.0      27886.4     -1.00000
      882.000      758.000      32.4661      312.046      834.671      2352.91      7445.26      13064.6      27979.7     -1.00000
      447.000      680.000      63.6997      342.067      976.350      2693.14      8303.69      14004.4      27947.3     -1.00000
      895.000      903.000      125.246      350.242      883.215      2583.49      8205.96      13809.7      27983.5     -1.00000
      610.000      850.000      64.6340      294.483      877.690      2467.44      7699.04      13281.4      27950.0     -1.00000
      736.000      479.000      67.3883      299.931      890.594      2531.83      7775.20      13461.9      27816.3     -1.00000
      23.0000      396.000      34.2995      302.869      864.766      2463.94      7562.66      13387.4      28276.3     -1.00000
      147.000      179.000      44.1903      318.169      912.103      2507.07      7762.08      13245.9      28028.4     -1.00000
      310.000      697.000      59.4235      329.030      948.569      2626.11      7881.90      13636.1      27868.5     -1.00000
      902.000      897.000      43.1830      298.029      860.578      2503.76      7793.81      13502.6      27814.0     -1.00000
      496.000      58.0000      37.0793      318.177      920.713      2614.75      7907.71      13495.6      27517.1     -1.00000
      0.00000      253.000      79.3250      456.677      1160.04      3072.07      8528.19      13976.9      27565.1     -1.00000
      995.000      502.000      48.2607      251.842      838.209      2417.00      7471.57      12946.1      27524.8     -1.00000
      385.000      377.000      32.3540      303.087      890.367      2598.55      7842.45      13315.8      27438.0     -1.00000
      843.000      346.000      26.1274      212.134      685.161      1910.55      5752.49      9803.50      20321.0     -1.00000
      676.000      139.000      9.80356      290.606      858.772      2458.15      7688.28      13114.9      27297.3     -1.00000
      614.000      300.000      24.7541      317.090      880.351      2443.27      7464.25      13008.3      27109.6     -1.00000
      413.000      579.000      61.0806      192.616      373.637      613.650      913.982      1309.80      27176.5     -1.00000
      71.0000      531.000      56.8793      300.153      870.338      2465.35      7630.70      13046.3      27098.8     -1.00000
      990.000      742.000      99.9671      238.580      843.653      2461.82      7856.89      13466.7      27133.3     -1.00000
      5.00000      543.000      40.6495      252.734      788.583      2212.50      6698.48      11527.8      24045.5     -1.00000
      746.000      648.000      45.0648      291.566      824.460      2328.24      7363.26      12917.9      26981.1     -1.00000
      46.0000      624.000      40.0266      340.235      900.486      2492.80      7605.67      13172.5      26948.8     -1.00000
      556.000      196.000      25.7849      300.312      839.047      2516.71      7082.70      12615.1      25695.0     -1.00000
      487.000      107.000      9.90153      322.892      909.100      2536.21      7628.79      13161.7      26685.7     -1.00000
      614.000      780.000      76.6321      438.405      1184.42      3552.21      11444.4      12960.4      26878.9     -1.00000
      835.000      964.000      89.3171      155.354      327.099      669.576      7459.32      2854.60      26923.3     -1.00000
      737.000      541.000      50.6727      314.844      902.705      2435.74      7639.48      13117.7      26791.8     -1.00000
      516.000      1007.00      66.8248      306.119      865.416      2408.75      7494.84      13107.1      26902.4     -1.00000
      971.000      699.000      94.9079      263.579      859.261      2401.19      7318.94      12897.4      26791.6     -1.00000
      505.000      457.000      45.5374      299.687      892.739      2469.49      7603.66      12969.1      26649.9     -1.00000
      848.000      835.000      69.4305      323.801      638.303      1778.64      8215.18      13581.9      26731.2     -1.00000
      864.000      553.000      38.4990      259.027      743.228      2066.61      6382.12      11032.7      23063.6     -1.00000
      827.000      332.000      62.0271      242.264      722.081      1950.37      5883.91      10085.4      20909.4     -1.00000
      584.000      582.000      77.9586      294.936      792.137      2342.38      7305.79      12719.5      26441.4     -1.00000
      1023.00      224.000      32.6119      385.803      1071.08      2751.94      7651.33      12924.3      26147.1     -1.00000
      409.000      357.000      31.2424      254.458      856.378      2376.66      7431.78      12772.5      26285.2     -1.00000
      1012.00      731.000      89.8242      260.634      748.148      2064.81      6427.57      11073.5      23328.5     -1.00000
      519.000      500.000      97.6646      270.290      862.962      2405.16      7393.69      12705.3      26241.3     -1.00000
      325.000      269.000      36.9881      308.431      921.747      2475.96      7597.29      12829.6      26172.5     -1.00000
      791.000      422.000      14.1847      283.329      855.709      2390.37      7437.72      12817.0      26196.3     -1.00000
      841.000      321.000      52.2496      269.710      831.246      2376.59      7223.85      12541.0      26064.6     -1.00000
      949.000      865.000      53.4020      249.889      713.488      1991.05      6721.47      11806.4      25640.5     -1.00000
      630.000      841.000      74.1027      295.584      834.873      2341.82      7385.37      12577.7      26104.3     -1.00000
      86.0000      411.000      23.0836      217.824      617.562      1689.67      4939.14      8267.18      16906.3     -1.00000
      453.000      667.000      82.7791      290.584      716.272      2035.81      6058.25      10445.5      21734.0     -1.00000
      84.0000      6.00000      26.3860      311.993      848.706      2488.19      7351.89      12648.9      25788.1     -1.00000
      184.000      626.000      84.4393      294.465      881.471      2424.90      7330.08      12596.0      25846.3     -1.00000
      508.000      661.000      118.050      311.372      857.149      2355.33      7310.71      12555.4      25852.7     -1.00000
      681.000      401.000      65.0990      287.533      846.537      2468.81      7443.86      12630.6      25704.6     -1.00000
      20.0000      913.000      104.299      289.545      802.870      2283.51      7044.12      12064.5      25738.2     -1.00000
      143.000      381.000      50.1214      288.262      832.966      2349.77      7168.91      12369.5      25481.1     -1.00000
      317.000      581.000      56.2717      307.852      869.436      2399.79      7411.22      12516.8      25528.6     -1.00000
      249.000      742.000      123.014      296.633      826.601      2360.73      7185.64      12332.2      25569.5     -1.00000
      186.000      997.000      62.5930      295.676      755.410      2190.47      6535.55      11591.6      25601.2     -1.00000
      79.0000      979.000      74.2266      294.502      772.076      2200.17      6977.40      12180.7      25497.9     -1.00000
      744.000      427.000      29.5431      268.341      849.299      2384.12      7225.98      12519.6      25278.8     -1.00000
      258.000      180.000      46.1759      268.020      808.569      2301.02      7067.50      12007.1      25126.5     -1.00000
      951.000      621.000      17.1318      321.113      848.207      2358.76      7297.31      12722.8      26803.0     -1.00000
      343.000      842.000      50.6688      324.280      856.647      2476.75      7440.82      12609.7      25223.8     -1.00000
      483.000      353.000      83.1946      291.707      878.718      2449.98      7321.68      12387.6      25018.7     -1.00000
      7.00000      729.000      58.6025      307.639      764.518      2158.56      6623.39      11728.9      24995.1     -1.00000
      631.000      548.000      31.5707      269.428      809.939      2249.46      6933.40      11945.7      24939.0     -1.00000
      306.000      247.000      48.1549      316.907      865.818      2365.74      7074.49      12159.9      24836.1     -1.00000
      871.000      37.0000      25.2544      268.106      819.291      2314.53      6994.70      11990.4      24723.1     -1.00000
      583.000      453.000      30.8165      308.085      845.155      2368.26      7075.50      12160.4      24788.9     -1.00000
      937.000      995.000      61.7489      294.330      746.747      2241.83      7194.98      12301.3      24928.6     -1.00000
      29.0000      803.000      69.8189      286.716      847.220      2278.50      6948.02      11997.4      24868.4     -1.00000
      513.000      668.000      67.9633      298.703      799.312      2214.15      6593.48      11510.3      23948.0     -1.00000
      660.000      424.000      35.4639      269.234      869.275      2413.43      7329.83      12479.7      24605.1     -1.00000
      236.000      397.000     -9.67505      281.041      826.645      2317.91      6831.43      11646.5      24752.2     -1.00000
      642.000      820.000      73.2290      277.526      823.389      2284.74      7080.31      11945.6      24657.9     -1.00000
      54.0000      219.000      13.4041      327.054      806.797      2370.78      6942.61      11910.7      24454.7     -1.00000
      359.000      173.000      31.9515      301.992      800.002      2226.76      6957.44      11979.0      24411.3     -1.00000
      919.000      956.000      93.7831      252.806      712.072      1992.96      6141.99      10809.0      23453.3     -1.00000
      924.000      86.0000      12.2998      308.199      768.358      2220.15      6724.16      11639.4      24558.1     -1.00000
      334.000      511.000      92.1933      290.998      794.554      2166.42      6690.77      11714.9      24436.5     -1.00000
      506.000      190.000      31.0814      327.348      830.731      2274.82      6957.58      11807.0      24310.8     -1.00000
      1008.00      157.000      7.84895      187.753      751.907      2270.10      6878.32      11776.5      24689.2     -1.00000
      950.000      834.000      44.3823      290.324      772.092      2132.72      6776.42      11594.2      24450.7     -1.00000
      764.000      390.000      72.4432      240.412      771.810      2203.25      6758.81      11662.5      24322.0     -1.00000
      511.000      801.000      74.7667      273.527      761.262      2089.08      6526.24      11312.5      24401.5     -1.00000
      407.000      36.0000      20.7699      244.791      825.401      2364.32      7018.19      11978.9      24847.3     -1.00000
      696.000      514.000      122.095      278.573      805.659      2285.83      6769.02      11614.1      24487.0     -1.00000
      955.000      178.000      6.09858      292.502      787.561      2230.66      6933.78      11929.5      24098.9     -1.00000
      99.0000      829.000      100.142      293.690      783.005      2174.25      6714.99      11527.6      24209.8     -1.00000
      57.0000      783.000      31.5579      270.603      767.542      2122.79      6553.62      11397.8      24111.7     -1.00000
