PDS_VERSION_ID         = PDS3
RECORD_TYPE            = STREAM
OBJECT                 = TEXT
  PUBLICATION_DATE     = 2014-02-19
  INTERCHANGE_FORMAT   = ASCII
  NOTE                 = "WAC hot pixel file for epoch 2004.3."
END_OBJECT             = TEXT
END

WAC hot pixel list. Lines 1 and 2 are column headings giving exposure time 
(sec) and gain state (e-/DN), respectively, of source dark images. Starting 
on line 3, first two columns indicate x and y value of hot pixel; columns 3 
through N-1 give median electron counts for each exposure bin, and last (Nth) 
column contains either the index of the exposure bin where saturation first 
occurs, or -1 if no saturation.

\begindata
      0.00000      0.00000      0.00000      10.0000      32.0000      100.000      320.000      560.000      1200.00
      0.00000      0.00000      11.7270      11.7270      27.6800      27.6800      27.6800      27.6800      27.6800
      554.000      174.000      150.149      13282.5      39357.1      99889.7      111370.      111373.      111373.      4.00000
      833.000      328.000      167.422      13663.3      40274.2      98253.1      111374.      111371.      111375.      4.00000
      792.000      1007.00      161.266      13107.7      39020.8      96009.1      111376.      111368.      111365.      4.00000
      518.000      858.000      140.201      7406.67      23781.8      68966.6      111377.      111370.      111365.      4.00000
      577.000      598.000      111.058      6219.52      20083.9      58734.3      111367.      111364.      111364.      4.00000
      685.000      585.000      126.901      7855.57      23649.8      59244.5      111367.      111377.      111370.      4.00000
      259.000      132.000      87.2533      5742.49      18398.0      52745.4      111362.      111372.      111363.      4.00000
      561.000      116.000      90.5025      6188.13      18787.4      50651.0      111367.      111371.      111370.      4.00000
      947.000      51.0000      41.9421      3811.67      12056.4      36710.7      103022.      111358.      111367.      5.00000
      162.000      1018.00      108.117      4019.14      14176.7      42343.4      105443.      111372.      111374.      5.00000
      962.000      403.000      82.2562      5402.52      16584.9      45711.0      104154.      111364.      111375.      5.00000
      365.000      612.000      128.155      3443.46      10945.2      33496.8      91278.8      111367.      111371.      5.00000
      224.000      420.000      61.5890      3018.18      9721.89      29508.2      82177.4      111371.      111372.      5.00000
      906.000      454.000      94.0638      3008.42      9626.46      28925.3      79444.0      111368.      111372.      5.00000
      554.000      175.000      40.0174      164.588      253.966      363.787      5571.08      59108.9      111377.      6.00000
      971.000      821.000      98.5933      2377.81      7919.86      24175.1      67994.6      103536.      111366.      6.00000
      615.000      629.000      72.2242      2235.54      7532.99      23285.2      66834.9      102394.      111376.      6.00000
      826.000      799.000      132.876      2572.10      8431.51      25318.1      68532.5      101660.      111363.      6.00000
      119.000      316.000      72.1389      3108.99      9806.42      28413.4      72673.5      104389.      111362.      6.00000
      54.0000      76.0000      60.0981      2931.22      9111.70      26214.5      68682.8      100215.      111365.      6.00000
      868.000      257.000      39.2366      1708.14      5523.92      17142.7      53000.8      88357.1      111369.      6.00000
      9.00000      297.000      75.0310      3268.55      10180.6      30519.1      80810.5      108489.      111363.      6.00000
      281.000      753.000      137.567      3158.22      10555.7      26637.2      73330.0      101853.      111373.      6.00000
      707.000      655.000      106.402      2867.43      9472.05      27968.8      71407.9      99716.8      111362.      6.00000
      787.000      651.000      58.8644      1861.93      6541.91      19836.2      55959.7      88171.4      111366.      6.00000
      662.000      623.000      81.6806      1492.41      4861.55      15615.5      49586.1      83521.5      111372.      6.00000
      570.000      705.000      61.7443      1671.63      5515.07      17379.3      52031.7      83437.3      111368.      6.00000
      775.000      945.000      148.561      1950.20      6280.20      19665.4      55810.8      86024.4      111379.      6.00000
      343.000      173.000      67.3849      2056.30      6538.85      19588.1      54693.2      83578.3      111372.      6.00000
      950.000      163.000      35.9412      1520.00      4843.68      15131.3      46465.1      76765.3      111361.      6.00000
      131.000      429.000      36.8736      1587.36      5257.68      16212.6      47902.8      77120.8      111365.      6.00000
      27.0000      157.000      10.9580      1710.57      5328.43      16359.2      48071.0      76861.7      111372.      6.00000
      1007.00      108.000      34.1627      1854.74      5995.46      18180.2      52107.9      79501.1      111362.      6.00000
      78.0000      277.000      50.5096      1858.18      5880.18      17641.0      50082.9      77631.9      111364.      6.00000
      196.000      915.000      111.304      1461.98      5007.14      16096.0      47907.4      75748.2      111365.      6.00000
      518.000      314.000      21.6654      1759.88      5660.22      16987.8      48549.3      75708.8      111364.      6.00000
      176.000      663.000      39.9261      1397.30      4461.83      13897.0      43034.9      70687.1      111374.      6.00000
      518.000      859.000      134.434      270.278      490.146      823.384      1652.89      40204.0      111364.      6.00000
      822.000      465.000      29.3898      1437.96      4725.28      14741.0      43609.0      69680.9      111366.      6.00000
      293.000      642.000      32.1468      1549.92      5063.54      15566.8      44885.6      69652.7      111368.      6.00000
      378.000      87.0000      12.0052      1704.84      5349.85      15923.9      44588.0      69018.4      111366.      6.00000
      139.000      210.000      7.76867      1579.03      4942.69      14805.9      42412.9      67142.2      111362.      6.00000
      631.000      4.00000      33.8679      1452.52      4569.84      13648.9      40531.6      65202.7      111369.      6.00000
      569.000      760.000      108.485      1535.79      4901.24      15032.6      43257.1      67307.3      110453.      6.00000
      625.000      654.000      70.5458      1313.25      4381.35      13811.6      40918.6      65302.3      111170.      6.00000
      372.000      333.000      56.0949      1233.53      3922.80      11547.7      38223.1      62278.8      111366.      6.00000
      91.0000      394.000      52.5456      1194.45      3695.02      11616.7      36351.1      60902.2      109736.      6.00000
      1000.00      61.0000      29.0583      1215.85      3937.70      12089.0      36639.4      60279.0      111366.      6.00000
      268.000      77.0000      37.6135      2290.12      7158.26      20321.0      50991.4      73221.9      108454.     -1.00000
      788.000      101.000      18.5103      1218.85      4059.88      12462.5      37306.0      60589.8      107220.     -1.00000
      714.000      257.000      33.3731      1145.30      3507.08      11021.6      34236.4      57253.7      106758.     -1.00000
      31.0000      908.000      112.510      1544.32      4994.75      15874.1      46734.9      73532.6      106833.     -1.00000
      547.000      370.000      85.2130      1654.24      5231.14      15777.5      43426.1      66118.7      105643.     -1.00000
      83.0000      346.000      83.9220      1198.02      3705.25      11604.1      34719.2      58275.5      105012.     -1.00000
      198.000      682.000      125.631      2341.04      7507.22      21364.6      52749.5      73922.5      104930.     -1.00000
      856.000      823.000      95.3571      1329.21      4370.62      14065.2      40445.3      62915.7      104889.     -1.00000
      204.000      490.000      81.3908      1505.05      4724.55      14236.2      40017.5      61911.7      103253.     -1.00000
      689.000      775.000      111.485      954.282      3038.90      9679.53      30378.7      51890.9      102438.     -1.00000
      378.000      741.000      67.5908      1123.95      3722.49      11638.4      35672.4      57979.2      102354.     -1.00000
      270.000      26.0000      26.5967      1089.83      3532.45      10716.9      32739.1      54164.9      99934.6     -1.00000
      590.000      545.000      31.6807      1445.11      4617.50      13780.0      39369.7      60999.2      100465.     -1.00000
      705.000      195.000      52.2457      1189.93      3886.45      11718.9      34372.6      55565.8      98170.8     -1.00000
      519.000      951.000      94.2661      1070.47      3425.15      10889.3      32849.0      53791.1      98876.2     -1.00000
      1007.00      848.000      43.0447      930.424      2907.50      9286.22      30047.7      51143.4      98143.2     -1.00000
      679.000      128.000      48.6607      1129.10      3740.62      11342.3      33789.6      54835.4      95888.2     -1.00000
      44.0000      6.00000      27.4137      1135.21      3651.94      11053.2      32813.1      52991.3      95562.4     -1.00000
      169.000      539.000      73.1135      1045.40      3415.46      10309.9      31599.6      51852.2      95202.3     -1.00000
      718.000      160.000      17.5603      991.911      3143.94      9749.56      29895.9      49825.9      93236.7     -1.00000
      107.000      183.000      45.3647      1236.33      3699.71      11232.0      32860.7      52820.5      92784.4     -1.00000
      386.000      21.0000      23.4353      1208.19      3669.25      11151.8      33943.9      55868.9      91247.4     -1.00000
      999.000      454.000      82.8306      843.407      2554.22      8108.04      25691.1      43965.7      88275.4     -1.00000
      208.000      776.000      108.233      1046.71      3169.40      9802.99      29664.7      48570.2      88289.3     -1.00000
      258.000      770.000      110.099      1202.99      4056.44      12238.5      34828.0      53700.1      87589.2     -1.00000
      95.0000      485.000      75.5890      854.260      2701.30      8303.60      25484.7      43139.7      84908.6     -1.00000
      602.000      231.000      26.2601      898.334      2814.22      8581.66      26228.5      43611.2      83473.4     -1.00000
      776.000      274.000      44.9762      793.254      2554.22      7814.07      23964.6      40974.7      82938.7     -1.00000
      349.000      949.000      74.2862      870.540      2841.64      8995.38      27619.6      45321.4      83140.9     -1.00000
      631.000      32.0000      35.0655      1089.62      3262.30      9809.78      29107.7      46877.7      82309.8     -1.00000
      996.000      806.000      105.441      782.268      2579.58      8022.66      24931.2      42309.6      82907.3     -1.00000
      117.000      400.000      36.6067      837.601      2705.57      8299.81      25788.0      43195.7      82480.6     -1.00000
      339.000      693.000      45.3917      917.441      2880.74      9006.58      27491.7      45098.8      81990.2     -1.00000
      762.000      536.000      73.9666      999.304      3005.51      9842.14      28477.0      45964.6      81796.0     -1.00000
      382.000      814.000      66.0070      856.712      2770.04      9033.90      27973.7      45360.1      80873.3     -1.00000
      426.000      434.000      9.73119      719.299      2304.94      7205.48      23087.5      39786.0      80328.0     -1.00000
      476.000      192.000      27.8767      882.131      2704.96      8314.32      25225.7      41737.5      79011.3     -1.00000
      845.000      827.000      37.4729      798.058      2553.07      8120.87      25833.7      43387.0      79514.2     -1.00000
      293.000      379.000      42.3775      943.106      2938.56      9157.17      27357.7      44272.2      78976.4     -1.00000
      521.000      499.000      29.9316      701.772      2254.24      6918.16      22063.6      38066.1      78596.5     -1.00000
      193.000      706.000      63.6902      770.889      2513.53      7959.29      24489.8      41172.7      78617.9     -1.00000
      860.000      925.000      82.7531      861.764      2703.38      8373.60      25774.1      42422.7      78241.3     -1.00000
      486.000      353.000      69.1137      853.468      2726.78      8209.62      24654.7      41323.9      76638.3     -1.00000
      22.0000      494.000      65.6641      714.488      2248.28      6979.33      22517.0      38283.4      76744.0     -1.00000
      149.000      763.000      71.4498      838.323      2673.30      8327.94      25292.3      41562.2      76792.9     -1.00000
      475.000      445.000      45.7773      771.241      2318.55      7278.86      22898.7      38814.2      76097.7     -1.00000
      828.000      871.000      41.5526      836.140      2570.68      7852.14      24237.3      40385.0      76192.0     -1.00000
      348.000      584.000      99.3336      822.317      2648.77      8056.58      24273.9      39823.2      73669.1     -1.00000
      298.000      451.000      45.7524      828.600      2718.24      8484.16      25317.4      40982.3      73091.7     -1.00000
      577.000      599.000      15.6660      159.297      362.983      539.226      984.807      5573.99      73111.2     -1.00000
      113.000      103.000      37.1359      927.884      2869.64      8394.45      24709.2      40140.2      72713.4     -1.00000
      264.000      275.000      32.8801      893.758      2811.41      8462.15      24714.6      39875.0      72695.2     -1.00000
      668.000      920.000      88.6434      701.725      2701.42      8317.27      25111.9      39951.4      73169.4     -1.00000
      794.000      636.000      15.3416      664.891      2123.31      6701.96      21104.4      36485.2      72688.8     -1.00000
      812.000      397.000      33.8867      752.938      2449.03      7337.88      22296.4      37336.0      71577.2     -1.00000
      364.000      114.000      43.5607      1219.45      3686.60      10864.4      29460.3      44554.1      70953.7     -1.00000
      894.000      781.000      39.3091      802.820      2444.18      7622.48      23314.5      38656.8      71172.2     -1.00000
      899.000      837.000      56.0024      693.232      2116.67      6746.88      21307.3      36176.8      71211.4     -1.00000
      358.000      225.000      54.3268      661.045      2094.10      6273.96      19795.8      34351.0      70665.3     -1.00000
      750.000      336.000      10.0674      680.930      2346.66      7191.71      22312.2      37312.9      70565.3     -1.00000
      626.000      890.000      36.0853      689.843      2234.23      7014.31      22027.3      37223.7      70668.8     -1.00000
      585.000      354.000      70.6843      695.323      2075.44      6442.02      20219.5      34820.7      70227.2     -1.00000
      880.000      959.000      38.8877      650.208      1912.31      5930.01      19351.8      33748.1      70484.5     -1.00000
      1002.00      695.000      60.1370      747.320      2333.17      7030.97      21572.9      36140.5      69815.2     -1.00000
      377.000      252.000      55.3439      746.528      2270.75      6996.41      21469.0      35976.6      69191.7     -1.00000
      833.000      329.000      91.5333      220.717      353.263      617.432      2100.22      35123.0      69192.3     -1.00000
      554.000      173.000      15.3722      92.0898      136.864      281.075      504.390      6905.52      68892.4     -1.00000
      497.000      390.000      33.2011      742.195      2165.18      6495.03      20432.2      37231.5      68816.4     -1.00000
      49.0000      772.000      103.787      669.145      2163.39      6562.31      20727.1      35092.3      68668.0     -1.00000
      97.0000      627.000      47.4754      758.575      2428.71      7205.80      22329.0      36716.2      68461.0     -1.00000
      333.000      901.000      48.9628      668.656      2059.93      6259.12      19796.6      33828.6      66966.5     -1.00000
      493.000      874.000      86.1526      767.434      2320.20      7226.54      21995.2      36097.0      66366.7     -1.00000
      677.000      370.000      68.8884      646.014      2025.61      6147.60      19335.8      32894.6      65965.1     -1.00000
      911.000      112.000      38.5920      592.413      1898.94      5967.19      18675.8      31778.3      65708.6     -1.00000
      231.000      20.0000      18.5071      847.785      2765.81      8165.44      23619.3      37542.8      65553.7     -1.00000
      209.000      664.000      29.3204      613.090      1862.31      5714.06      18646.7      32125.0      65907.4     -1.00000
      278.000      187.000      42.1062      677.007      2079.82      6395.40      19630.6      33477.7      65503.4     -1.00000
      431.000      741.000      96.5078      717.280      2103.49      6391.97      19944.0      33676.2      64934.0     -1.00000
      690.000      144.000      34.6368      822.052      2634.91      7908.61      23044.3      36818.0      64397.1     -1.00000
      300.000      655.000      61.1434      701.257      1862.25      6407.78      19938.9      33343.2      64584.5     -1.00000
      783.000      337.000      19.3948      674.334      2044.10      6070.04      18992.1      31782.0      63554.4     -1.00000
      356.000      70.0000      11.9767      675.130      2186.37      6593.81      19611.2      33524.2      63197.1     -1.00000
      912.000      647.000      19.6713      591.706      1748.91      5458.81      17332.9      30164.2      63563.2     -1.00000
      909.000      161.000      23.9843      577.562      1844.16      5547.97      18068.6      29709.5      61704.4     -1.00000
      715.000      218.000      23.2011      673.446      2060.09      5922.33      18087.6      31404.1      61606.4     -1.00000
      1002.00      897.000      93.8730      583.965      1954.39      6077.06      19061.8      32180.9      61602.8     -1.00000
      289.000      420.000      32.6773      781.362      2347.65      7247.81      21217.6      34092.1      61226.5     -1.00000
      524.000      212.000      54.5050      774.454      2472.47      7430.99      21577.8      34505.1      60904.4     -1.00000
      1022.00      161.000      42.0357      687.605      2066.63      6227.26      18998.5      31703.6      60820.6     -1.00000
      730.000      825.000      63.8144      625.260      1904.07      5929.08      18138.2      31009.4      60658.4     -1.00000
      524.000      366.000      82.4007      702.276      2134.66      6472.49      19238.3      32157.8      60087.3     -1.00000
      990.000      458.000      72.5042      464.745      1682.48      5292.69      16957.2      29267.4      60022.6     -1.00000
      683.000      149.000      32.8550      637.488      2024.42      6106.96      18444.7      30868.2      59676.0     -1.00000
      991.000      946.000      104.500      583.545      1835.18      5729.75      18365.8      31015.1      59979.2     -1.00000
      814.000      283.000      23.1455      678.854      2195.15      6552.81      19722.2      32256.2      59499.6     -1.00000
      674.000      645.000      61.9569      732.213      2261.15      7149.50      20894.3      34594.3      59617.1     -1.00000
      888.000      986.000      45.7835      597.540      1753.46      5565.43      17401.4      29701.7      59321.1     -1.00000
      601.000      457.000      83.9375      620.456      1864.18      5420.93      17208.7      29083.3      58969.9     -1.00000
      373.000      677.000      80.5191      583.684      1684.43      5185.26      16565.2      28699.5      58679.0     -1.00000
      206.000      104.000      35.9274      615.564      1886.60      5850.60      17926.0      30218.0      58253.2     -1.00000
      952.000      695.000      84.9728      547.163      1659.52      5085.02      16191.6      28192.7      57769.3     -1.00000
      178.000      169.000      18.7388      536.486      1761.74      5202.62      16169.6      27719.1      57357.8     -1.00000
      1014.00      619.000      55.7646      507.492      1664.44      5281.54      16614.5      28569.5      57625.5     -1.00000
      537.000      652.000      78.2219      595.339      1667.99      5296.64      16597.7      28404.5      56918.5     -1.00000
      911.000      478.000      52.9404      612.375      1925.10      5749.43      17727.8      29625.5      56642.4     -1.00000
      538.000      317.000      41.2853      625.361      1863.85      5755.21      17565.2      29413.0      56390.2     -1.00000
      529.000      804.000      74.3517      619.400      1875.85      5638.41      17320.9      29544.0      56641.6     -1.00000
      214.000      936.000      57.1360      543.914      1553.09      4813.31      15876.7      27799.1      56572.0     -1.00000
      94.0000      466.000      22.6898      552.846      1735.30      5289.38      16698.9      28408.3      56223.5     -1.00000
      800.000      542.000      44.3464      568.700      1820.10      5555.76      17138.4      28809.1      56015.9     -1.00000
      908.000      592.000      26.2747      565.106      1748.85      5432.88      16887.0      28307.3      55923.7     -1.00000
      449.000      680.000      96.7375      548.937      1727.95      5355.80      17014.8      28778.0      55836.8     -1.00000
      515.000      681.000      51.7997      629.879      1927.58      5893.80      17776.9      29554.1      55767.9     -1.00000
      503.000      279.000      18.1955      536.193      1695.57      5015.94      15695.8      26909.0      55292.1     -1.00000
      813.000      18.0000      22.5493      668.240      1994.56      5884.86      17670.2      29082.5      55116.0     -1.00000
      878.000      293.000      49.2663      586.569      1774.74      5163.39      16203.5      27544.5      55235.1     -1.00000
      694.000      40.0000      19.7330      590.295      1838.09      5583.62      16829.5      28509.1      55062.0     -1.00000
      641.000      14.0000      27.6312      572.702      1810.37      5465.37      16548.8      27991.2      54707.0     -1.00000
      441.000      22.0000      5.05625      513.440      1617.15      4837.59      14988.2      25892.9      54537.8     -1.00000
      264.000      165.000      19.6258      546.306      1689.77      5043.68      15541.6      26551.6      54336.3     -1.00000
      213.000      240.000      46.5132      601.526      1783.46      5223.02      16116.4      27334.0      54308.2     -1.00000
      515.000      977.000      66.9617      595.470      1866.65      5527.97      16849.8      28218.8      54149.6     -1.00000
      802.000      772.000      105.991      585.619      1813.08      5481.83      13313.9      28239.5      53885.0     -1.00000
      597.000      612.000      57.7295      667.539      2078.78      6213.53      18425.3      29931.5      53103.4     -1.00000
      999.000      354.000      65.6288      565.870      1642.52      5009.38      15522.8      26433.0      52874.0     -1.00000
      460.000      163.000      38.2385      501.599      1668.37      5004.54      15496.2      26322.9      52689.7     -1.00000
      75.0000      421.000     -10.8688      513.633      1645.62      5013.23      15376.8      26198.4      52521.9     -1.00000
      933.000      495.000      42.3895      492.153      1572.26      4937.67      15011.6      25870.2      52505.1     -1.00000
      164.000      894.000      78.6133      637.674      1778.38      5327.49      16545.9      27528.8      52609.3     -1.00000
      735.000      955.000      125.122      554.148      1680.53      5143.63      16046.3      27138.2      52624.8     -1.00000
      390.000      983.000      102.158      558.269      1622.32      4819.55      15226.8      26291.0      52585.4     -1.00000
      922.000      786.000      67.9148      478.681      1431.66      4361.00      13835.2      24200.3      51993.2     -1.00000
      583.000      9.00000      20.8024      527.965      1503.76      4600.08      14266.2      24665.7      51724.8     -1.00000
      594.000      989.000      133.472      495.459      1500.25      4735.73      15289.2      26171.2      52082.0     -1.00000
      552.000      971.000      119.857      470.287      1377.88      4344.53      14056.8      24644.3      53197.6     -1.00000
      149.000      759.000      43.0124      559.938      1677.20      5229.08      16592.1      27460.2      51692.4     -1.00000
      604.000      268.000      38.3837      510.242      1544.09      4636.63      14383.7      24645.0      51357.3     -1.00000
      705.000      439.000      74.3178      519.607      1617.18      4816.18      15254.1      25669.3      50936.4     -1.00000
      105.000      513.000      41.3806      516.491      1515.71      4612.62      14570.6      25005.2      50972.1     -1.00000
      835.000      717.000      68.6691      540.650      1691.67      4899.43      15254.5      26534.2      51056.8     -1.00000
      995.000      339.000      39.0442      556.914      1792.01      5330.25      16369.5      26995.0      50616.2     -1.00000
      589.000      469.000      55.6057      554.727      1624.75      4930.79      15395.3      25815.2      50277.4     -1.00000
      87.0000      181.000      32.6176      514.312      1585.99      4816.76      14804.9      25118.6      49840.8     -1.00000
      101.000      753.000      96.0716      540.556      1558.73      4766.99      14607.7      25096.6      49900.8     -1.00000
      506.000      560.000      39.3084      724.473      2271.25      7099.38      21317.9      33663.2      49688.6     -1.00000
      457.000      201.000      44.8305      539.051      1580.93      4731.53      14326.2      24520.6      49383.5     -1.00000
      246.000      899.000      87.8536      499.867      1422.86      4300.39      13663.9      23865.9      49625.0     -1.00000
      896.000      73.0000      36.5232      494.822      1521.50      4623.35      14587.5      24584.6      48910.9     -1.00000
      148.000      20.0000      25.8359      496.983      1595.99      4777.40      14594.8      24455.8      48861.0     -1.00000
      582.000      354.000      25.3978      488.812      1503.38      4558.24      14276.9      24219.3      48905.1     -1.00000
      113.000      618.000      16.4322      493.629      1469.14      4509.38      14222.6      24167.7      48916.1     -1.00000
      971.000      755.000      70.6675      455.550      1393.48      4267.29      13730.5      23846.2      48901.1     -1.00000
      354.000      280.000      29.2310      475.156      1350.95      4172.38      13153.9      22896.4      48499.8     -1.00000
      1002.00      688.000      77.9109      1577.80      4882.86      13244.8      28422.3      36797.3      48673.9     -1.00000
      760.000      722.000      47.7416      463.684      1418.25      4327.41      13753.9      23761.9      48602.7     -1.00000
      846.000      830.000      90.3232      531.457      1608.95      4717.40      14597.0      24731.7      48539.8     -1.00000
      280.000      597.000      22.4945      540.647      1558.78      4636.96      14393.3      24307.3      48060.8     -1.00000
      489.000      675.000      38.3931      542.121      1567.94      4743.62      14685.7      24722.8      47961.3     -1.00000
      528.000      812.000      47.5887      499.873      1520.95      4484.82      14040.3      24011.2      47971.9     -1.00000
      179.000      886.000      109.488      501.682      1530.83      4609.99      14234.7      23991.7      47688.4     -1.00000
      259.000      133.000      38.8123      99.4492      217.545      384.446      597.944      1621.49      46838.7     -1.00000
      117.000      372.000      60.5072      414.615      1342.84      3982.00      12725.5      22122.0      46865.7     -1.00000
      522.000      40.0000      18.4784      492.285      1424.11      4317.49      13189.8      22568.4      46446.0     -1.00000
      619.000      494.000      62.2608      510.469      1569.96      4666.51      14318.9      24071.4      46433.3     -1.00000
      893.000      627.000      50.9572      656.449      1122.10      4501.33      12889.4      24603.5      46391.1     -1.00000
      858.000      560.000      67.7617      445.598      1370.72      4111.24      12947.6      22512.2      46107.1     -1.00000
      85.0000      62.0000      10.3449      473.223      1382.85      4192.03      12834.9      22134.7      45774.8     -1.00000
      1002.00      785.000      57.4165      459.702      1440.26      4363.44      13439.4      23002.3      46008.0     -1.00000
      914.000      586.000      48.3409      480.694      1448.17      4210.00      13127.7      22607.2      45686.4     -1.00000
      418.000      472.000      90.2881      458.516      1414.99      4265.26      13150.1      22401.8      45472.7     -1.00000
      472.000      475.000      40.5284      461.768      1319.78      4204.81      13238.6      22580.8      45466.7     -1.00000
      73.0000      633.000      58.1409      479.066      1306.42      3885.72      12521.5      21766.9      45429.2     -1.00000
      751.000      394.000      40.5430      468.398      1415.71      4160.30      12806.5      22107.2      45096.3     -1.00000
      979.000      968.000      88.8823      452.663      1430.01      4401.28      13501.2      23188.0      44817.6     -1.00000
      375.000      165.000      39.9838      489.123      1394.41      3986.00      12441.1      21487.3      44353.3     -1.00000
      168.000      603.000      87.6672      526.830      1583.74      4682.97      14376.5      23618.3      44381.1     -1.00000
      618.000      759.000      49.4428      465.843      1341.84      3891.95      12342.8      21294.8      44437.6     -1.00000
      643.000      899.000      55.6567      430.822      1180.33      3583.26      11741.6      20825.3      44438.1     -1.00000
      994.000      577.000      25.0752      477.928      1373.54      4168.98      13061.3      22405.1      44044.3     -1.00000
      831.000      25.0000      28.0114      456.754      1455.93      4309.98      12985.0      22135.7      43779.1     -1.00000
      734.000      62.0000      14.6625      472.246      1488.52      4272.72      13139.9      22133.0      43504.1     -1.00000
      383.000      257.000      71.4392      458.465      1398.11      4098.70      12633.3      21555.1      43442.3     -1.00000
      505.000      972.000      63.8593      427.157      1272.44      3727.35      12005.1      21211.7      43677.0     -1.00000
      756.000      861.000      72.1324      412.430      1135.84      3508.08      11477.8      20058.8      42921.2     -1.00000
      947.000      52.0000      10.8666      62.0535      154.970      245.797      329.965      581.941      42392.9     -1.00000
      474.000      539.000      35.0810      421.194      1374.35      3959.84      12473.0      21164.5      42476.4     -1.00000
      6.00000      370.000      8.81478      500.814      1417.75      4224.28      13254.4      22010.2      42383.1     -1.00000
      843.000      346.000      58.1704      431.663      1320.33      3938.69      12214.5      20975.9      42294.9     -1.00000
      914.000      523.000      66.5005      466.427      1357.23      4011.79      12367.7      21323.4      42359.8     -1.00000
      330.000      298.000      50.4209      451.799      1426.27      4126.92      12522.0      21325.7      42022.3     -1.00000
      842.000      225.000      30.6565      490.711      1310.09      3930.71      12157.3      20706.1      41960.5     -1.00000
      283.000      219.000     0.650231      398.530      1265.80      3725.79      11775.8      20190.4      41844.6     -1.00000
      785.000      438.000      56.7670      433.372      1215.06      3593.48      11437.9      19811.1      41813.6     -1.00000
      719.000      114.000      36.2449      508.270      1554.13      4595.85      13653.9      22353.6      41437.9     -1.00000
      971.000      699.000      93.6163      418.676      1290.32      3771.95      12029.1      20665.1      41593.0     -1.00000
      940.000      335.000      29.8787      417.657      1284.54      3867.25      11899.9      20330.4      41419.0     -1.00000
      125.000      390.000      13.9587      429.646      1277.08      3891.02      11865.0      20429.5      41371.5     -1.00000
      536.000      746.000      60.8651      446.533      1247.39      3703.15      11587.9      20079.8      41458.9     -1.00000
      682.000      313.000      42.1744      428.416      1315.54      3818.39      11908.6      20361.5      41197.2     -1.00000
      780.000      518.000      42.7013      474.108      1354.00      3992.50      12253.5      20748.5      41199.4     -1.00000
      833.000      327.000      69.4679      111.195      144.001      253.440      336.529      659.036      40848.9     -1.00000
      549.000      715.000      40.6891      473.311      1299.65      3840.66      11735.4      20136.5      40347.5     -1.00000
      445.000      159.000      35.1323      455.185      1434.18      4234.25      12003.7      20350.4      39881.8     -1.00000
      64.0000      541.000      37.6414      428.495      1371.26      4058.67      12383.2      20655.5      39933.1     -1.00000
      115.000      807.000      47.5323      442.589      1310.22      3747.55      11752.8      20043.7      40015.5     -1.00000
      81.0000      332.000      32.1455      456.539      1372.14      3977.26      11923.6      20293.9      39705.9     -1.00000
      811.000      215.000      39.8606      433.852      1238.61      3639.36      11512.2      19389.4      39461.2     -1.00000
      407.000      116.000      19.1787      407.021      1182.91      3572.97      11024.9      18952.8      39315.0     -1.00000
      939.000      660.000      98.0073      382.948      1181.45      3675.80      11389.5      19560.9      39240.4     -1.00000
      719.000      37.0000      4.85266      391.567      1238.07      3628.74      11109.3      19017.7      38823.8     -1.00000
      865.000      883.000      61.9359      389.012      1217.60      3535.69      11187.7      19413.5      39161.7     -1.00000
      496.000      782.000      52.2383      382.888      1182.14      3412.77      10776.7      18617.3      39010.0     -1.00000
      601.000      504.000      38.0311      396.675      1205.17      3552.56      10970.1      18715.7      38751.0     -1.00000
      806.000      942.000      72.4433      400.456      1096.86      3219.58      10332.5      17985.8      38526.2     -1.00000
      324.000      751.000      79.8909      425.968      1212.35      3603.53      11443.5      19409.0      38763.8     -1.00000
      669.000      867.000      41.1149      448.961      1207.53      3576.64      11390.2      19383.5      38703.9     -1.00000
      457.000      391.000      35.2741      399.147      1254.85      3646.49      6745.93      6928.38      38386.8     -1.00000
      53.0000      546.000      67.8910      432.095      1252.77      3562.40      11135.9      19207.5      38357.4     -1.00000
      876.000      717.000      33.4882      390.725      1140.52      3473.32      11140.0      18892.7      38321.8     -1.00000
      487.000      919.000      126.503      387.736      1129.07      3254.41      10335.2      18058.7      38355.6     -1.00000
      140.000      452.000      71.2074      365.741      1181.21      3411.29      10547.4      18358.9      38122.3     -1.00000
      180.000      864.000      108.444      468.511      1289.55      3742.00      11270.1      19309.8      38160.7     -1.00000
      299.000      367.000      60.5671      347.643      1102.28      3322.24      10216.5      17926.0      37680.7     -1.00000
      333.000      596.000      75.5453      433.316      1271.63      3672.96      11589.2      19212.4      37761.4     -1.00000
      895.000      587.000      29.5968      410.875      1123.04      3398.08      10661.8      18456.5      37744.6     -1.00000
      528.000      749.000      93.6667      400.493      1199.03      3480.27      10946.1      18705.7      37675.8     -1.00000
      574.000      827.000      59.6008      372.474      1147.46      3202.43      10160.3      17701.8      37521.9     -1.00000
      315.000      153.000      11.6715      405.855      1121.88      3329.48      10252.4      17747.9      37250.0     -1.00000
      657.000      33.0000      8.27183      457.517      1279.28      3642.84      10927.7      18723.1      37150.5     -1.00000
      586.000      247.000      58.1300      346.601      1137.76      3308.26      10233.7      17729.7      37013.0     -1.00000
      582.000      882.000      98.8136      365.899      1098.34      3205.42      10284.6      17924.9      37205.4     -1.00000
      126.000      207.000      48.9949      353.252      1058.60      3123.11      9923.48      17267.2      36916.5     -1.00000
      693.000      648.000      60.0698      528.738      1486.27      3721.24      9235.42      17139.4      37050.6     -1.00000
      874.000      751.000      76.8405      435.139      1120.76      3258.09      10145.1      18053.5      37077.5     -1.00000
      501.000      563.000      64.0464      343.533      1109.63      2836.11      10299.1      17938.9      36545.2     -1.00000
      773.000      74.0000      3.73064      382.352      1150.77      3458.86      10501.9      17899.9      36338.4     -1.00000
      594.000      431.000      39.2504      350.534      1063.49      3231.94      10025.8      17331.1      36097.4     -1.00000
      792.000      1008.00      86.2365      351.003      641.426      1037.51      2156.85      11084.7      36204.1     -1.00000
      795.000      810.000      78.5483      369.928      1032.01      3035.21      9735.98      17142.3      36077.5     -1.00000
      1.00000      565.000      28.7844      407.117      1299.05      3719.59      11354.0      19091.7      35953.1     -1.00000
      150.000      648.000      46.7691      365.840      1125.85      3366.63      10392.9      17651.3      35785.9     -1.00000
      902.000      897.000      82.0856      382.347      1110.48      3305.80      10200.0      17444.4      35799.2     -1.00000
      232.000      86.0000      8.98279      344.990      1092.98      3123.23      9793.86      16763.2      35359.6     -1.00000
      282.000      969.000      89.4880      359.825      1084.62      3179.03      9903.87      17256.7      35691.6     -1.00000
      883.000      9.00000     -2.38520      345.607      1154.06      3499.51      10640.6      17838.4      35308.8     -1.00000
      806.000      136.000      7.02523      367.991      1085.91      3150.53      9724.35      16990.3      35344.0     -1.00000
      603.000      359.000      48.2510      360.073      1046.27      3024.38      9667.79      16485.6      35362.6     -1.00000
      603.000      145.000      13.8041      403.391      1134.50      3363.67      10203.1      17364.7      35190.2     -1.00000
      289.000      792.000      105.270      344.252      1031.34      3027.87      10152.5      17420.8      35218.3     -1.00000
      1.00000      865.000      63.8886      371.039      1110.76      3175.73      10135.7      17399.9      35216.5     -1.00000
      343.000      829.000      89.5458      354.598      1014.40      2897.01      9086.01      16019.2      34531.2     -1.00000
      426.000      950.000      104.931      392.460      1096.85      3163.72      9986.22      17210.9      35138.2     -1.00000
      149.000      871.000      52.3075      399.867      1102.81      3206.95      10127.0      17261.4      34977.3     -1.00000
      337.000      269.000      14.8098      343.276      1100.81      3243.64      9905.54      16875.5      34746.4     -1.00000
      162.000      1019.00      121.315      262.029      464.481      796.571      1195.92      1569.09      35004.8     -1.00000
      376.000      807.000      94.1674      388.682      1102.81      3180.66      10065.6      16988.1      34834.5     -1.00000
      267.000      6.00000      13.3545      400.251      1082.30      3222.39      10039.4      17010.1      34522.0     -1.00000
      540.000      950.000      78.8219      386.089      962.656      3063.89      9515.10      16561.8      34843.2     -1.00000
      386.000      935.000      84.0618      401.697      1168.84      3178.25      9535.38      16976.7      34828.5     -1.00000
      84.0000      903.000      54.7730      350.591      1002.74      2934.06      9171.74      16075.5      34561.1     -1.00000
      589.000      648.000      24.8890      328.624      1085.54      543.683      1874.32      3361.56      34401.1     -1.00000
      729.000      676.000      39.8351      385.659      1109.55      3140.06      9450.51      16198.9      34403.5     -1.00000
      538.000      1018.00      43.8867      348.790      1002.16      2926.49      9311.79      16259.6      34429.6     -1.00000
      844.000      115.000      5.71877      361.742      1094.93      3121.25      9690.61      16508.6      33919.4     -1.00000
      742.000      246.000      39.9894      351.936      1081.76      3054.24      9615.75      16513.1      33950.1     -1.00000
      449.000      291.000      18.7052      381.152      1163.32      3359.66      9985.86      16960.2      33960.0     -1.00000
      158.000      413.000      32.7728      410.506      1117.94      3201.86      9753.35      16621.4      33966.3     -1.00000
      541.000      363.000      68.6124      354.181      1051.10      3066.05      9409.36      16274.2      33929.0     -1.00000
      404.000      219.000      62.0612      363.349      1055.53      3145.53      9614.13      16541.6      33843.6     -1.00000
      640.000      724.000      41.7882      342.354      995.789      2898.24      9213.96      16112.5      34001.6     -1.00000
      496.000      7.00000      21.4938      388.709      1073.23      3131.66      9433.10      16150.3      33419.6     -1.00000
      655.000      969.000      87.7701      383.278      1054.02      2968.15      9465.18      16289.6      33715.6     -1.00000
      907.000      84.0000      9.86959      382.251      1100.43      3193.62      9765.78      16524.3      33397.8     -1.00000
      947.000      587.000      80.1939      339.069      1012.74      3007.50      9289.10      16068.0      33342.9     -1.00000
      202.000      892.000      52.9297      396.670      1087.24      3206.41      9740.44      16471.0      33279.1     -1.00000
      676.000      139.000      19.8315      366.433      1031.92      3054.97      9437.29      16188.8      32996.8     -1.00000
      704.000      599.000      101.704      374.004      1106.03      3164.20      9618.60      16498.6      33149.3     -1.00000
      438.000      617.000      81.5921      351.794      1014.09      2993.33      9170.87      15861.4      33073.3     -1.00000
      321.000      187.000      34.0076      371.872      1042.62      2992.00      9308.02      15965.8      32889.6     -1.00000
      487.000      773.000      72.6765      335.651      956.860      2694.82      8552.50      14959.3      32263.9     -1.00000
      734.000      477.000      72.8208      378.134      1043.87      3028.51      9370.83      15967.2      32513.4     -1.00000
      620.000      217.000      32.6304      392.164      1028.56      2946.62      9013.70      15623.9      32396.0     -1.00000
      806.000      11.0000      2.50785      309.533      1075.49      3107.61      9410.48      15878.5      32236.1     -1.00000
      518.000      857.000      46.8208      95.2051      202.749      279.411      378.711      2011.12      32508.0     -1.00000
      737.000      541.000      77.3897      328.816      1063.89      3036.69      9449.92      16088.8      32389.0     -1.00000
      526.000      583.000      67.1837      341.376      1034.29      3042.28      9203.32      15680.9      32119.8     -1.00000
      14.0000      1023.00      88.4018      353.234      967.756      2828.80      8899.09      15653.4      32216.0     -1.00000
      313.000      809.000      83.9919      373.373      1054.89      3005.67      9059.60      15808.6      31967.9     -1.00000
      160.000      554.000      82.9016      358.569      1007.83      2894.17      8942.01      15509.2      31733.8     -1.00000
      74.0000      253.000      41.8283      348.118      988.743      2803.26      8697.29      14967.0      31493.7     -1.00000
      206.000      955.000      87.6402      367.549      982.774      2725.26      8658.82      15203.3      31645.9     -1.00000
      712.000      848.000      85.8523      352.864      994.024      2886.44      8914.13      15449.7      31546.2     -1.00000
      241.000      281.000      28.9374      379.020      983.793      2829.52      8752.28      15064.1      31203.8     -1.00000
      914.000      805.000      105.083      319.328      945.603      2747.90      8593.88      15125.5      31346.5     -1.00000
      213.000      47.0000      16.9432      343.654      1012.89      2927.32      8796.88      15119.6      31031.1     -1.00000
      433.000      445.000      11.7924      341.546      1051.25      3058.33      9349.26      15548.8      31150.1     -1.00000
      773.000      666.000      87.9525      343.823      961.376      2809.37      8659.29      15065.0      31207.4     -1.00000
      678.000      583.000      29.0590      359.666      1043.32      2949.23      8930.51      15492.0      31159.0     -1.00000
      742.000      390.000      30.3038      435.297      1277.52      3768.27      11058.2      17986.4      31060.1     -1.00000
      536.000      286.000     -9.29355      309.201      1026.86      2986.97      9059.62      15388.7      30996.5     -1.00000
      99.0000      868.000      85.4189      358.950      990.860      2796.21      8711.76      14928.0      31131.7     -1.00000
      848.000      835.000      66.0373      378.329      1064.47      2053.76      8640.20      15336.5      31003.4     -1.00000
      401.000      676.000      32.8726      347.151      999.798      2836.29      8840.72      15203.0      30914.9     -1.00000
      830.000      669.000      95.1593      355.035      940.429      2782.52      8659.63      14970.7      30903.9     -1.00000
      528.000      635.000      19.3477      378.322      997.023      2725.39      8452.13      14786.0      30867.5     -1.00000
      30.0000      148.000      33.4026      351.775      1026.67      3013.15      8978.53      15369.4      30669.7     -1.00000
      599.000      149.000      10.2783      331.633      1012.18      2882.25      8739.59      14964.8      30643.9     -1.00000
      549.000      500.000      51.6472      338.520      940.700      2737.93      8422.32      14603.0      30875.6     -1.00000
      78.0000      397.000      64.1149      304.492      957.031      2701.20      8398.28      14526.8      30792.6     -1.00000
      490.000      624.000      64.7006      346.233      921.262      2623.32      8176.76      14488.6      30719.7     -1.00000
      605.000      658.000      97.7800      332.094      967.506      2827.95      8655.32      14942.5      30578.9     -1.00000
      441.000      823.000      66.0398      351.180      1025.39      2923.68      9016.84      15395.5      30621.3     -1.00000
      710.000      19.0000      18.3062      294.461      978.736      2911.97      8813.87      14966.8      30120.2     -1.00000
      63.0000      866.000      108.545      358.156      1078.84      3232.66      9413.14      15721.2      30321.0     -1.00000
      103.000      37.0000      9.30238      286.075      919.518      2705.14      8315.23      14304.2      30330.4     -1.00000
      935.000      624.000      31.5963      290.375      927.898      2674.67      8293.35      14525.8      30237.0     -1.00000
      748.000      1023.00      93.9582      328.956      1019.59      2823.72      8756.37      14934.9      30337.9     -1.00000
      92.0000      857.000      69.8931      322.479      936.253      2633.14      8104.64      14067.5      30244.7     -1.00000
      516.000      1007.00      61.8281      342.819      947.297      2749.75      8522.25      14534.3      30104.5     -1.00000
      604.000      844.000      75.3369      319.664      872.897      2596.90      7900.99      13830.6      29951.0     -1.00000
      274.000      1013.00      57.4395      291.233      818.206      2308.46      7625.52      13577.2      29372.0     -1.00000
      951.000      621.000      45.2181      309.439      866.674      2358.49      7401.98      12775.9      26936.4     -1.00000
      15.0000      161.000      22.9098      291.413      916.913      2622.93      8094.27      14007.5      29500.1     -1.00000
      282.000      250.000      40.8654      342.689      982.781      2869.60      8530.22      14512.1      29491.3     -1.00000
      23.0000      396.000      36.0141      282.087      859.061      2557.33      8037.40      13826.3      29558.3     -1.00000
      364.000      221.000      32.4378      313.337      958.300      2663.16      8120.64      14101.4      29407.5     -1.00000
      987.000      41.0000      10.9349      309.470      907.641      2632.23      8113.77      13997.2      29621.9     -1.00000
      432.000      406.000      27.1705      350.162      1033.10      2932.53      8765.94      14762.2      29425.7     -1.00000
      119.000      869.000      116.402      321.583      977.124      2646.84      8299.50      14243.3      29499.3     -1.00000
      833.000      731.000      105.812      374.184      964.023      2786.59      8455.15      14365.3      29319.9     -1.00000
      77.0000      269.000      54.3418      346.994      976.529      2784.46      8412.10      14277.4      29057.1     -1.00000
      471.000      91.0000      12.0362      312.072      929.534      2715.19      8291.61      14193.5      28750.8     -1.00000
      783.000      105.000      29.4702      246.406      729.618      2008.69      5787.29      9842.00      20109.6     -1.00000
      650.000      551.000      67.2868      320.421      933.903      2569.74      8045.14      13965.9      28789.6     -1.00000
      839.000      552.000      26.7491      339.311      928.311      2702.19      8212.62      14272.8      28762.6     -1.00000
      619.000      866.000      40.1774      322.975      894.234      2456.92      7705.42      13404.5      28854.5     -1.00000
      650.000      27.0000      23.0984      293.739      989.317      2895.33      8743.62      14486.5      28584.4     -1.00000
      228.000      447.000      63.5409      355.126      939.311      2681.89      8201.10      13984.6      28703.0     -1.00000
      585.000      349.000      59.4009      309.375      903.313      2594.52      8019.27      13806.1      28664.1     -1.00000
      878.000      182.000      26.6776      293.399      888.977      2609.58      7941.20      13719.9      28908.6     -1.00000
      292.000      308.000      28.7274      313.356      908.693      2561.31      7827.54      13559.0      28716.6     -1.00000
      104.000      13.0000      37.0828      290.301      901.406      2592.46      7907.93      13631.1      28714.8     -1.00000
      644.000      586.000      105.198      310.743      884.083      2524.95      7788.85      13639.3      28474.4     -1.00000
      882.000      758.000      91.2105      313.354      851.631      2400.77      7430.24      13167.9      28172.4     -1.00000
      542.000      804.000      26.3622      277.303      768.717      2104.83      6269.36      10770.5      22250.3     -1.00000
      696.000      962.000      118.244      354.071      997.849      2785.14      8555.76      14402.1      28482.6     -1.00000
      777.000      947.000      72.1938      378.829      951.237      2573.83      7815.35      13757.7      28434.5     -1.00000
      911.000      557.000      77.0645      326.107      998.733      2840.65      8626.13      14452.8      28293.6     -1.00000
      610.000      850.000      109.078      312.392      857.611      2493.67      7789.48      13498.9      28357.9     -1.00000
      918.000      895.000      108.200      322.516      964.222      2751.77      8485.36      14402.5      28353.3     -1.00000
      664.000      607.000      70.3065      290.965      871.940      2518.08      7798.20      13543.1      28190.6     -1.00000
      103.000      635.000      34.3699      296.210      904.440      2628.21      8052.76      13872.8      28153.3     -1.00000
      895.000      903.000      29.3553      340.806      940.410      2633.85      8211.83      13968.4      28169.8     -1.00000
      645.000      257.000      42.5484      319.280      918.363      2588.58      8005.18      13631.0      27970.4     -1.00000
      487.000      774.000      63.8368      303.368      832.769      2297.61      6945.34      11885.3      24846.5     -1.00000
      996.000      905.000      59.7095      288.928      833.717      2374.73      7542.24      13191.1      28086.1     -1.00000
      358.000      228.000      42.4736      321.058      875.894      2599.77      7891.79      13402.7      27774.1     -1.00000
      823.000      997.000      54.0234      326.900      848.865      2539.98      7725.05      13390.8      27999.9     -1.00000
      934.000      407.000      55.5948      323.979      907.455      2620.27      7937.23      13544.8      27815.2     -1.00000
      995.000      502.000      46.4854      269.698      844.669      2436.20      7455.37      13055.1      27744.9     -1.00000
      585.000      646.000      65.0446      330.793      834.454      2363.25      7425.36      12938.2      27387.8     -1.00000
      736.000      479.000      54.4485      326.715      866.659      2512.18      7817.49      13413.8      27674.4     -1.00000
      939.000      387.000      12.1525      327.273      1043.76      3065.18      9070.03      14977.8      27592.3     -1.00000
      385.000      377.000      51.2665      342.483      917.410      2650.49      7982.53      13550.5      27564.2     -1.00000
      447.000      680.000      89.9694      347.836      945.778      2638.90      8102.94      13829.0      27631.1     -1.00000
      457.000      691.000      45.8493      311.600      959.127      2748.95      8214.48      13818.0      27633.1     -1.00000
      74.0000      951.000      55.7495      317.383      823.713      2359.91      7545.03      13125.7      27700.0     -1.00000
      249.000      742.000      41.5902      332.660      892.453      2485.78      7815.52      13318.4      27593.8     -1.00000
      682.000      926.000      66.5738      290.540      876.248      2470.47      7764.40      13218.6      27639.7     -1.00000
      990.000      742.000      18.9512      291.616      856.001      2527.26      7887.02      13457.3      27584.8     -1.00000
      614.000      300.000      15.8990      306.435      865.040      2479.31      7613.35      13169.4      27340.1     -1.00000
      46.0000      624.000      59.3270      348.522      926.819      2532.18      7758.12      13247.3      27356.9     -1.00000
      835.000      964.000      101.095      152.266      315.485      734.368      1788.60      2894.09      27233.2     -1.00000
      554.000      313.000      18.7205      326.146      869.830      2475.71      7464.80      12775.4      27104.3     -1.00000
      0.00000      253.000      77.1445      455.613      1154.27      3080.68      8253.86      13554.0      26814.9     -1.00000
      153.000      15.0000      6.05598      302.259      916.656      2681.69      8037.08      13461.7      26728.2     -1.00000
      20.0000      913.000      36.0621      307.885      852.578      2421.20      7353.57      12615.5      26858.3     -1.00000
      774.000      127.000      21.4956      302.120      928.080      2599.99      7900.63      13269.8      26613.0     -1.00000
      288.000      610.000      21.5554      349.783      958.461      2761.76      8383.36      13787.4      26624.4     -1.00000
      343.000      842.000      58.2725      304.958      973.990      2666.02      8180.01      13637.3      26673.1     -1.00000
      71.0000      531.000     -8.28025      350.415      826.774      2445.39      7579.94      12900.7      26509.4     -1.00000
      814.000      133.000      20.5916      272.128      824.000      2395.57      7283.07      12552.2      26579.2     -1.00000
      339.000      166.000      8.72337      281.172      888.819      2474.87      7576.33      12796.3      26326.7     -1.00000
      519.000      500.000      56.7897      309.388      884.925      2436.46      7438.00      12721.3      26412.3     -1.00000
      985.000      331.000      8.86720      269.638      881.663      2474.62      7515.66      12878.5      26339.9     -1.00000
      403.000      238.000      22.1977      297.420      873.403      2485.28      7477.38      12830.1      26287.9     -1.00000
      409.000      357.000      18.9022      328.340      888.108      2461.95      7559.90      12820.6      26208.4     -1.00000
      555.000      3.00000      6.80428      256.154      848.835      2476.18      7313.76      12724.3      26524.0     -1.00000
      791.000      422.000      78.3813      291.509      855.400      2367.70      7453.02      12745.3      26057.5     -1.00000
      233.000      474.000      62.0571      285.812      775.429      2115.25      6332.86      10732.9      22326.3     -1.00000
      949.000      865.000      88.3324      260.222      710.925      2082.51      6745.81      11962.3      25697.9     -1.00000
      399.000      826.000      45.7351      304.476      821.819      2332.17      7131.32      12467.8      25952.7     -1.00000
      84.0000      6.00000      7.35892      232.389      846.609      2445.50      7275.31      12447.7      25700.0     -1.00000
      871.000      40.0000      6.85554      279.026      815.706      2404.96      7327.85      12414.2      25697.0     -1.00000
      317.000      581.000      13.6937      299.280      854.952      2430.89      7379.13      12603.1      25701.4     -1.00000
      483.000      353.000      59.1021      302.066      891.643      2522.39      7494.74      12631.0      25528.2     -1.00000
      513.000      668.000      59.2846      361.207      909.354      2606.21      7717.01      12658.4      25585.9     -1.00000
      816.000      564.000      81.3069      268.498      811.043      2259.05      6865.25      11959.7      25547.2     -1.00000
      597.000      503.000      34.1169      294.749      834.785      2322.17      7105.81      12218.3      25479.2     -1.00000
      258.000      180.000      21.3523      257.539      797.852      2341.35      7105.84      12361.0      25347.1     -1.00000
      744.000      427.000      67.5159      325.025      845.749      2437.59      7269.45      12377.1      25338.9     -1.00000
      306.000      247.000      53.7742      361.165      853.801      2404.35      7259.65      12360.3      25207.8     -1.00000
      330.000      718.000      69.8693      313.895      836.117      2269.83      7104.53      12246.9      25283.0     -1.00000
      508.000      661.000      40.9045      296.738      861.894      2353.06      7163.96      12390.3      25243.0     -1.00000
      7.00000      729.000      28.9287      295.830      777.782      2175.68      6691.35      11758.8      25062.9     -1.00000
      666.000      481.000      50.6420      297.329      819.401      2354.08      7214.25      12213.2      24891.2     -1.00000
      947.000      169.000      44.5344      252.608      781.514      2321.53      6978.77      11992.3      24790.3     -1.00000
      29.0000      803.000      73.9502      296.299      828.228      2329.55      7073.16      12010.7      24946.7     -1.00000
      668.000      562.000      69.1019      258.054      767.207      2201.27      6931.51      11914.9      24862.2     -1.00000
      145.000      302.000      41.4757      276.137      795.586      2221.70      6914.87      11842.6      24777.0     -1.00000
      631.000      548.000      85.5526      265.625      834.277      2326.54      7018.89      12052.7      24834.4     -1.00000
      642.000      820.000      58.9306      301.751      832.105      2357.83      7071.39      12235.4      24814.1     -1.00000
      871.000      37.0000      4.81214      262.621      768.559      2278.77      7034.32      11963.7      24585.7     -1.00000
      583.000      453.000      53.0217      268.060      859.375      2353.50      7087.70      12136.7      24630.4     -1.00000
      461.000      293.000      15.9214      261.557      794.082      2265.01      6819.46      11720.9      24749.9     -1.00000
      407.000      36.0000    -0.462812      273.294      837.352      2315.67      7005.63      11861.9      24420.7     -1.00000
      935.000      328.000      38.9148      266.676      807.730      2232.93      6837.90      11758.6      24400.8     -1.00000
      515.000      638.000      13.2984      306.093      908.013      2514.05      7825.56      12628.3      24443.8     -1.00000
      5.00000      543.000      50.3716      288.901      788.567      2249.52      6813.40      11563.9      24229.6     -1.00000
      853.000      858.000      50.6438      304.172      833.599      2288.41      6943.79      11418.5      24555.6     -1.00000
      937.000      995.000      76.4300      285.162      790.666      2314.43      7113.34      12075.0      24403.8     -1.00000
      106.000      508.000      19.3272      274.015      726.639      2098.50      6615.28      11386.7      24258.2     -1.00000
      506.000      190.000      35.0262      323.220      812.408      2286.42      6852.17      11690.2      24123.2     -1.00000
      950.000      834.000      107.799      284.476      769.354      2114.50      6741.58      11710.1      24288.6     -1.00000
      236.000      397.000      43.6596      319.352      807.694      2298.37      6875.33      11729.8      24137.7     -1.00000
      599.000      572.000      41.4872      279.617      759.927      2062.35      6355.62      11076.1      23178.2     -1.00000
      922.000      9.00000     -1.05368      158.471      593.029      1578.20      4722.67      8010.35      16367.3     -1.00000
      794.000      525.000      15.5865      253.409      769.075      2197.86      6628.70      11486.4      24155.9     -1.00000
      726.000      492.000      29.5117      294.436      804.304      2229.78      6762.01      11553.5      24264.7     -1.00000
      764.000      390.000      27.7991      243.836      776.096      2205.40      6647.79      11524.1      24182.0     -1.00000
      516.000      918.000      112.322      284.115      754.011      2101.96      6512.13      11257.6      23946.3     -1.00000
      637.000      143.000      33.7741      305.216      846.255      2306.53      6936.84      11724.7      23741.3     -1.00000
      103.000      36.0000      7.78372      251.477      771.776      2163.36      6511.87      11208.5      23798.7     -1.00000
      181.000      631.000      33.1721      285.469      764.439      2141.92      6704.00      11492.2      23743.2     -1.00000
      1000.00      773.000      47.2968      299.302      806.991      2300.45      6975.29      11608.8      23681.5     -1.00000
      740.000      212.000      10.7419      333.398      800.182      2220.76      6770.14      11469.8      23348.7     -1.00000
      667.000      239.000      26.7075      245.512      779.567      2195.07      6624.75      11386.0      23344.2     -1.00000
      845.000      878.000      67.6702      271.268      775.289      2135.24      6668.37      11397.1      23451.1     -1.00000
      133.000      848.000      116.656      222.091      628.612      1684.34      4931.17      8314.22      17179.5     -1.00000
      537.000      139.000      20.0229      251.497      806.815      2269.89      6861.95      11550.8      23192.1     -1.00000
      656.000      940.000      36.7565      285.229      756.419      2043.59      6265.74      10825.8      23217.5     -1.00000
      576.000      897.000      49.5384      242.383      654.884      1740.11      5465.74      9306.79      19579.6     -1.00000
      49.0000      1003.00      57.7354      291.318      747.043      2124.32      6522.44      11168.0      23154.9     -1.00000
      864.000      553.000      35.1743      310.955      742.279      2087.72      6339.11      11100.2      23041.7     -1.00000
      167.000      1023.00      85.2741      293.105      700.435      1915.29      5974.43      10581.0      22727.3     -1.00000
