PDS_VERSION_ID         = PDS3
RECORD_TYPE            = STREAM
OBJECT                 = TEXT
  PUBLICATION_DATE     = 2018-04-01
  INTERCHANGE_FORMAT   = ASCII
  NOTE                 = "File containing a normalized wavelength-dependent 
                          correction function to be applied to the quantum
                          efficiencies of the NAC during absolute 
                          calibration."
END_OBJECT             = TEXT
END

\begindata
      200.000     0.805447
      201.000     0.805358
      202.000     0.805263
      203.000     0.805164
      204.000     0.805060
      205.000     0.804951
      206.000     0.804838
      207.000     0.804720
      208.000     0.804598
      209.000     0.804472
      210.000     0.804343
      211.000     0.804210
      212.000     0.804073
      213.000     0.803933
      214.000     0.803790
      215.000     0.803644
      216.000     0.803495
      217.000     0.803344
      218.000     0.803189
      219.000     0.803031
      220.000     0.802870
      221.000     0.802706
      222.000     0.802538
      223.000     0.802367
      224.000     0.802193
      225.000     0.802014
      226.000     0.801833
      227.000     0.801647
      228.000     0.801458
      229.000     0.801265
      230.000     0.801070
      231.000     0.800873
      232.000     0.800673
      233.000     0.800473
      234.000     0.800272
      235.000     0.800071
      236.000     0.799871
      237.000     0.799671
      238.000     0.799473
      239.000     0.799277
      240.000     0.799084
      241.000     0.798893
      242.000     0.798706
      243.000     0.798522
      244.000     0.798342
      245.000     0.798167
      246.000     0.797997
      247.000     0.797832
      248.000     0.797670
      249.000     0.797513
      250.000     0.797360
      251.000     0.797211
      252.000     0.797064
      253.000     0.796919
      254.000     0.796776
      255.000     0.796634
      256.000     0.796495
      257.000     0.796356
      258.000     0.796219
      259.000     0.796083
      260.000     0.795947
      261.000     0.795813
      262.000     0.795680
      263.000     0.795549
      264.000     0.795419
      265.000     0.795291
      266.000     0.795165
      267.000     0.795040
      268.000     0.794918
      269.000     0.794797
      270.000     0.794679
      271.000     0.794563
      272.000     0.794448
      273.000     0.794335
      274.000     0.794223
      275.000     0.794112
      276.000     0.794002
      277.000     0.793893
      278.000     0.793784
      279.000     0.793675
      280.000     0.793567
      281.000     0.793458
      282.000     0.793349
      283.000     0.793239
      284.000     0.793129
      285.000     0.793017
      286.000     0.792905
      287.000     0.792791
      288.000     0.792677
      289.000     0.792563
      290.000     0.792449
      291.000     0.792335
      292.000     0.792223
      293.000     0.792113
      294.000     0.792005
      295.000     0.791900
      296.000     0.791798
      297.000     0.791701
      298.000     0.791607
      299.000     0.791519
      300.000     0.791435
      301.000     0.791355
      302.000     0.791278
      303.000     0.791205
      304.000     0.791135
      305.000     0.791068
      306.000     0.791003
      307.000     0.790940
      308.000     0.790878
      309.000     0.790818
      310.000     0.790758
      311.000     0.790699
      312.000     0.790639
      313.000     0.790578
      314.000     0.790515
      315.000     0.790451
      316.000     0.790384
      317.000     0.790314
      318.000     0.790241
      319.000     0.790165
      320.000     0.790087
      321.000     0.790005
      322.000     0.789920
      323.000     0.789832
      324.000     0.789741
      325.000     0.789646
      326.000     0.789549
      327.000     0.789448
      328.000     0.789345
      329.000     0.789238
      330.000     0.789127
      331.000     0.789012
      332.000     0.788891
      333.000     0.788765
      334.000     0.788633
      335.000     0.788493
      336.000     0.788346
      337.000     0.788190
      338.000     0.788026
      339.000     0.787852
      340.000     0.787668
      341.000     0.787474
      342.000     0.787270
      343.000     0.787056
      344.000     0.786832
      345.000     0.786599
      346.000     0.786355
      347.000     0.786101
      348.000     0.785838
      349.000     0.785567
      350.000     0.785288
      351.000     0.785002
      352.000     0.784708
      353.000     0.784409
      354.000     0.784103
      355.000     0.783792
      356.000     0.783475
      357.000     0.783154
      358.000     0.782829
      359.000     0.782500
      360.000     0.782167
      361.000     0.781832
      362.000     0.781493
      363.000     0.781152
      364.000     0.780809
      365.000     0.780464
      366.000     0.780117
      367.000     0.779769
      368.000     0.779419
      369.000     0.779069
      370.000     0.778718
      371.000     0.778367
      372.000     0.778018
      373.000     0.777672
      374.000     0.777329
      375.000     0.776991
      376.000     0.776660
      377.000     0.776335
      378.000     0.776019
      379.000     0.775712
      380.000     0.775416
      381.000     0.775131
      382.000     0.774859
      383.000     0.774601
      384.000     0.774357
      385.000     0.774129
      386.000     0.773917
      387.000     0.773723
      388.000     0.773548
      389.000     0.773391
      390.000     0.773253
      391.000     0.773135
      392.000     0.773037
      393.000     0.772959
      394.000     0.772902
      395.000     0.772867
      396.000     0.772853
      397.000     0.772861
      398.000     0.772891
      399.000     0.772944
      400.000     0.773020
      401.000     0.773119
      402.000     0.773242
      403.000     0.773389
      404.000     0.773562
      405.000     0.773762
      406.000     0.773987
      407.000     0.774240
      408.000     0.774521
      409.000     0.774830
      410.000     0.775169
      411.000     0.775538
      412.000     0.775937
      413.000     0.776366
      414.000     0.776827
      415.000     0.777319
      416.000     0.777843
      417.000     0.778398
      418.000     0.778986
      419.000     0.779606
      420.000     0.780258
      421.000     0.780943
      422.000     0.781660
      423.000     0.782410
      424.000     0.783193
      425.000     0.784008
      426.000     0.784857
      427.000     0.785739
      428.000     0.786654
      429.000     0.787602
      430.000     0.788583
      431.000     0.789597
      432.000     0.790642
      433.000     0.791720
      434.000     0.792829
      435.000     0.793969
      436.000     0.795139
      437.000     0.796341
      438.000     0.797573
      439.000     0.798835
      440.000     0.800126
      441.000     0.801447
      442.000     0.802796
      443.000     0.804171
      444.000     0.805571
      445.000     0.806996
      446.000     0.808442
      447.000     0.809910
      448.000     0.811398
      449.000     0.812905
      450.000     0.814428
      451.000     0.815967
      452.000     0.817521
      453.000     0.819088
      454.000     0.820667
      455.000     0.822259
      456.000     0.823860
      457.000     0.825472
      458.000     0.827091
      459.000     0.828719
      460.000     0.830353
      461.000     0.831993
      462.000     0.833638
      463.000     0.835286
      464.000     0.836937
      465.000     0.838589
      466.000     0.840243
      467.000     0.841896
      468.000     0.843547
      469.000     0.845197
      470.000     0.846844
      471.000     0.848488
      472.000     0.850128
      473.000     0.851762
      474.000     0.853390
      475.000     0.855010
      476.000     0.856622
      477.000     0.858224
      478.000     0.859815
      479.000     0.861395
      480.000     0.862962
      481.000     0.864514
      482.000     0.866052
      483.000     0.867574
      484.000     0.869078
      485.000     0.870565
      486.000     0.872033
      487.000     0.873481
      488.000     0.874908
      489.000     0.876314
      490.000     0.877696
      491.000     0.879055
      492.000     0.880389
      493.000     0.881698
      494.000     0.882980
      495.000     0.884234
      496.000     0.885459
      497.000     0.886654
      498.000     0.887819
      499.000     0.888953
      500.000     0.890056
      501.000     0.891127
      502.000     0.892167
      503.000     0.893175
      504.000     0.894151
      505.000     0.895097
      506.000     0.896010
      507.000     0.896893
      508.000     0.897743
      509.000     0.898562
      510.000     0.899350
      511.000     0.900106
      512.000     0.900830
      513.000     0.901524
      514.000     0.902189
      515.000     0.902823
      516.000     0.903430
      517.000     0.904008
      518.000     0.904559
      519.000     0.905084
      520.000     0.905580
      521.000     0.906048
      522.000     0.906488
      523.000     0.906901
      524.000     0.907288
      525.000     0.907648
      526.000     0.907982
      527.000     0.908291
      528.000     0.908575
      529.000     0.908834
      530.000     0.909069
      531.000     0.909282
      532.000     0.909471
      533.000     0.909639
      534.000     0.909783
      535.000     0.909906
      536.000     0.910007
      537.000     0.910086
      538.000     0.910143
      539.000     0.910178
      540.000     0.910192
      541.000     0.910184
      542.000     0.910156
      543.000     0.910108
      544.000     0.910044
      545.000     0.909963
      546.000     0.909867
      547.000     0.909759
      548.000     0.909639
      549.000     0.909508
      550.000     0.909368
      551.000     0.909217
      552.000     0.909058
      553.000     0.908890
      554.000     0.908713
      555.000     0.908528
      556.000     0.908335
      557.000     0.908135
      558.000     0.907929
      559.000     0.907717
      560.000     0.907499
      561.000     0.907277
      562.000     0.907050
      563.000     0.906821
      564.000     0.906588
      565.000     0.906353
      566.000     0.906116
      567.000     0.905879
      568.000     0.905641
      569.000     0.905404
      570.000     0.905167
      571.000     0.904931
      572.000     0.904696
      573.000     0.904463
      574.000     0.904234
      575.000     0.904008
      576.000     0.903787
      577.000     0.903571
      578.000     0.903362
      579.000     0.903161
      580.000     0.902968
      581.000     0.902786
      582.000     0.902616
      583.000     0.902461
      584.000     0.902320
      585.000     0.902195
      586.000     0.902087
      587.000     0.901997
      588.000     0.901924
      589.000     0.901869
      590.000     0.901832
      591.000     0.901814
      592.000     0.901817
      593.000     0.901841
      594.000     0.901888
      595.000     0.901957
      596.000     0.902050
      597.000     0.902168
      598.000     0.902312
      599.000     0.902482
      600.000     0.902678
      601.000     0.902902
      602.000     0.903153
      603.000     0.903431
      604.000     0.903737
      605.000     0.904070
      606.000     0.904430
      607.000     0.904817
      608.000     0.905231
      609.000     0.905673
      610.000     0.906142
      611.000     0.906638
      612.000     0.907162
      613.000     0.907712
      614.000     0.908288
      615.000     0.908890
      616.000     0.909517
      617.000     0.910170
      618.000     0.910848
      619.000     0.911549
      620.000     0.912275
      621.000     0.913031
      622.000     0.913814
      623.000     0.914624
      624.000     0.915459
      625.000     0.916317
      626.000     0.917198
      627.000     0.918100
      628.000     0.919023
      629.000     0.919965
      630.000     0.920925
      631.000     0.921903
      632.000     0.922898
      633.000     0.923908
      634.000     0.924934
      635.000     0.925974
      636.000     0.927029
      637.000     0.928097
      638.000     0.929179
      639.000     0.930273
      640.000     0.931380
      641.000     0.932499
      642.000     0.933628
      643.000     0.934768
      644.000     0.935916
      645.000     0.937072
      646.000     0.938233
      647.000     0.939399
      648.000     0.940568
      649.000     0.941738
      650.000     0.942909
      651.000     0.944084
      652.000     0.945267
      653.000     0.946460
      654.000     0.947662
      655.000     0.948874
      656.000     0.950098
      657.000     0.951333
      658.000     0.952578
      659.000     0.953834
      660.000     0.955099
      661.000     0.956372
      662.000     0.957652
      663.000     0.958939
      664.000     0.960232
      665.000     0.961530
      666.000     0.962832
      667.000     0.964137
      668.000     0.965444
      669.000     0.966753
      670.000     0.968062
      671.000     0.969372
      672.000     0.970680
      673.000     0.971986
      674.000     0.973288
      675.000     0.974587
      676.000     0.975879
      677.000     0.977163
      678.000     0.978439
      679.000     0.979704
      680.000     0.980959
      681.000     0.982201
      682.000     0.983434
      683.000     0.984654
      684.000     0.985861
      685.000     0.987055
      686.000     0.988233
      687.000     0.989395
      688.000     0.990543
      689.000     0.991674
      690.000     0.992790
      691.000     0.993891
      692.000     0.994975
      693.000     0.996041
      694.000     0.997088
      695.000     0.998118
      696.000     0.999128
      697.000      1.00012
      698.000      1.00109
      699.000      1.00204
      700.000      1.00296
      701.000      1.00387
      702.000      1.00476
      703.000      1.00563
      704.000      1.00648
      705.000      1.00731
      706.000      1.00811
      707.000      1.00890
      708.000      1.00967
      709.000      1.01042
      710.000      1.01116
      711.000      1.01187
      712.000      1.01256
      713.000      1.01324
      714.000      1.01390
      715.000      1.01453
      716.000      1.01516
      717.000      1.01576
      718.000      1.01635
      719.000      1.01692
      720.000      1.01748
      721.000      1.01801
      722.000      1.01853
      723.000      1.01903
      724.000      1.01950
      725.000      1.01996
      726.000      1.02039
      727.000      1.02081
      728.000      1.02120
      729.000      1.02158
      730.000      1.02195
      731.000      1.02229
      732.000      1.02262
      733.000      1.02294
      734.000      1.02325
      735.000      1.02355
      736.000      1.02384
      737.000      1.02412
      738.000      1.02439
      739.000      1.02466
      740.000      1.02492
      741.000      1.02519
      742.000      1.02545
      743.000      1.02571
      744.000      1.02598
      745.000      1.02624
      746.000      1.02652
      747.000      1.02680
      748.000      1.02708
      749.000      1.02738
      750.000      1.02768
      751.000      1.02800
      752.000      1.02833
      753.000      1.02865
      754.000      1.02897
      755.000      1.02929
      756.000      1.02961
      757.000      1.02993
      758.000      1.03024
      759.000      1.03055
      760.000      1.03086
      761.000      1.03117
      762.000      1.03148
      763.000      1.03180
      764.000      1.03211
      765.000      1.03243
      766.000      1.03276
      767.000      1.03309
      768.000      1.03342
      769.000      1.03376
      770.000      1.03411
      771.000      1.03447
      772.000      1.03483
      773.000      1.03521
      774.000      1.03559
      775.000      1.03599
      776.000      1.03640
      777.000      1.03682
      778.000      1.03725
      779.000      1.03770
      780.000      1.03816
      781.000      1.03863
      782.000      1.03912
      783.000      1.03962
      784.000      1.04013
      785.000      1.04065
      786.000      1.04118
      787.000      1.04172
      788.000      1.04226
      789.000      1.04282
      790.000      1.04339
      791.000      1.04397
      792.000      1.04456
      793.000      1.04515
      794.000      1.04576
      795.000      1.04637
      796.000      1.04699
      797.000      1.04762
      798.000      1.04826
      799.000      1.04890
      800.000      1.04955
      801.000      1.05021
      802.000      1.05087
      803.000      1.05154
      804.000      1.05221
      805.000      1.05289
      806.000      1.05356
      807.000      1.05424
      808.000      1.05492
      809.000      1.05560
      810.000      1.05628
      811.000      1.05696
      812.000      1.05764
      813.000      1.05831
      814.000      1.05898
      815.000      1.05965
      816.000      1.06032
      817.000      1.06098
      818.000      1.06163
      819.000      1.06228
      820.000      1.06292
      821.000      1.06355
      822.000      1.06418
      823.000      1.06479
      824.000      1.06540
      825.000      1.06600
      826.000      1.06660
      827.000      1.06719
      828.000      1.06777
      829.000      1.06834
      830.000      1.06891
      831.000      1.06946
      832.000      1.07001
      833.000      1.07055
      834.000      1.07108
      835.000      1.07160
      836.000      1.07211
      837.000      1.07261
      838.000      1.07310
      839.000      1.07358
      840.000      1.07405
      841.000      1.07450
      842.000      1.07494
      843.000      1.07536
      844.000      1.07576
      845.000      1.07615
      846.000      1.07651
      847.000      1.07685
      848.000      1.07716
      849.000      1.07745
      850.000      1.07771
      851.000      1.07795
      852.000      1.07815
      853.000      1.07833
      854.000      1.07848
      855.000      1.07860
      856.000      1.07870
      857.000      1.07878
      858.000      1.07882
      859.000      1.07884
      860.000      1.07882
      861.000      1.07878
      862.000      1.07870
      863.000      1.07860
      864.000      1.07847
      865.000      1.07832
      866.000      1.07814
      867.000      1.07793
      868.000      1.07769
      869.000      1.07743
      870.000      1.07714
      871.000      1.07683
      872.000      1.07649
      873.000      1.07612
      874.000      1.07573
      875.000      1.07530
      876.000      1.07485
      877.000      1.07436
      878.000      1.07385
      879.000      1.07331
      880.000      1.07274
      881.000      1.07214
      882.000      1.07151
      883.000      1.07085
      884.000      1.07016
      885.000      1.06944
      886.000      1.06868
      887.000      1.06790
      888.000      1.06708
      889.000      1.06623
      890.000      1.06535
      891.000      1.06444
      892.000      1.06349
      893.000      1.06251
      894.000      1.06150
      895.000      1.06046
      896.000      1.05938
      897.000      1.05827
      898.000      1.05713
      899.000      1.05596
      900.000      1.05477
      901.000      1.05354
      902.000      1.05229
      903.000      1.05101
      904.000      1.04970
      905.000      1.04836
      906.000      1.04699
      907.000      1.04559
      908.000      1.04416
      909.000      1.04269
      910.000      1.04119
      911.000      1.03966
      912.000      1.03810
      913.000      1.03650
      914.000      1.03486
      915.000      1.03320
      916.000      1.03150
      917.000      1.02977
      918.000      1.02800
      919.000      1.02620
      920.000      1.02437
      921.000      1.02251
      922.000      1.02062
      923.000      1.01869
      924.000      1.01673
      925.000      1.01474
      926.000      1.01273
      927.000      1.01068
      928.000      1.00861
      929.000      1.00651
      930.000      1.00439
      931.000      1.00225
      932.000      1.00008
      933.000     0.997897
      934.000     0.995689
      935.000     0.993458
      936.000     0.991205
      937.000     0.988928
      938.000     0.986629
      939.000     0.984305
      940.000     0.981960
      941.000     0.979595
      942.000     0.977213
      943.000     0.974815
      944.000     0.972402
      945.000     0.969978
      946.000     0.967543
      947.000     0.965101
      948.000     0.962652
      949.000     0.960198
      950.000     0.957742
      951.000     0.955285
      952.000     0.952829
      953.000     0.950377
      954.000     0.947930
      955.000     0.945490
      956.000     0.943058
      957.000     0.940638
      958.000     0.938230
      959.000     0.935837
      960.000     0.933460
      961.000     0.931102
      962.000     0.928762
      963.000     0.926443
      964.000     0.924145
      965.000     0.921868
      966.000     0.919613
      967.000     0.917381
      968.000     0.915171
      969.000     0.912983
      970.000     0.910817
      971.000     0.908674
      972.000     0.906553
      973.000     0.904455
      974.000     0.902381
      975.000     0.900332
      976.000     0.898308
      977.000     0.896309
      978.000     0.894337
      979.000     0.892391
      980.000     0.890472
      981.000     0.888582
      982.000     0.886720
      983.000     0.884887
      984.000     0.883084
      985.000     0.881311
      986.000     0.879569
      987.000     0.877858
      988.000     0.876179
      989.000     0.874532
      990.000     0.872919
      991.000     0.871339
      992.000     0.869794
      993.000     0.868283
      994.000     0.866807
      995.000     0.865367
      996.000     0.863963
      997.000     0.862596
      998.000     0.861265
      999.000     0.859969
      1000.00     0.858705
      1001.00     0.857473
      1002.00     0.856268
      1003.00     0.855090
      1004.00     0.853940
      1005.00     0.852818
      1006.00     0.851725
      1007.00     0.850663
      1008.00     0.849633
      1009.00     0.848635
      1010.00     0.847671
      1011.00     0.846741
      1012.00     0.845845
      1013.00     0.844983
      1014.00     0.844154
      1015.00     0.843359
      1016.00     0.842598
      1017.00     0.841871
      1018.00     0.841178
      1019.00     0.840518
      1020.00     0.839893
      1021.00     0.839301
      1022.00     0.838743
      1023.00     0.838219
      1024.00     0.837729
      1025.00     0.837273
      1026.00     0.836851
      1027.00     0.836462
      1028.00     0.836107
      1029.00     0.835783
      1030.00     0.835490
      1031.00     0.835225
      1032.00     0.834987
      1033.00     0.834777
      1034.00     0.834594
      1035.00     0.834438
      1036.00     0.834308
      1037.00     0.834205
      1038.00     0.834128
      1039.00     0.834078
      1040.00     0.834054
      1041.00     0.834054
      1042.00     0.834079
      1043.00     0.834126
      1044.00     0.834196
      1045.00     0.834285
      1046.00     0.834395
      1047.00     0.834522
      1048.00     0.834668
      1049.00     0.834829
      1050.00     0.835006
      1051.00     0.835195
      1052.00     0.835397
      1053.00     0.835609
      1054.00     0.835831
      1055.00     0.836062
      1056.00     0.836300
      1057.00     0.836544
      1058.00     0.836794
      1059.00     0.837048
      1060.00     0.837306
      1061.00     0.837565
      1062.00     0.837826
      1063.00     0.838086
      1064.00     0.838346
      1065.00     0.838603
      1066.00     0.838856
      1067.00     0.839105
      1068.00     0.839349
      1069.00     0.839587
      1070.00     0.839820
      1071.00     0.840048
      1072.00     0.840271
      1073.00     0.840490
      1074.00     0.840705
      1075.00     0.840915
      1076.00     0.841122
      1077.00     0.841324
      1078.00     0.841521
      1079.00     0.841713
      1080.00     0.841901
      1081.00     0.842084
      1082.00     0.842262
      1083.00     0.842435
      1084.00     0.842602
      1085.00     0.842764
      1086.00     0.842920
      1087.00     0.843071
      1088.00     0.843216
      1089.00     0.843355
      1090.00     0.843488
      1091.00     0.843615
      1092.00     0.843735
      1093.00     0.843849
      1094.00     0.843957
      1095.00     0.844058
      1096.00     0.844152
      1097.00     0.844240
      1098.00     0.844320
      1099.00     0.844393
      1100.00     0.844461
