PDS_VERSION_ID         = PDS3
RECORD_TYPE            = STREAM
OBJECT                 = TEXT
  PUBLICATION_DATE     = 2014-04-25
  INTERCHANGE_FORMAT   = ASCII
  NOTE                 = "System transmission vs. wavelength."
END_OBJECT             = TEXT
END
    
The systrans directory contains the non-wavelength-integrated system 
transmission values (QE*optics*filter1*filter2) for each filter combination. 
The naming convention for these files is as follows:

<camera><filter 1><filter 2>_systrans.tab

where <camera> is "issna" or "isswa," and <filter 1> and <filter 2> represent
the filter names. For polarized filter combinations, values are given for the
parallel orientation of the filter (full transmission), with values for the 
perpendicular (blocking) orientation provided in files with subscript 
"_b_systrans.tab". 

Columns in systrans files are as follows:

 1st column: Wavelength (nm)  
 2nd column: Transmitted Flux
 3rd column: Transmitted Flux * Solar Flux (phot per cm^2-s-angstrom at 1 AU)

The solar spectrum used for this calculation is provided in solarflux.tab.

\begindata
       600.00000  3.55156e-09      189156.
       600.10000  3.55156e-09      188872.
       600.20000  3.55156e-09      188552.
       600.30000  3.55156e-09      188161.
       600.40000  3.55156e-09      187700.
       600.50000  2.55793e-09      134854.
       600.60000  2.55793e-09      135033.
       600.70000  2.55793e-09      135187.
       600.80000  2.55793e-09      135340.
       600.90000  2.55793e-09      135442.
       601.00000  2.55793e-09      135519.
       601.10000  2.55793e-09      135545.
       601.20000  2.55793e-09      135570.
       601.30000  2.55760e-09      135553.
       601.40000  2.55760e-09      135501.
       601.50000  1.82313e-09      96552.8
       601.60000  1.82313e-09      96133.5
       601.70000  1.82313e-09      95787.1
       601.80000  1.82313e-09      95477.1
       601.90000  1.82313e-09      95240.1
       602.00000  1.82313e-09      95057.8
       602.10000  1.82313e-09      94912.0
       602.20000  1.82313e-09      94839.0
       602.30000  1.82313e-09      94820.8
       602.40000  1.82313e-09      94857.3
       602.50000  1.20280e-09      62629.5
       602.60000  1.20280e-09      62725.8
       602.70000  1.20280e-09      62858.1
       602.80000  1.20280e-09      63026.5
       602.90000  1.20280e-09      63230.9
       603.00000  1.20280e-09      63471.5
       603.10000  1.20280e-09      63748.1
       603.20000  1.20280e-09      64060.9
       603.30000  1.20280e-09      64409.7
       603.40000  1.20280e-09      64794.6
       603.50000  3.28694e-10      17821.8
       603.60000  3.28694e-10      17815.2
       603.70000  3.28694e-10      17808.6
       603.80000  3.28554e-10      17794.5
       603.90000  3.28554e-10      17784.6
       604.00000  3.28554e-10      17778.1
       604.10000  3.28554e-10      17768.2
       604.20000  3.28554e-10      17761.6
       604.30000  3.28554e-10      17751.8
       604.40000  3.28554e-10      17745.2
       604.50000  1.79037e-10      9664.40
       604.60000  1.79037e-10      9657.24
       604.70000  1.79037e-10      9650.08
       604.80000  1.79037e-10      9642.92
       604.90000  1.79037e-10      9635.76
       605.00000  1.79037e-10      9630.39
       605.10000  1.79037e-10      9625.01
       605.20000  1.79037e-10      9621.43
       605.30000  1.79037e-10      9616.06
       605.40000  1.79037e-10      9612.48
       605.50000  3.67676e-10      19733.2
       605.60000  3.67676e-10      19729.5
       605.70000  3.67676e-10      19722.1
       605.80000  3.67676e-10      19718.4
       605.90000  3.67676e-10      19718.4
       606.00000  3.67676e-10      19714.8
       606.10000  3.67676e-10      19714.8
       606.20000  3.67676e-10      19714.8
       606.30000  3.67686e-10      19715.3
       606.40000  3.67686e-10      19719.0
       606.50000  2.31652e-10      12425.8
       606.60000  2.31652e-10      12430.5
       606.70000  2.31652e-10      12432.8
       606.80000  2.31652e-10      12437.4
       606.90000  2.31652e-10      12437.4
       607.00000  2.31652e-10      12439.7
       607.10000  2.31652e-10      12439.7
       607.20000  2.31652e-10      12439.7
       607.30000  2.31652e-10      12437.4
       607.40000  2.31652e-10      12435.1
       607.50000  1.05793e-10      5677.89
       607.60000  1.05793e-10      5671.54
       607.70000  1.05793e-10      5666.25
       607.80000  1.05793e-10      5662.02
       607.90000  1.05793e-10      5657.79
       608.00000  1.05793e-10      5653.56
       608.10000  1.05793e-10      5650.38
       608.20000  1.05793e-10      5647.21
       608.30000  1.05793e-10      5645.09
       608.40000  1.05793e-10      5642.98
       608.50000  1.10913e-10      5914.96
       608.60000  1.10913e-10      5913.85
       608.70000  1.10913e-10      5912.75
       608.80000  1.10889e-10      5911.47
       608.90000  1.10889e-10      5912.58
       609.00000  1.10889e-10      5913.69
       609.10000  1.10889e-10      5914.80
       609.20000  1.10889e-10      5917.02
       609.30000  1.10889e-10      5919.23
       609.40000  1.10889e-10      5922.56
       609.50000  1.52979e-10      8176.71
       609.60000  1.52979e-10      8139.99
       609.70000  1.52979e-10      8107.87
       609.80000  1.52979e-10      8080.33
       609.90000  1.52979e-10      8057.38
       610.00000  1.52979e-10      8037.50
       610.10000  1.52979e-10      8020.67
       610.20000  1.52979e-10      8008.43
       610.30000  1.52979e-10      8000.78
       610.40000  1.52979e-10      7997.72
       610.50000  8.26604e-11      4320.66
       610.60000  8.26604e-11      4342.15
       610.70000  8.26604e-11      4361.16
       610.80000  8.26604e-11      4378.52
       610.90000  8.26604e-11      4393.40
       611.00000  8.26604e-11      4405.80
       611.10000  8.26604e-11      4416.54
       611.20000  8.26604e-11      4424.81
       611.30000  8.26606e-11      4431.44
       611.40000  8.26606e-11      4435.57
       611.50000  1.22962e-10      6600.58
       611.60000  1.22962e-10      6600.58
       611.70000  1.22962e-10      6596.89
       611.80000  1.22962e-10      6590.74
       611.90000  1.22962e-10      6580.91
       612.00000  1.22962e-10      6568.61
       612.10000  1.22962e-10      6552.63
       612.20000  1.22962e-10      6532.95
       612.30000  1.22962e-10      6510.82
       612.40000  1.22962e-10      6485.00
       612.50000  2.37627e-10      12477.8
       612.60000  2.37627e-10      12446.9
       612.70000  2.37627e-10      12418.4
       612.80000  2.37627e-10      12394.6
       612.90000  2.37627e-10      12375.6
       613.00000  2.37627e-10      12359.0
       613.10000  2.37627e-10      12347.1
       613.20000  2.37627e-10      12337.6
       613.30000  2.37627e-10      12332.8
       613.40000  2.37627e-10      12332.8
       613.50000  2.62835e-10      13643.8
       613.60000  2.62835e-10      13683.2
       613.70000  2.62835e-10      13717.4
       613.80000  2.62548e-10      13733.9
       613.90000  2.62548e-10      13765.4
       614.00000  2.62548e-10      13794.3
       614.10000  2.62548e-10      13817.9
       614.20000  2.62548e-10      13841.5
       614.30000  2.62548e-10      13862.5
       614.40000  2.62548e-10      13880.9
       614.50000  2.31194e-11      1223.71
       614.60000  2.31194e-11      1224.86
       614.70000  2.31194e-11      1225.79
       614.80000  2.31194e-11      1226.48
       614.90000  2.31194e-11      1226.95
       615.00000  2.31194e-11      1227.18
       615.10000  2.31194e-11      1227.41
       615.20000  2.31194e-11      1227.18
       615.30000  2.31194e-11      1226.95
       615.40000  2.31194e-11      1226.48
       615.50000  4.37182e-11      2317.50
       615.60000  4.37182e-11      2291.71
       615.70000  4.37182e-11      2268.10
       615.80000  4.37182e-11      2247.55
       615.90000  4.37182e-11      2230.07
       616.00000  4.37182e-11      2214.77
       616.10000  4.37182e-11      2202.52
       616.20000  4.37182e-11      2192.91
       616.30000  4.37244e-11      2186.22
       616.40000  4.37244e-11      2182.29
       616.50000  1.04173e-10      5195.11
       616.60000  1.04173e-10      5239.90
       616.70000  1.04173e-10      5281.57
       616.80000  1.04173e-10      5320.12
       616.90000  1.04173e-10      5356.58
       617.00000  1.04173e-10      5390.95
       617.10000  1.04173e-10      5422.21
       617.20000  1.04173e-10      5450.33
       617.30000  1.04173e-10      5476.38
       617.40000  1.04173e-10      5500.34
       617.50000  1.20261e-10      6373.85
       617.60000  1.20261e-10      6394.29
       617.70000  1.20261e-10      6412.33
       617.80000  1.20261e-10      6427.96
       617.90000  1.20261e-10      6438.79
       618.00000  1.20261e-10      6448.41
       618.10000  1.20261e-10      6454.42
       618.20000  1.20261e-10      6456.83
       618.30000  1.20261e-10      6456.83
       618.40000  1.20261e-10      6453.22
       618.50000  5.35917e-11      2873.05
       618.60000  5.35917e-11      2867.69
       618.70000  5.35917e-11      2862.33
       618.80000  5.35377e-11      2855.70
       618.90000  5.35377e-11      2851.95
       619.00000  5.35377e-11      2849.28
       619.10000  5.35377e-11      2847.14
       619.20000  5.35377e-11      2846.07
       619.30000  5.35377e-11      2845.53
       619.40000  5.35377e-11      2845.53
       619.50000  3.03417e-10      16132.7
       619.60000  3.03417e-10      16190.3
       619.70000  3.03417e-10      16241.9
       619.80000  3.03417e-10      16287.4
       619.90000  3.03417e-10      16326.8
       620.00000  3.03417e-10      16357.2
       620.10000  3.03417e-10      16381.5
       620.20000  3.03417e-10      16399.7
       620.30000  3.03417e-10      16411.8
       620.40000  3.03417e-10      16414.8
       620.50000  2.65011e-11      1433.71
       620.60000  2.65011e-11      1427.88
       620.70000  2.65011e-11      1422.31
       620.80000  2.65011e-11      1417.54
       620.90000  2.65011e-11      1413.30
       621.00000  2.65011e-11      1409.59
       621.10000  2.65011e-11      1406.41
       621.20000  2.65011e-11      1404.03
       621.30000  2.64671e-11      1400.11
       621.40000  2.64671e-11      1398.52
       621.50000  2.02475e-10      10692.7
       621.60000  2.02475e-10      10729.1
       621.70000  2.02475e-10      10761.5
       621.80000  2.02475e-10      10787.9
       621.90000  2.02475e-10      10812.2
       622.00000  2.02475e-10      10830.4
       622.10000  2.02475e-10      10844.6
       622.20000  2.02475e-10      10852.7
       622.30000  2.02475e-10      10858.7
       622.40000  2.02475e-10      10858.7
       622.50000  5.33337e-12      285.922
       622.60000  5.33337e-12      285.709
       622.70000  5.33337e-12      285.389
       622.80000  5.33337e-12      284.962
       622.90000  5.33337e-12      284.375
       623.00000  5.33337e-12      283.735
       623.10000  5.33337e-12      282.935
       623.20000  5.33337e-12      281.975
       623.30000  5.33337e-12      280.962
       623.40000  5.33337e-12      279.789
       623.50000  8.74041e-11      4565.12
       623.60000  8.74041e-11      4564.24
       623.70000  8.74041e-11      4564.24
       623.80000  8.72159e-11      4552.67
       623.90000  8.72159e-11      4551.80
       624.00000  8.72159e-11      4550.06
       624.10000  8.72159e-11      4547.44
       624.20000  8.72159e-11      4544.82
       624.30000  8.72159e-11      4542.21
       624.40000  8.72159e-11      4538.72
       624.50000  1.61296e-10      8387.39
       624.60000  1.61296e-10      8355.13
       624.70000  1.61296e-10      8329.33
       624.80000  1.61296e-10      8306.74
       624.90000  1.61296e-10      8289.00
       625.00000  1.61296e-10      8276.10
       625.10000  1.61296e-10      8268.03
       625.20000  1.61296e-10      8263.19
       625.30000  1.61296e-10      8264.81
       625.40000  1.61296e-10      8269.65
       625.50000  8.58310e-11      4405.71
       625.60000  8.58310e-11      4412.57
       625.70000  8.58310e-11      4422.87
       625.80000  8.58310e-11      4434.89
       625.90000  8.58310e-11      4449.48
       626.00000  8.58310e-11      4466.65
       626.10000  8.58310e-11      4486.39
       626.20000  8.58310e-11      4507.85
       626.30000  8.56957e-11      4525.59
       626.40000  8.56957e-11      4552.15
       626.50000  1.55751e-10      8324.91
       626.60000  1.55751e-10      8326.47
       626.70000  1.55751e-10      8328.03
       626.80000  1.55751e-10      8329.59
       626.90000  1.55751e-10      8331.14
       627.00000  1.55751e-10      8332.70
       627.10000  1.55751e-10      8334.26
       627.20000  1.55751e-10      8334.26
       627.30000  1.55751e-10      8335.82
       627.40000  1.55751e-10      8337.37
       627.50000  2.01053e-11      1076.44
       627.60000  2.01053e-11      1077.24
       627.70000  2.01053e-11      1077.85
       627.80000  2.01053e-11      1078.25
       627.90000  2.01053e-11      1078.65
       628.00000  2.01053e-11      1078.85
       628.10000  2.01053e-11      1079.05
       628.20000  2.01053e-11      1079.05
       628.30000  2.01053e-11      1078.85
       628.40000  2.01053e-11      1078.65
       628.50000  3.12400e-11      1675.40
       628.60000  3.12400e-11      1674.46
       628.70000  3.12400e-11      1673.52
       628.80000  3.11739e-11      1668.74
       628.90000  3.11739e-11      1667.18
       629.00000  3.11739e-11      1665.62
       629.10000  3.11739e-11      1663.75
       629.20000  3.11739e-11      1661.88
       629.30000  3.11739e-11      1659.70
       629.40000  3.11739e-11      1657.21
       629.50000  5.20070e-11      2760.53
       629.60000  5.20070e-11      2754.81
       629.70000  5.20070e-11      2749.09
       629.80000  5.20070e-11      2743.89
       629.90000  5.20070e-11      2739.21
       630.00000  5.20070e-11      2734.53
       630.10000  5.20070e-11      2729.85
       630.20000  5.20070e-11      2726.21
       630.30000  5.20070e-11      2722.04
       630.40000  5.20070e-11      2718.92
       630.50000  1.18125e-10      6168.47
       630.60000  1.18125e-10      6161.38
       630.70000  1.18125e-10      6155.48
       630.80000  1.18125e-10      6150.75
       630.90000  1.18125e-10      6146.03
       631.00000  1.18125e-10      6142.48
       631.10000  1.18125e-10      6146.03
       631.20000  1.18125e-10      6149.57
       631.30000  1.18119e-10      6154.00
       631.40000  1.18119e-10      6157.54
       631.50000  8.60006e-11      4485.79
       631.60000  8.60006e-11      4488.37
       631.70000  8.60006e-11      4490.95
       631.80000  8.60006e-11      4492.67
       631.90000  8.60006e-11      4495.25
       632.00000  8.60006e-11      4497.83
       632.10000  8.60006e-11      4500.41
       632.20000  8.60006e-11      4502.13
       632.30000  8.60006e-11      4504.71
       632.40000  8.60006e-11      4507.29
       632.50000  8.00926e-11      4199.25
       632.60000  8.00926e-11      4200.86
       632.70000  8.00926e-11      4203.26
       632.80000  8.00926e-11      4204.86
       632.90000  8.00926e-11      4206.46
       633.00000  8.00926e-11      4208.86
       633.10000  8.00926e-11      4210.47
       633.20000  8.00926e-11      4212.07
       633.30000  8.00926e-11      4213.67
       633.40000  8.00926e-11      4215.27
       633.50000  2.59393e-11      1365.70
       633.60000  2.59393e-11      1366.22
       633.70000  2.59393e-11      1366.74
       633.80000  2.59353e-11      1366.79
       633.90000  2.59353e-11      1367.31
       634.00000  2.59353e-11      1367.83
       634.10000  2.59353e-11      1368.09
       634.20000  2.59353e-11      1368.61
       634.30000  2.59353e-11      1368.87
       634.40000  2.59353e-11      1369.38
       634.50000  6.35046e-11      3353.68
       634.60000  6.35046e-11      3354.31
       634.70000  6.35046e-11      3355.58
       634.80000  6.35046e-11      3356.22
       634.90000  6.35046e-11      3356.85
       635.00000  6.35046e-11      3357.49
       635.10000  6.35046e-11      3358.12
       635.20000  6.35046e-11      3358.12
       635.30000  6.35046e-11      3358.76
       635.40000  6.35046e-11      3358.76
       635.50000  1.04178e-11      551.100
       635.60000  1.04178e-11      551.204
       635.70000  1.04178e-11      551.204
       635.80000  1.04178e-11      551.308
       635.90000  1.04178e-11      551.308
       636.00000  1.04178e-11      551.413
       636.10000  1.04178e-11      551.413
       636.20000  1.04178e-11      551.517
       636.30000  1.03560e-11      548.248
       636.40000  1.03560e-11      548.351
       636.50000  1.68644e-11      892.972
       636.60000  1.68644e-11      893.140
       636.70000  1.68644e-11      893.140
       636.80000  1.68644e-11      893.309
       636.90000  1.68644e-11      893.309
       637.00000  1.68644e-11      893.309
       637.10000  1.68644e-11      893.478
       637.20000  1.68644e-11      893.478
       637.30000  1.68644e-11      893.646
       637.40000  1.68644e-11      893.646
       637.50000  3.62968e-11      1923.37
       637.60000  3.62968e-11      1923.73
       637.70000  3.62968e-11      1923.73
       637.80000  3.62968e-11      1924.09
       637.90000  3.62968e-11      1924.09
       638.00000  3.62968e-11      1924.09
       638.10000  3.62968e-11      1924.46
       638.20000  3.62968e-11      1924.46
       638.30000  3.62968e-11      1924.46
       638.40000  3.62968e-11      1924.82
       638.50000  5.93420e-12      314.690
       638.60000  5.93420e-12      314.690
       638.70000  5.93420e-12      314.750
       638.80000  5.89528e-12      312.686
       638.90000  5.89528e-12      312.686
       639.00000  5.89528e-12      312.686
       639.10000  5.89528e-12      312.214
       639.20000  5.89528e-12      311.742
       639.30000  5.89528e-12      311.271
       639.40000  5.89528e-12      310.858
       639.50000  1.72998e-11      910.832
       639.60000  1.72998e-11      909.794
       639.70000  1.72998e-11      908.583
       639.80000  1.72998e-11      907.545
       639.90000  1.72998e-11      906.680
       640.00000  1.72998e-11      905.642
       640.10000  1.72998e-11      904.777
       640.20000  1.72998e-11      904.085
       640.30000  1.72998e-11      903.393
       640.40000  1.72998e-11      902.701
       640.50000  1.39069e-11      725.103
       640.60000  1.39069e-11      724.686
       640.70000  1.39069e-11      724.269
       640.80000  1.39069e-11      723.991
       640.90000  1.39069e-11      723.573
       641.00000  1.39069e-11      723.434
       641.10000  1.39069e-11      723.713
       641.20000  1.39069e-11      723.991
       641.30000  1.38128e-11      719.370
       641.40000  1.38128e-11      719.646
       641.50000  9.74331e-11      5078.21
       641.60000  9.74331e-11      5080.16
       641.70000  9.74331e-11      5082.11
       641.80000  9.74331e-11      5084.06
       641.90000  9.74331e-11      5086.01
       642.00000  9.74331e-11      5087.96
       642.10000  9.74331e-11      5088.93
       642.20000  9.74331e-11      5090.88
       642.30000  9.74331e-11      5092.83
       642.40000  9.74331e-11      5094.78
       642.50000  3.95397e-11      2068.32
       642.60000  3.95397e-11      2069.11
       642.70000  3.95397e-11      2069.90
       642.80000  3.95397e-11      2070.69
       642.90000  3.95397e-11      2071.48
       643.00000  3.95397e-11      2072.28
       643.10000  3.95397e-11      2072.67
       643.20000  3.95397e-11      2073.46
       643.30000  3.95397e-11      2074.25
       643.40000  3.95397e-11      2075.04
       643.50000  5.07051e-12      266.202
       643.60000  5.07051e-12      266.303
       643.70000  5.07051e-12      266.354
       643.80000  5.06376e-12      266.101
       643.90000  5.06376e-12      266.202
       644.00000  5.06376e-12      266.303
       644.10000  5.06376e-12      266.404
       644.20000  5.06376e-12      266.455
       644.30000  5.06376e-12      266.556
       644.40000  5.06376e-12      266.658
       644.50000  6.18688e-11      3259.25
       644.60000  6.18688e-11      3259.87
       644.70000  6.18688e-11      3261.10
       644.80000  6.18688e-11      3262.34
       644.90000  6.18688e-11      3263.58
       645.00000  6.18688e-11      3264.20
       645.10000  6.18688e-11      3263.58
       645.20000  6.18688e-11      3262.34
       645.30000  6.18688e-11      3261.72
       645.40000  6.18688e-11      3260.48
       645.50000  1.03257e-10      5438.53
       645.60000  1.03257e-10      5436.46
       645.70000  1.03257e-10      5434.40
       645.80000  1.03257e-10      5431.30
       645.90000  1.03257e-10      5428.20
       646.00000  1.03257e-10      5425.11
       646.10000  1.03257e-10      5422.01
       646.20000  1.03257e-10      5418.91
       646.30000  1.03193e-10      5411.46
       646.40000  1.03193e-10      5407.33
       646.50000  6.74901e-11      3534.45
       646.60000  6.74901e-11      3531.08
       646.70000  6.74901e-11      3528.38
       646.80000  6.74901e-11      3525.68
       646.90000  6.74901e-11      3522.31
       647.00000  6.74901e-11      3519.61
       647.10000  6.74901e-11      3510.16
       647.20000  6.74901e-11      3501.38
       647.30000  6.74901e-11      3493.29
       647.40000  6.74901e-11      3485.19
       647.50000  4.95725e-11      2554.47
       647.60000  4.95725e-11      2550.01
       647.70000  4.95725e-11      2545.05
       647.80000  4.95725e-11      2541.09
       647.90000  4.95725e-11      2537.12
       648.00000  4.95725e-11      2533.65
       648.10000  4.95725e-11      2530.68
       648.20000  4.95725e-11      2528.20
       648.30000  4.95725e-11      2525.72
       648.40000  4.95725e-11      2523.74
       648.50000  1.74730e-11      889.025
       648.60000  1.74730e-11      888.675
       648.70000  1.74730e-11      888.326
       648.80000  1.74910e-11      889.070
       648.90000  1.74910e-11      889.070
       649.00000  1.74910e-11      889.245
       649.10000  1.74910e-11      889.420
       649.20000  1.74910e-11      889.945
       649.30000  1.74910e-11      890.294
       649.40000  1.74910e-11      890.994
       649.50000  2.54309e-11      1296.72
       649.60000  2.54309e-11      1297.99
       649.70000  2.54309e-11      1299.52
       649.80000  2.54309e-11      1301.30
       649.90000  2.54309e-11      1303.08
       650.00000  2.54309e-11      1305.11
       650.10000  2.54309e-11      1307.40
       650.20000  2.54309e-11      1309.94
       650.30000  2.54309e-11      1312.74
       650.40000  2.54309e-11      1315.54
       650.50000  6.29994e-11      3266.52
       650.60000  6.29994e-11      3274.71
       650.70000  6.29994e-11      3282.90
       650.80000  6.29994e-11      3292.35
       650.90000  6.29994e-11      3301.80
       651.00000  6.29994e-11      3311.88
       651.10000  6.29994e-11      3314.40
       651.20000  6.29994e-11      3316.92
       651.30000  6.29204e-11      3314.64
       651.40000  6.29204e-11      3316.53
       651.50000  3.22555e-11      1701.15
       651.60000  3.22555e-11      1701.48
       651.70000  3.22555e-11      1702.12
       651.80000  3.22555e-11      1702.45
       651.90000  3.22555e-11      1702.45
       652.00000  3.22555e-11      1702.45
       652.10000  3.22555e-11      1702.12
       652.20000  3.22555e-11      1701.80
       652.30000  3.22555e-11      1701.48
       652.40000  3.22555e-11      1700.83
       652.50000  4.19501e-11      2210.77
       652.60000  4.19501e-11      2209.51
       652.70000  4.19501e-11      2208.25
       652.80000  4.19501e-11      2206.16
       652.90000  4.19501e-11      2204.48
       653.00000  4.19501e-11      2202.38
       653.10000  4.19501e-11      2200.70
       653.20000  4.19501e-11      2199.03
       653.30000  4.19501e-11      2196.51
       653.40000  4.19501e-11      2193.99
       653.50000  9.60928e-12      501.989
       653.60000  9.60928e-12      501.316
       653.70000  9.60928e-12      500.548
       653.80000  9.59758e-12      499.074
       653.90000  9.59758e-12      498.210
       654.00000  9.59758e-12      497.250
       654.10000  9.59758e-12      496.291
       654.20000  9.59758e-12      495.139
       654.30000  9.59758e-12      493.987
       654.40000  9.59758e-12      492.836
       654.50000  1.11029e-11      568.691
       654.60000  1.11029e-11      567.137
       654.70000  1.11029e-11      565.471
       654.80000  1.11029e-11      563.806
       654.90000  1.11029e-11      562.030
       655.00000  1.11029e-11      560.142
       655.10000  1.11029e-11      554.813
       655.20000  1.11029e-11      549.705
       655.30000  1.11029e-11      544.931
       655.40000  1.11029e-11      540.490
       655.50000  2.30267e-11      1112.19
       655.60000  2.30267e-11      1104.13
       655.70000  2.30267e-11      1096.53
       655.80000  2.30267e-11      1089.62
       655.90000  2.30267e-11      1083.18
       656.00000  2.30267e-11      1077.42
       656.10000  2.30267e-11      1072.35
       656.20000  2.30267e-11      1067.75
       656.30000  2.30092e-11      1063.02
       656.40000  2.30092e-11      1059.57
       656.50000  7.31632e-11      3360.38
       656.60000  7.31632e-11      3353.80
       656.70000  7.31632e-11      3348.68
       656.80000  7.31632e-11      3345.75
       656.90000  7.31632e-11      3344.29
       657.00000  7.31632e-11      3345.02
       657.10000  7.31632e-11      3373.55
       657.20000  7.31632e-11      3401.36
       657.30000  7.31632e-11      3428.43
       657.40000  7.31632e-11      3454.77
       657.50000  2.59248e-11      1232.98
       657.60000  2.59248e-11      1241.80
       657.70000  2.59248e-11      1250.09
       657.80000  2.59248e-11      1258.13
       657.90000  2.59248e-11      1265.65
       658.00000  2.59248e-11      1273.17
       658.10000  2.59248e-11      1280.43
       658.20000  2.59248e-11      1287.17
       658.30000  2.59248e-11      1293.65
       658.40000  2.59248e-11      1299.87
       658.50000  3.66614e-11      1846.27
       658.60000  3.66614e-11      1854.33
       658.70000  3.66614e-11      1861.67
       658.80000  3.66233e-11      1867.06
       658.90000  3.66233e-11      1873.65
       659.00000  3.66233e-11      1879.51
       659.10000  3.66233e-11      1885.37
       659.20000  3.66233e-11      1890.86
       659.30000  3.66233e-11      1895.62
       659.40000  3.66233e-11      1900.02
       659.50000  1.36332e-12      70.8788
       659.60000  1.36332e-12      71.0151
       659.70000  1.36332e-12      71.1242
       659.80000  1.36332e-12      71.2332
       659.90000  1.36332e-12      71.3150
       660.00000  1.36332e-12      71.3832
       660.10000  1.36332e-12      71.4377
       660.20000  1.36332e-12      71.4650
       660.30000  1.36332e-12      71.4923
       660.40000  1.36332e-12      71.4923
       660.50000  2.04154e-11      1070.38
       660.60000  2.04154e-11      1069.97
       660.70000  2.04154e-11      1069.36
       660.80000  2.04154e-11      1068.34
       660.90000  2.04154e-11      1067.32
       661.00000  2.04154e-11      1065.89
       661.10000  2.04154e-11      1065.28
       661.20000  2.04154e-11      1064.46
       661.30000  2.03647e-11      1061.21
       661.40000  2.03647e-11      1060.59
       661.50000  4.53480e-12      236.036
       661.60000  4.53480e-12      235.945
       661.70000  4.53480e-12      235.809
       661.80000  4.53480e-12      235.719
       661.90000  4.53480e-12      235.628
       662.00000  4.53480e-12      235.537
       662.10000  4.53480e-12      235.447
       662.20000  4.53480e-12      235.356
       662.30000  4.53480e-12      235.311
       662.40000  4.53480e-12      235.265
       662.50000  3.41071e-11      1768.80
       662.60000  3.41071e-11      1768.80
       662.70000  3.41071e-11      1768.46
       662.80000  3.41071e-11      1768.11
       662.90000  3.41071e-11      1768.11
       663.00000  3.41071e-11      1768.11
       663.10000  3.41071e-11      1769.48
       663.20000  3.41071e-11      1770.50
       663.30000  3.41071e-11      1771.87
       663.40000  3.41071e-11      1772.89
       663.50000  3.39608e-11      1766.30
       663.60000  3.39608e-11      1767.32
       663.70000  3.39608e-11      1768.00
       663.80000  3.38884e-11      1765.25
       663.90000  3.38884e-11      1765.93
       664.00000  3.38884e-11      1766.26
       664.10000  3.38884e-11      1766.94
       664.20000  3.38884e-11      1767.28
       664.30000  3.38884e-11      1767.62
       664.40000  3.38884e-11      1767.96
       664.50000  2.73614e-11      1427.45
       664.60000  2.73614e-11      1427.45
       664.70000  2.73614e-11      1427.45
       664.80000  2.73614e-11      1427.45
       664.90000  2.73614e-11      1427.45
       665.00000  2.73614e-11      1427.17
       665.10000  2.73614e-11      1426.90
       665.20000  2.73614e-11      1426.63
       665.30000  2.73614e-11      1426.08
       665.40000  2.73614e-11      1425.53
       665.50000  1.18967e-11      619.582
       665.60000  1.18967e-11      619.344
       665.70000  1.18967e-11      618.987
       665.80000  1.18967e-11      618.749
       665.90000  1.18967e-11      618.392
       666.00000  1.18967e-11      617.916
       666.10000  1.18967e-11      617.559
       666.20000  1.18967e-11      617.083
       666.30000  1.18668e-11      615.059
       666.40000  1.18668e-11      614.584
       666.50000  3.05885e-11      1582.65
       666.60000  3.05885e-11      1581.12
       666.70000  3.05885e-11      1579.59
       666.80000  3.05885e-11      1578.06
       666.90000  3.05885e-11      1576.53
       667.00000  3.05885e-11      1574.70
       667.10000  3.05885e-11      1576.53
       667.20000  3.05885e-11      1578.06
       667.30000  3.05885e-11      1579.59
       667.40000  3.05885e-11      1581.12
       667.50000  1.22705e-12      63.4877
       667.60000  1.22705e-12      63.5368
       667.70000  1.22705e-12      63.5859
       667.80000  1.22705e-12      63.6227
       667.90000  1.22705e-12      63.6595
       668.00000  1.22705e-12      63.6963
       668.10000  1.22705e-12      63.7331
       668.20000  1.22705e-12      63.7577
       668.30000  1.22705e-12      63.7822
       668.40000  1.22705e-12      63.7945
       668.50000  4.75474e-12      247.247
       668.60000  4.75474e-12      247.294
       668.70000  4.75474e-12      247.294
       668.80000  4.74697e-12      246.890
       668.90000  4.74697e-12      246.890
       669.00000  4.74697e-12      246.842
       669.10000  4.74697e-12      246.510
       669.20000  4.74697e-12      246.178
       669.30000  4.74697e-12      245.893
       669.40000  4.74697e-12      245.608
       669.50000  2.31065e-12      119.415
       669.60000  2.31065e-12      119.276
       669.70000  2.31065e-12      119.160
       669.80000  2.31065e-12      119.045
       669.90000  2.31065e-12      118.929
       670.00000  2.31065e-12      118.837
       670.10000  2.31065e-12      118.744
       670.20000  2.31065e-12      118.652
       670.30000  2.31065e-12      118.560
       670.40000  2.31065e-12      118.490
       670.50000  4.86438e-11      2492.99
       670.60000  4.86438e-11      2491.53
       670.70000  4.86438e-11      2490.56
       670.80000  4.86438e-11      2489.59
       670.90000  4.86438e-11      2488.62
       671.00000  4.86438e-11      2488.13
       671.10000  4.86438e-11      2487.16
       671.20000  4.86438e-11      2487.16
       671.30000  4.86456e-11      2486.76
       671.40000  4.86456e-11      2486.76
       671.50000  9.10173e-12      465.281
       671.60000  9.10173e-12      465.281
       671.70000  9.10173e-12      465.281
       671.80000  9.10173e-12      465.372
       671.90000  9.10173e-12      465.463
       672.00000  9.10173e-12      465.645
       672.10000  9.10173e-12      465.827
       672.20000  9.10173e-12      466.009
       672.30000  9.10173e-12      466.191
       672.40000  9.10173e-12      466.464
       672.50000  3.88038e-11      1989.86
       672.60000  3.88038e-11      1991.02
       672.70000  3.88038e-11      1992.19
       672.80000  3.88038e-11      1993.74
       672.90000  3.88038e-11      1995.29
       673.00000  3.88038e-11      1997.23
       673.10000  3.88038e-11      1996.45
       673.20000  3.88038e-11      1995.68
       673.30000  3.88038e-11      1994.90
       673.40000  3.88038e-11      1994.51
       673.50000  4.02835e-11      2069.77
       673.60000  4.02835e-11      2069.36
       673.70000  4.02835e-11      2068.96
       673.80000  4.02996e-11      2068.98
       673.90000  4.02996e-11      2068.58
       674.00000  4.02996e-11      2068.18
       674.10000  4.02996e-11      2067.77
       674.20000  4.02996e-11      2067.37
       674.30000  4.02996e-11      2066.97
       674.40000  4.02996e-11      2066.56
       674.50000  4.70635e-12      241.295
       674.60000  4.70635e-12      241.295
       674.70000  4.70635e-12      241.248
       674.80000  4.70635e-12      241.248
       674.90000  4.70635e-12      241.200
       675.00000  4.70635e-12      241.200
       675.10000  4.70635e-12      241.248
       675.20000  4.70635e-12      241.295
       675.30000  4.70635e-12      241.342
       675.40000  4.70635e-12      241.389
       675.50000  9.23673e-13      47.3752
       675.60000  9.23673e-13      47.3844
       675.70000  9.23673e-13      47.3937
       675.80000  9.23673e-13      47.3937
       675.90000  9.23673e-13      47.4029
       676.00000  9.23673e-13      47.4029
       676.10000  9.23673e-13      47.4121
       676.20000  9.23673e-13      47.4121
       676.30000  9.22731e-13      47.3638
       676.40000  9.22731e-13      47.3638
       676.50000  5.38086e-11      2762.54
       676.60000  5.38086e-11      2762.54
       676.70000  5.38086e-11      2762.54
       676.80000  5.38086e-11      2762.00
       676.90000  5.38086e-11      2762.00
       677.00000  5.38086e-11      2762.00
       677.10000  5.38086e-11      2762.00
       677.20000  5.38086e-11      2761.46
       677.30000  5.38086e-11      2761.46
       677.40000  5.38086e-11      2760.92
       677.50000  3.32448e-11      1705.79
       677.60000  3.32448e-11      1705.46
       677.70000  3.32448e-11      1705.46
       677.80000  3.32448e-11      1705.13
       677.90000  3.32448e-11      1704.79
       678.00000  3.32448e-11      1704.46
       678.10000  3.32448e-11      1704.13
       678.20000  3.32448e-11      1703.80
       678.30000  3.32448e-11      1703.46
       678.40000  3.32448e-11      1703.13
       678.50000  4.82661e-12      247.171
       678.60000  4.82661e-12      247.123
       678.70000  4.82661e-12      247.074
       678.80000  4.82625e-12      246.959
       678.90000  4.82625e-12      246.911
       679.00000  4.82625e-12      246.814
       679.10000  4.82625e-12      246.814
       679.20000  4.82625e-12      246.863
       679.30000  4.82625e-12      246.863
       679.40000  4.82625e-12      246.863
       679.50000  3.12808e-11      1600.01
       679.60000  3.12808e-11      1600.01
       679.70000  3.12808e-11      1600.01
       679.80000  3.12808e-11      1600.01
       679.90000  3.12808e-11      1600.01
       680.00000  3.12808e-11      1599.70
       680.10000  3.12808e-11      1599.70
       680.20000  3.12808e-11      1599.70
       680.30000  3.12808e-11      1599.39
       680.40000  3.12808e-11      1599.39
       680.50000  7.03602e-12      359.681
       680.60000  7.03602e-12      359.681
       680.70000  7.03602e-12      359.611
       680.80000  7.03602e-12      359.541
       680.90000  7.03602e-12      359.470
       681.00000  7.03602e-12      359.470
       681.10000  7.03602e-12      359.400
       681.20000  7.03602e-12      359.329
       681.30000  7.03535e-12      359.296
       681.40000  7.03535e-12      359.225
       681.50000  1.59710e-11      815.318
       681.60000  1.59710e-11      815.159
       681.70000  1.59710e-11      814.999
       681.80000  1.59710e-11      814.679
       681.90000  1.59710e-11      814.520
       682.00000  1.59710e-11      814.360
       682.10000  1.59710e-11      814.041
       682.20000  1.59710e-11      813.721
       682.30000  1.59710e-11      813.561
       682.40000  1.59710e-11      813.242
       682.50000  1.50547e-11      766.283
       682.60000  1.50547e-11      765.981
       682.70000  1.50547e-11      765.680
       682.80000  1.50547e-11      765.379
       682.90000  1.50547e-11      764.928
       683.00000  1.50547e-11      764.627
       683.10000  1.50547e-11      764.325
       683.20000  1.50547e-11      763.874
       683.30000  1.50547e-11      763.422
       683.40000  1.50547e-11      762.971
       683.50000  1.89059e-11      957.773
       683.60000  1.89059e-11      957.206
       683.70000  1.89059e-11      956.639
       683.80000  1.88914e-11      955.150
       683.90000  1.88914e-11      954.583
       684.00000  1.88914e-11      954.017
       684.10000  1.88914e-11      953.261
       684.20000  1.88914e-11      952.694
       684.30000  1.88914e-11      951.939
       684.40000  1.88914e-11      951.372
       684.50000  1.59879e-11      804.512
       684.60000  1.59879e-11      803.872
       684.70000  1.59879e-11      803.233
       684.80000  1.59879e-11      802.593
       684.90000  1.59879e-11      801.794
       685.00000  1.59879e-11      801.154
       685.10000  1.59879e-11      801.794
       685.20000  1.59879e-11      802.593
       685.30000  1.59879e-11      803.233
       685.40000  1.59879e-11      803.712
       685.50000  3.55663e-11      1789.34
       685.60000  3.55663e-11      1790.76
       685.70000  3.55663e-11      1791.83
       685.80000  3.55663e-11      1792.90
       685.90000  3.55663e-11      1793.96
       686.00000  3.55663e-11      1795.03
       686.10000  3.55663e-11      1796.10
       686.20000  3.55663e-11      1796.81
       686.30000  3.55289e-11      1795.99
       686.40000  3.55289e-11      1796.70
       686.50000  3.55042e-11      1796.16
       686.60000  3.55042e-11      1796.87
       686.70000  3.55042e-11      1797.58
       686.80000  3.55042e-11      1797.93
       686.90000  3.55042e-11      1798.64
       687.00000  3.55042e-11      1799.00
       687.10000  3.55042e-11      1799.35
       687.20000  3.55042e-11      1799.35
       687.30000  3.55042e-11      1799.35
       687.40000  3.55042e-11      1799.35
       687.50000  7.31323e-12      370.634
       687.60000  7.31323e-12      370.634
       687.70000  7.31323e-12      370.634
       687.80000  7.31323e-12      370.634
       687.90000  7.31323e-12      370.634
       688.00000  7.31323e-12      370.561
       688.10000  7.31323e-12      370.561
       688.20000  7.31323e-12      370.561
       688.30000  7.31323e-12      370.488
       688.40000  7.31323e-12      370.488
       688.50000  1.57629e-11      798.391
       688.60000  1.57629e-11      798.233
       688.70000  1.57629e-11      798.233
       688.80000  1.57428e-11      797.058
       688.90000  1.57428e-11      796.900
       689.00000  1.57428e-11      796.743
       689.10000  1.57428e-11      796.586
       689.20000  1.57428e-11      796.428
       689.30000  1.57428e-11      796.271
       689.40000  1.57428e-11      796.113
       689.50000  2.79907e-11      1415.21
       689.60000  2.79907e-11      1414.93
       689.70000  2.79907e-11      1414.37
       689.80000  2.79907e-11      1414.09
       689.90000  2.79907e-11      1413.81
       690.00000  2.79907e-11      1413.25
       690.10000  2.79907e-11      1412.69
       690.20000  2.79907e-11      1412.41
       690.30000  2.79907e-11      1411.85
       690.40000  2.79907e-11      1411.29
       690.50000  2.99471e-11      1509.63
       690.60000  2.99471e-11      1509.03
       690.70000  2.99471e-11      1508.44
       690.80000  2.99471e-11      1507.84
       690.90000  2.99471e-11      1507.24
       691.00000  2.99471e-11      1506.64
       691.10000  2.99471e-11      1507.24
       691.20000  2.99471e-11      1507.54
       691.30000  2.99185e-11      1506.70
       691.40000  2.99185e-11      1506.99
       691.50000  2.96862e-11      1495.59
       691.60000  2.96862e-11      1496.19
       691.70000  2.96862e-11      1496.48
       691.80000  2.96862e-11      1496.78
       691.90000  2.96862e-11      1497.08
       692.00000  2.96862e-11      1497.08
       692.10000  2.96862e-11      1497.37
       692.20000  2.96862e-11      1497.67
       692.30000  2.96862e-11      1497.67
       692.40000  2.96862e-11      1497.67
       692.50000  4.20910e-11      2123.91
       692.60000  4.20910e-11      2123.91
       692.70000  4.20910e-11      2123.91
       692.80000  4.20910e-11      2123.91
       692.90000  4.20910e-11      2123.91
       693.00000  4.20910e-11      2123.49
       693.10000  4.20910e-11      2123.49
       693.20000  4.20910e-11      2123.07
       693.30000  4.20910e-11      2122.65
       693.40000  4.20910e-11      2122.23
       693.50000  2.68090e-11      1351.44
       693.60000  2.68090e-11      1351.17
       693.70000  2.68090e-11      1350.91
       693.80000  2.67027e-11      1345.28
       693.90000  2.67027e-11      1344.75
       694.00000  2.67027e-11      1344.48
       694.10000  2.67027e-11      1344.21
       694.20000  2.67027e-11      1343.68
       694.30000  2.67027e-11      1343.41
       694.40000  2.67027e-11      1342.88
       694.50000  2.07555e-11      1043.38
       694.60000  2.07555e-11      1043.17
       694.70000  2.07555e-11      1042.76
       694.80000  2.07555e-11      1042.34
       694.90000  2.07555e-11      1041.93
       695.00000  2.07555e-11      1041.51
       695.10000  2.07555e-11      1041.10
       695.20000  2.07555e-11      1040.68
       695.30000  2.07555e-11      1040.06
       695.40000  2.07555e-11      1039.65
       695.50000  1.48960e-11      745.841
       695.60000  1.48960e-11      745.394
       695.70000  1.48960e-11      745.096
       695.80000  1.48960e-11      744.649
       695.90000  1.48960e-11      744.202
       696.00000  1.48960e-11      743.904
       696.10000  1.48960e-11      743.457
       696.20000  1.48960e-11      743.011
       696.30000  1.48813e-11      741.835
       696.40000  1.48813e-11      741.388
       696.50000  3.13530e-11      1561.07
       696.60000  3.13530e-11      1560.13
       696.70000  3.13530e-11      1558.87
       696.80000  3.13530e-11      1557.93
       696.90000  3.13530e-11      1556.99
       697.00000  3.13530e-11      1555.74
       697.10000  3.13530e-11      1557.93
       697.20000  3.13530e-11      1559.50
       697.30000  3.13530e-11      1561.38
       697.40000  3.13530e-11      1562.95
       697.50000  2.74493e-11      1369.72
       697.60000  2.74493e-11      1370.82
       697.70000  2.74493e-11      1371.92
       697.80000  2.74493e-11      1372.74
       697.90000  2.74493e-11      1373.57
       698.00000  2.74493e-11      1374.11
       698.10000  2.74493e-11      1374.66
       698.20000  2.74493e-11      1375.21
       698.30000  2.74493e-11      1375.49
       698.40000  2.74493e-11      1375.76
       698.50000  2.25423e-11      1130.04
       698.60000  2.25423e-11      1130.04
       698.70000  2.25423e-11      1129.82
       698.80000  2.25038e-11      1127.67
       698.90000  2.25038e-11      1127.44
       699.00000  2.25038e-11      1126.99
       699.10000  2.25038e-11      1124.97
       699.20000  2.25038e-11      1122.71
       699.30000  2.25038e-11      1120.91
       699.40000  2.25038e-11      1118.89
       699.50000  3.74029e-11      1856.68
       699.60000  3.74029e-11      1853.69
       699.70000  3.74029e-11      1851.07
       699.80000  3.74029e-11      1848.45
       699.90000  3.74029e-11      1845.83
       700.00000  3.74029e-11      1843.59
       700.10000  3.74029e-11      1841.34
       700.20000  3.74029e-11      1839.10
       700.30000  3.74029e-11      1837.23
       700.40000  3.74029e-11      1835.36
       700.50000  2.66811e-11      1307.91
       700.60000  2.66811e-11      1306.84
       700.70000  2.66811e-11      1305.77
       700.80000  2.66811e-11      1304.97
       700.90000  2.66811e-11      1304.17
       701.00000  2.66811e-11      1303.37
       701.10000  2.66811e-11      1303.11
       701.20000  2.66811e-11      1302.84
       701.30000  2.66629e-11      1301.68
       701.40000  2.66629e-11      1301.68
       701.50000  2.60289e-11      1270.73
       701.60000  2.60289e-11      1270.73
       701.70000  2.60289e-11      1270.73
       701.80000  2.60289e-11      1270.99
       701.90000  2.60289e-11      1270.99
       702.00000  2.60289e-11      1271.25
       702.10000  2.60289e-11      1271.77
       702.20000  2.60289e-11      1272.03
       702.30000  2.60289e-11      1272.55
       702.40000  2.60289e-11      1272.81
       702.50000  3.04187e-11      1488.08
       702.60000  3.04187e-11      1489.00
       702.70000  3.04187e-11      1489.61
       702.80000  3.04187e-11      1490.52
       702.90000  3.04187e-11      1491.43
       703.00000  3.04187e-11      1492.34
       703.10000  3.04187e-11      1495.08
       703.20000  3.04187e-11      1497.82
       703.30000  3.04187e-11      1500.25
       703.40000  3.04187e-11      1502.69
       703.50000  3.52503e-11      1743.83
       703.60000  3.52503e-11      1746.65
       703.70000  3.52503e-11      1748.77
       703.80000  3.51554e-11      1746.52
       703.90000  3.51554e-11      1748.63
       704.00000  3.51554e-11      1750.39
       704.10000  3.51554e-11      1752.50
       704.20000  3.51554e-11      1754.25
       704.30000  3.51554e-11      1755.66
       704.40000  3.51554e-11      1757.07
       704.50000  3.22675e-11      1614.02
       704.60000  3.22675e-11      1615.31
       704.70000  3.22675e-11      1616.28
       704.80000  3.22675e-11      1616.92
       704.90000  3.22675e-11      1617.89
       705.00000  3.22675e-11      1618.54
       705.10000  3.22675e-11      1618.86
       705.20000  3.22675e-11      1619.18
       705.30000  3.22675e-11      1619.51
       705.40000  3.22675e-11      1619.83
       705.50000  3.50798e-11      1761.01
       705.60000  3.50798e-11      1761.01
       705.70000  3.50798e-11      1760.66
       705.80000  3.50798e-11      1760.31
       705.90000  3.50798e-11      1759.95
       706.00000  3.50798e-11      1759.25
       706.10000  3.50798e-11      1758.55
       706.20000  3.50798e-11      1757.50
       706.30000  3.51062e-11      1757.77
       706.40000  3.51062e-11      1756.71
       706.50000  3.73543e-11      1867.71
       706.60000  3.73543e-11      1866.22
       706.70000  3.73543e-11      1864.73
       706.80000  3.73543e-11      1862.86
       706.90000  3.73543e-11      1860.99
       707.00000  3.73543e-11      1859.12
       707.10000  3.73543e-11      1857.63
       707.20000  3.73543e-11      1856.51
       707.30000  3.73543e-11      1855.01
       707.40000  3.73543e-11      1853.89
       707.50000  5.03939e-11      2499.54
       707.60000  5.03939e-11      2498.03
       707.70000  5.03939e-11      2497.02
       707.80000  5.03939e-11      2495.51
       707.90000  5.03939e-11      2494.50
       708.00000  5.03939e-11      2493.49
       708.10000  5.03939e-11      2492.48
       708.20000  5.03939e-11      2491.47
       708.30000  5.03939e-11      2490.47
       708.40000  5.03939e-11      2489.46
       708.50000  4.29489e-11      2121.24
       708.60000  4.29489e-11      2120.39
       708.70000  4.29489e-11      2119.96
       708.80000  4.28026e-11      2112.31
       708.90000  4.28026e-11      2111.88
       709.00000  4.28026e-11      2111.88
       709.10000  4.28026e-11      2112.74
       709.20000  4.28026e-11      2113.59
       709.30000  4.28026e-11      2114.02
       709.40000  4.28026e-11      2114.88
       709.50000  3.07465e-11      1519.49
       709.60000  3.07465e-11      1520.11
       709.70000  3.07465e-11      1520.41
       709.80000  3.07465e-11      1520.72
       709.90000  3.07465e-11      1521.03
       710.00000  3.07465e-11      1521.34
       710.10000  3.07465e-11      1521.64
       710.20000  3.07465e-11      1521.95
       710.30000  3.07465e-11      1521.95
       710.40000  3.07465e-11      1522.26
       710.50000  5.02198e-11      2486.38
       710.60000  5.02198e-11      2486.38
       710.70000  5.02198e-11      2486.38
       710.80000  5.02198e-11      2486.38
       710.90000  5.02198e-11      2486.38
       711.00000  5.02198e-11      2486.38
       711.10000  5.02198e-11      2486.38
       711.20000  5.02198e-11      2485.88
       711.30000  5.02307e-11      2486.42
       711.40000  5.02307e-11      2485.92
       711.50000  8.57087e-11      4240.87
       711.60000  8.57087e-11      4240.01
       711.70000  8.57087e-11      4239.15
       711.80000  8.57087e-11      4238.30
       711.90000  8.57087e-11      4237.44
       712.00000  8.57087e-11      4235.72
       712.10000  8.57087e-11      4234.87
       712.20000  8.57087e-11      4233.15
       712.30000  8.57087e-11      4232.30
       712.40000  8.57087e-11      4230.58
       712.50000  1.06150e-10      5237.47
       712.60000  1.06150e-10      5235.34
       712.70000  1.06150e-10      5232.16
       712.80000  1.06150e-10      5230.03
       712.90000  1.06150e-10      5227.91
       713.00000  1.06150e-10      5224.73
       713.10000  1.06150e-10      5224.73
       713.20000  1.06150e-10      5224.73
       713.30000  1.06150e-10      5224.73
       713.40000  1.06150e-10      5223.67
       713.50000  1.36454e-10      6714.88
       713.60000  1.36454e-10      6714.88
       713.70000  1.36454e-10      6713.51
       713.80000  1.36422e-10      6711.95
       713.90000  1.36422e-10      6710.58
       714.00000  1.36422e-10      6710.58
       714.10000  1.36422e-10      6709.22
       714.20000  1.36422e-10      6707.85
       714.30000  1.36422e-10      6707.85
       714.40000  1.36422e-10      6706.49
       714.50000  2.67328e-10      13139.2
       714.60000  2.67328e-10      13136.5
       714.70000  2.67328e-10      13136.5
       714.80000  2.67328e-10      13133.8
       714.90000  2.67328e-10      13131.1
       715.00000  2.67328e-10      13128.5
       715.10000  2.67328e-10      13125.8
       715.20000  2.67328e-10      13125.8
       715.30000  2.67328e-10      13125.8
       715.40000  2.67328e-10      13123.1
       715.50000  3.92716e-10      19274.5
       715.60000  3.92716e-10      19270.6
       715.70000  3.92716e-10      19266.6
       715.80000  3.92716e-10      19262.7
       715.90000  3.92716e-10      19258.8
       716.00000  3.92716e-10      19250.9
       716.10000  3.92716e-10      19247.0
       716.20000  3.92716e-10      19239.1
       716.30000  3.92149e-10      19203.6
       716.40000  3.92149e-10      19195.7
       716.50000  4.26709e-10      20878.9
       716.60000  4.26709e-10      20870.3
       716.70000  4.26709e-10      20861.8
       716.80000  4.26709e-10      20849.0
       716.90000  4.26709e-10      20840.5
       717.00000  4.26709e-10      20827.7
       717.10000  3.83882e-10      18725.8
       717.20000  3.83882e-10      18714.2
       717.30000  5.11842e-10      24937.0
       717.40000  3.83882e-10      18691.2
       717.50000  4.89677e-10      23827.7
       717.60000  2.44839e-10      11904.0
       717.70000  4.89677e-10      23793.4
       717.80000  3.67258e-10      17830.4
       717.90000  4.89677e-10      23754.2
       718.00000  4.89677e-10      23734.6
       718.10000  3.67258e-10      17786.3
       718.20000  6.12096e-10      29619.3
       718.30000  6.12096e-10      29594.9
       718.40000  7.34516e-10      35477.1
       718.50000  7.34660e-10      35454.7
       718.60000  7.34660e-10      35417.9
       718.70000  8.57103e-10      41278.1
       718.80000  8.53583e-10      41065.9
       718.90000  1.09746e-09      52744.1
       719.00000  9.75523e-10      46834.9
       719.10000  1.46328e-09      70252.3
       719.20000  1.21940e-09      58543.6
       719.30000  1.34134e-09      64397.9
       719.40000  1.58523e-09      76122.5
       719.50000  1.74634e-09      83859.1
       719.60000  1.87107e-09      89867.7
       719.70000  1.99581e-09      95858.9
       719.80000  2.12055e-09      101871.
       719.90000  2.12055e-09      101892.
       720.00000  2.74424e-09      131916.
       720.10000  2.86898e-09      137941.
       720.20000  2.86898e-09      137969.
       720.30000  3.36793e-09      162031.
       720.40000  3.36793e-09      162065.
       720.50000  3.81491e-09      183650.
       720.60000  4.29177e-09      206692.
       720.70000  4.64942e-09      224009.
       720.80000  5.00707e-09      241341.
       720.90000  5.84158e-09      281739.
       721.00000  5.96080e-09      287608.
       721.10000  6.43766e-09      310939.
       721.20000  7.39139e-09      357374.
       721.30000  7.73326e-09      374290.
       721.40000  8.80402e-09      426467.
       721.50000  1.01064e-08      490059.
       721.60000  1.03499e-08      502282.
       721.70000  1.22981e-08      597321.
       721.80000  1.41246e-08      686738.
       721.90000  1.47334e-08      716928.
       722.00000  1.74122e-08      847801.
       722.10000  1.97257e-08      961235.
       722.20000  2.13087e-08  1.03922e+06
       722.30000  2.39875e-08  1.17059e+06
       722.40000  2.86145e-08  1.39725e+06
       722.50000  2.97550e-08  1.45383e+06
       722.60000  3.58250e-08  1.75184e+06
       722.70000  4.10619e-08  2.00875e+06
       722.80000  4.57037e-08  2.23719e+06
       722.90000  5.37970e-08  2.63498e+06
       723.00000  6.43898e-08  3.15510e+06
       723.10000  7.05788e-08  3.46048e+06
       723.20000  8.53373e-08  4.18579e+06
       723.30000  1.02357e-07  5.02267e+06
       723.40000  1.12117e-07  5.50381e+06
       723.50000  1.24925e-07  6.13506e+06
       723.60000  1.56453e-07  7.68498e+06
       723.70000  1.70706e-07  8.38847e+06
       723.80000  2.10547e-07  1.03484e+07
       723.90000  2.61785e-07  1.28693e+07
       724.00000  2.97091e-07  1.46080e+07
       724.10000  3.75347e-07  1.84596e+07
       724.20000  4.79544e-07  2.35888e+07
       724.30000  5.49081e-07  2.70148e+07
       724.40000  6.95043e-07  3.42031e+07
       724.50000  8.87789e-07  4.36881e+07
       724.60000  9.99543e-07  4.91875e+07
       724.70000  1.30208e-06  6.40751e+07
       724.80000  1.65930e-06  8.16542e+07
       724.90000  1.83199e-06  9.01523e+07
       725.00000  2.31508e-06  1.13925e+08
       725.10000  2.91261e-06  1.43388e+08
       725.20000  3.28835e-06  1.61951e+08
       725.30000  4.05340e-06  1.99671e+08
       725.40000  4.85947e-06  2.39475e+08
       725.50000  5.47365e-06  2.69796e+08
       725.60000  6.37389e-06  3.14233e+08
       725.70000  7.25624e-06  3.57732e+08
       725.80000  7.67759e-06  3.78582e+08
       725.90000  8.32921e-06  4.10713e+08
       726.00000  8.83118e-06  4.35466e+08
       726.10000  8.96184e-06  4.41908e+08
       726.20000  9.22028e-06  4.54652e+08
       726.30000  9.33586e-06  4.60258e+08
       726.40000  9.33442e-06  4.60094e+08
       726.50000  8.88768e-06  4.37985e+08
       726.60000  8.89082e-06  4.38051e+08
       726.70000  8.88820e-06  4.37833e+08
       726.80000  8.87700e-06  4.37104e+08
       726.90000  8.89752e-06  4.37936e+08
       727.00000  8.90861e-06  4.38304e+08
       727.10000  8.98157e-06  4.41265e+08
       727.20000  8.97927e-06  4.40523e+08
       727.30000  9.01946e-06  4.41863e+08
       727.40000  9.03181e-06  4.41927e+08
       727.50000  9.08498e-06  4.43983e+08
       727.60000  9.08980e-06  4.43673e+08
       727.70000  9.10812e-06  4.44112e+08
       727.80000  9.10770e-06  4.43636e+08
       727.90000  9.11838e-06  4.43700e+08
       728.00000  9.10414e-06  4.42643e+08
       728.10000  9.06928e-06  4.40586e+08
       728.20000  9.06614e-06  4.40070e+08
       728.30000  8.99128e-06  4.36077e+08
       728.40000  8.93255e-06  4.32961e+08
       728.50000  8.64070e-06  4.18555e+08
       728.60000  8.49847e-06  4.11496e+08
       728.70000  8.29518e-06  4.01404e+08
       728.80000  8.17241e-06  3.95381e+08
       728.90000  7.82060e-06  3.78204e+08
       729.00000  7.29940e-06  3.52926e+08
       729.10000  7.03518e-06  3.40081e+08
       729.20000  6.37449e-06  3.08079e+08
       729.30000  5.64771e-06  2.72954e+08
       729.40000  5.17148e-06  2.49886e+08
       729.50000  4.47593e-06  2.16322e+08
       729.60000  3.62847e-06  1.75364e+08
       729.70000  3.24675e-06  1.56948e+08
       729.80000  2.58324e-06  1.24900e+08
       729.90000  2.01002e-06  9.72248e+07
       730.00000  1.79360e-06  8.67923e+07
       730.10000  1.36777e-06  6.62140e+07
       730.20000  1.07017e-06  5.18282e+07
       730.30000  9.44044e-07  4.57484e+07
       730.40000  7.49306e-07  3.63339e+07
       730.50000  5.54259e-07  2.68926e+07
       730.60000  4.86664e-07  2.36324e+07
       730.70000  3.82839e-07  1.86060e+07
       730.80000  3.08098e-07  1.49859e+07
       730.90000  2.74449e-07  1.33629e+07
       731.00000  2.21445e-07  1.07932e+07
       731.10000  1.78764e-07  8.71118e+06
       731.20000  1.62982e-07  7.94049e+06
       731.30000  1.34892e-07  6.57059e+06
       731.40000  1.09600e-07  5.33860e+06
       731.50000  1.02974e-07  5.01486e+06
       731.60000  8.48200e-08  4.12989e+06
       731.70000  7.02369e-08  3.41913e+06
       731.80000  6.58719e-08  3.20664e+06
       731.90000  5.54554e-08  2.69902e+06
       732.00000  4.74198e-08  2.30745e+06
       732.10000  4.26580e-08  2.07531e+06
       732.20000  3.63089e-08  1.76607e+06
       732.30000  3.12495e-08  1.51997e+06
       732.40000  2.90670e-08  1.41353e+06
       732.50000  2.62894e-08  1.27819e+06
       732.60000  2.33567e-08  1.13537e+06
       732.70000  2.17856e-08  1.05878e+06
       732.80000  1.92719e-08      936421.
       732.90000  1.66534e-08      809023.
       733.00000  1.45587e-08      707114.
       733.10000  1.37207e-08      666279.
       733.20000  1.19402e-08      579577.
       733.30000  1.09975e-08      533711.
       733.40000  1.01596e-08      492844.
       733.50000  8.77201e-09      425443.
       733.60000  8.16001e-09      395679.
       733.70000  7.24201e-09      351020.
       733.80000  6.92456e-09      335564.
       733.90000  5.60074e-09      271356.
       734.00000  5.60074e-09      271300.
       734.10000  5.19342e-09      251517.
       734.20000  4.98975e-09      241604.
       734.30000  4.27693e-09      207046.
       734.40000  3.97144e-09      192257.
       734.50000  3.37222e-09      163215.
       734.60000  3.17952e-09      153857.
       734.70000  2.89047e-09      139870.
       734.80000  2.89047e-09      139841.
       734.90000  2.50508e-09      121196.
       735.00000  2.50508e-09      121171.
       735.10000  2.11968e-09      102529.
       735.20000  1.92698e-09      93208.1
       735.30000  1.83063e-09      88547.7
       735.40000  1.54159e-09      74551.1
       735.50000  1.48682e-09      71902.5
       735.60000  1.48682e-09      71902.5
       735.70000  1.28858e-09      62315.5
       735.80000  9.91212e-10      47944.9
       735.90000  1.28858e-09      62328.4
       736.00000  1.28858e-09      62328.4
       736.10000  1.09033e-09      52739.4
       736.20000  9.91212e-10      47954.8
       736.30000  8.90387e-10      43076.9
       736.40000  8.90387e-10      43085.8
       736.50000  7.91610e-10      38306.0
       736.60000  5.93707e-10      28735.4
       736.70000  6.92659e-10      33531.6
       736.80000  7.91610e-10      38321.8
       736.90000  7.91610e-10      38329.8
       737.00000  8.90561e-10      43129.9
       737.10000  8.90561e-10      43085.4
       737.20000  8.90561e-10      43031.9
       737.30000  8.90561e-10      42987.4
       737.40000  8.90561e-10      42942.9
       737.50000  7.25787e-10      34953.9
       737.60000  7.25787e-10      34917.6
       737.70000  7.25787e-10      34881.3
       737.80000  7.25787e-10      34845.0
       737.90000  7.25787e-10      34816.0
       738.00000  7.25787e-10      34779.7
       738.10000  7.25787e-10      34743.4
       738.20000  7.25787e-10      34707.1
       738.30000  7.25787e-10      34678.1
       738.40000  7.25787e-10      34649.1
       738.50000  3.73963e-10      17834.3
       738.60000  3.73963e-10      17819.3
       738.70000  3.73963e-10      17804.4
       738.80000  3.72392e-10      17714.7
       738.90000  3.72392e-10      17699.8
       739.00000  3.72392e-10      17684.9
       739.10000  3.72392e-10      17655.1
       739.20000  3.72392e-10      17629.0
       739.30000  3.72392e-10      17606.7
       739.40000  3.72392e-10      17584.3
       739.50000  1.91710e-10      9041.02
       739.60000  1.91710e-10      9031.44
       739.70000  1.91710e-10      9023.77
       739.80000  1.91710e-10      9014.18
       739.90000  1.91710e-10      9008.43
       740.00000  1.91710e-10      9000.76
       740.10000  1.91710e-10      8996.93
       740.20000  1.91710e-10      8991.18
       740.30000  1.91710e-10      8987.34
       740.40000  1.91710e-10      8985.43
       740.50000  9.31344e-11      4364.28
       740.60000  9.31344e-11      4363.35
       740.70000  9.31344e-11      4363.35
       740.80000  9.31344e-11      4363.35
       740.90000  9.31344e-11      4364.28
       741.00000  9.31344e-11      4365.21
       741.10000  9.31344e-11      4367.07
       741.20000  9.31344e-11      4368.93
       741.30000  9.30710e-11      4367.82
       741.40000  9.30710e-11      4370.62
       741.50000  9.02647e-11      4241.54
       741.60000  9.02647e-11      4245.15
       741.70000  9.02647e-11      4249.66
       741.80000  9.02647e-11      4253.27
       741.90000  9.02647e-11      4258.69
       742.00000  9.02647e-11      4263.20
       742.10000  9.02647e-11      4268.62
       742.20000  9.02647e-11      4274.94
       742.30000  9.02647e-11      4281.25
       742.40000  9.02647e-11      4287.57
       742.50000  5.99850e-11      2854.09
       742.60000  5.99850e-11      2858.89
       742.70000  5.99850e-11      2864.28
       742.80000  5.99850e-11      2869.68
       742.90000  5.99850e-11      2875.68
       743.00000  5.99850e-11      2881.68
       743.10000  5.99850e-11      2880.48
       743.20000  5.99850e-11      2879.88
       743.30000  5.99850e-11      2879.28
       743.40000  5.99850e-11      2878.08
       743.50000  5.13590e-11      2463.69
       743.60000  5.13590e-11      2463.18
       743.70000  5.13590e-11      2462.67
       743.80000  5.13361e-11      2461.05
       743.90000  5.13361e-11      2460.54
       744.00000  5.13361e-11      2460.03
       744.10000  5.13361e-11      2460.03
       744.20000  5.13361e-11      2459.51
       744.30000  5.13361e-11      2459.51
       744.40000  5.13361e-11      2459.51
       744.50000  3.68608e-11      1765.63
       744.60000  3.68608e-11      1765.63
       744.70000  3.68608e-11      1765.63
       744.80000  3.68608e-11      1765.63
       744.90000  3.68608e-11      1766.00
       745.00000  3.68608e-11      1766.00
       745.10000  3.68608e-11      1767.11
       745.20000  3.68608e-11      1768.21
       745.30000  3.68608e-11      1768.95
       745.40000  3.68608e-11      1770.05
       745.50000  3.23503e-11      1554.11
       745.60000  3.23503e-11      1554.75
       745.70000  3.23503e-11      1555.40
       745.80000  3.23503e-11      1556.05
       745.90000  3.23503e-11      1556.37
       746.00000  3.23503e-11      1557.02
       746.10000  3.23503e-11      1557.34
       746.20000  3.23503e-11      1557.67
       746.30000  3.22027e-11      1550.88
       746.40000  3.22027e-11      1551.21
       746.50000  3.00664e-11      1448.60
       746.60000  3.00664e-11      1448.60
       746.70000  3.00664e-11      1448.90
       746.80000  3.00664e-11      1448.90
       746.90000  3.00664e-11      1448.90
       747.00000  3.00664e-11      1448.90
       747.10000  3.00664e-11      1448.00
       747.20000  3.00664e-11      1447.40
       747.30000  3.00664e-11      1446.80
       747.40000  3.00664e-11      1446.19
       747.50000  2.71740e-11      1306.53
       747.60000  2.71740e-11      1305.98
       747.70000  2.71740e-11      1305.44
       747.80000  2.71740e-11      1304.90
       747.90000  2.71740e-11      1304.35
       748.00000  2.71740e-11      1303.81
       748.10000  2.71740e-11      1303.54
       748.20000  2.71740e-11      1303.00
       748.30000  2.71740e-11      1302.45
       748.40000  2.71740e-11      1302.18
       748.50000  2.36708e-11      1133.83
       748.60000  2.36708e-11      1133.36
       748.70000  2.36708e-11      1133.12
       748.80000  2.35874e-11      1128.66
       748.90000  2.35874e-11      1128.42
       749.00000  2.35874e-11      1128.18
       749.10000  2.35874e-11      1127.71
       749.20000  2.35874e-11      1127.48
       749.30000  2.35874e-11      1127.24
       749.40000  2.35874e-11      1127.01
       749.50000  2.16227e-11      1032.92
       749.60000  2.16227e-11      1032.70
       749.70000  2.16227e-11      1032.27
       749.80000  2.16227e-11      1032.05
       749.90000  2.16227e-11      1032.05
       750.00000  2.16227e-11      1031.84
       750.10000  2.16227e-11      1031.62
       750.20000  2.16227e-11      1031.40
       750.30000  2.16227e-11      1031.19
       750.40000  2.16227e-11      1031.19
       750.50000  1.54023e-11      734.381
       750.60000  1.54023e-11      734.227
       750.70000  1.54023e-11      734.227
       750.80000  1.54023e-11      734.073
       750.90000  1.54023e-11      734.073
       751.00000  1.54023e-11      733.919
       751.10000  1.54023e-11      733.919
       751.20000  1.54023e-11      733.919
       751.30000  1.53678e-11      732.123
       751.40000  1.53678e-11      732.123
       751.50000  1.90341e-11      906.785
       751.60000  1.90341e-11      906.785
       751.70000  1.90341e-11      906.785
       751.80000  1.90341e-11      906.785
       751.90000  1.90341e-11      906.785
       752.00000  1.90341e-11      906.785
       752.10000  1.90341e-11      906.785
       752.20000  1.90341e-11      906.785
       752.30000  1.90341e-11      906.785
       752.40000  1.90341e-11      906.785
       752.50000  1.70362e-11      811.775
       752.60000  1.70362e-11      811.775
       752.70000  1.70362e-11      811.775
       752.80000  1.70362e-11      811.945
       752.90000  1.70362e-11      811.945
       753.00000  1.70362e-11      812.116
       753.10000  1.70362e-11      812.116
       753.20000  1.70362e-11      812.116
       753.30000  1.70362e-11      812.116
       753.40000  1.70362e-11      812.116
       753.50000  1.43402e-11      683.596
       753.60000  1.43402e-11      683.596
       753.70000  1.43402e-11      683.596
       753.80000  1.43329e-11      683.251
       753.90000  1.43329e-11      683.251
       754.00000  1.43329e-11      683.251
       754.10000  1.43329e-11      683.251
       754.20000  1.43329e-11      683.108
       754.30000  1.43329e-11      683.108
       754.40000  1.43329e-11      683.108
       754.50000  2.50355e-11      1193.19
       754.60000  2.50355e-11      1193.19
       754.70000  2.50355e-11      1192.94
       754.80000  2.50355e-11      1192.94
       754.90000  2.50355e-11      1192.69
       755.00000  2.50355e-11      1192.69
       755.10000  2.50355e-11      1192.44
       755.20000  2.50355e-11      1192.44
       755.30000  2.50355e-11      1192.19
       755.40000  2.50355e-11      1192.19
       755.50000  1.47543e-11      702.452
       755.60000  1.47543e-11      702.304
       755.70000  1.47543e-11      702.304
       755.80000  1.47543e-11      702.157
       755.90000  1.47543e-11      702.009
       756.00000  1.47543e-11      702.009
       756.10000  1.47543e-11      701.862
       756.20000  1.47543e-11      701.714
       756.30000  1.47308e-11      700.449
       756.40000  1.47308e-11      700.449
       756.50000  1.54836e-11      736.088
       756.60000  1.54836e-11      735.934
       756.70000  1.54836e-11      735.779
       756.80000  1.54836e-11      735.779
       756.90000  1.54836e-11      735.624
       757.00000  1.54836e-11      735.469
       757.10000  1.54836e-11      735.314
       757.20000  1.54836e-11      735.159
       757.30000  1.54836e-11      735.159
       757.40000  1.54836e-11      735.005
       757.50000  1.85205e-11      878.985
       757.60000  1.85205e-11      878.800
       757.70000  1.85205e-11      878.615
       757.80000  1.85205e-11      878.430
       757.90000  1.85205e-11      878.244
       758.00000  1.85205e-11      878.244
       758.10000  1.85205e-11      878.059
       758.20000  1.85205e-11      877.874
       758.30000  1.85205e-11      877.689
       758.40000  1.85205e-11      877.504
       758.50000  1.30061e-11      616.100
       758.60000  1.30061e-11      615.970
       758.70000  1.30061e-11      615.840
       758.80000  1.29710e-11      614.049
       758.90000  1.29710e-11      613.919
       759.00000  1.29710e-11      613.789
       759.10000  1.29710e-11      613.789
       759.20000  1.29710e-11      613.660
       759.30000  1.29710e-11      613.660
       759.40000  1.29710e-11      613.530
       759.50000  1.89416e-11      895.939
       759.60000  1.89416e-11      895.939
       759.70000  1.89416e-11      895.750
       759.80000  1.89416e-11      895.750
       759.90000  1.89416e-11      895.750
       760.00000  1.89416e-11      895.750
       760.10000  1.89416e-11      895.750
       760.20000  1.89416e-11      895.750
       760.30000  1.89416e-11      895.939
       760.40000  1.89416e-11      895.939
       760.50000  1.38476e-11      654.990
       760.60000  1.38476e-11      655.128
       760.70000  1.38476e-11      655.128
       760.80000  1.38476e-11      655.267
       760.90000  1.38476e-11      655.267
       761.00000  1.38476e-11      655.405
       761.10000  1.38476e-11      655.959
       761.20000  1.38476e-11      656.375
       761.30000  1.38188e-11      655.425
       761.40000  1.38188e-11      655.839
       761.50000  1.01606e-11      482.529
       761.60000  1.01606e-11      482.732
       761.70000  1.01606e-11      482.935
       761.80000  1.01606e-11      483.138
       761.90000  1.01606e-11      483.342
       762.00000  1.01606e-11      483.443
       762.10000  1.01606e-11      483.646
       762.20000  1.01606e-11      483.748
       762.30000  1.01606e-11      483.850
       762.40000  1.01606e-11      483.850
       762.50000  1.13889e-11      542.339
       762.60000  1.13889e-11      542.453
       762.70000  1.13889e-11      542.453
       762.80000  1.13889e-11      542.339
       762.90000  1.13889e-11      542.339
       763.00000  1.13889e-11      542.225
       763.10000  1.13889e-11      542.111
       763.20000  1.13889e-11      541.997
       763.30000  1.13889e-11      541.769
       763.40000  1.13889e-11      541.541
       763.50000  1.78565e-11      848.719
       763.60000  1.78565e-11      848.361
       763.70000  1.78565e-11      848.004
       763.80000  1.78108e-11      845.299
       763.90000  1.78108e-11      844.765
       764.00000  1.78108e-11      844.231
       764.10000  1.78108e-11      843.696
       764.20000  1.78108e-11      842.984
       764.30000  1.78108e-11      842.272
       764.40000  1.78108e-11      841.559
       764.50000  1.58336e-11      747.504
       764.60000  1.58336e-11      746.871
       764.70000  1.58336e-11      746.079
       764.80000  1.58336e-11      745.287
       764.90000  1.58336e-11      744.496
       765.00000  1.58336e-11      743.545
       765.10000  1.58336e-11      741.804
       765.20000  1.58336e-11      740.062
       765.30000  1.58336e-11      738.479
       765.40000  1.58336e-11      736.895
       765.50000  1.25399e-11      582.478
       765.60000  1.25399e-11      581.474
       765.70000  1.25399e-11      580.346
       765.80000  1.25399e-11      579.468
       765.90000  1.25399e-11      578.590
       766.00000  1.25399e-11      577.712
       766.10000  1.25399e-11      576.960
       766.20000  1.25399e-11      576.208
       766.30000  1.25395e-11      575.565
       766.40000  1.25395e-11      575.064
       766.50000  1.20816e-11      553.579
       766.60000  1.20816e-11      553.096
       766.70000  1.20816e-11      552.854
       766.80000  1.20816e-11      552.492
       766.90000  1.20816e-11      552.250
       767.00000  1.20816e-11      552.129
       767.10000  1.20816e-11      552.734
       767.20000  1.20816e-11      553.458
       767.30000  1.20816e-11      554.062
       767.40000  1.20816e-11      554.667
       767.50000  1.18315e-11      543.778
       767.60000  1.18315e-11      544.369
       767.70000  1.18315e-11      544.961
       767.80000  1.18315e-11      545.434
       767.90000  1.18315e-11      546.026
       768.00000  1.18315e-11      546.499
       768.10000  1.18315e-11      546.972
       768.20000  1.18315e-11      547.446
       768.30000  1.18315e-11      547.800
       768.40000  1.18315e-11      548.274
       768.50000  1.58478e-11      734.861
       768.60000  1.58478e-11      735.336
       768.70000  1.58478e-11      735.812
       768.80000  1.58393e-11      735.896
       768.90000  1.58393e-11      736.371
       769.00000  1.58393e-11      736.688
       769.10000  1.58393e-11      737.163
       769.20000  1.58393e-11      737.480
       769.30000  1.58393e-11      737.797
       769.40000  1.58393e-11      738.114
       769.50000  1.47391e-11      686.989
       769.60000  1.47391e-11      687.284
       769.70000  1.47391e-11      687.431
       769.80000  1.47391e-11      687.726
       769.90000  1.47391e-11      687.873
       770.00000  1.47391e-11      687.873
       770.10000  1.47391e-11      688.021
       770.20000  1.47391e-11      688.168
       770.30000  1.47391e-11      688.168
       770.40000  1.47391e-11      688.168
       770.50000  1.20749e-11      563.779
       770.60000  1.20749e-11      563.779
       770.70000  1.20749e-11      563.779
       770.80000  1.20749e-11      563.779
       770.90000  1.20749e-11      563.658
       771.00000  1.20749e-11      563.538
       771.10000  1.20749e-11      564.021
       771.20000  1.20749e-11      564.383
       771.30000  1.20380e-11      563.017
       771.40000  1.20380e-11      563.378
       771.50000  1.40646e-11      658.645
       771.60000  1.40646e-11      658.926
       771.70000  1.40646e-11      659.348
       771.80000  1.40646e-11      659.629
       771.90000  1.40646e-11      659.770
       772.00000  1.40646e-11      660.051
       772.10000  1.40646e-11      660.192
       772.20000  1.40646e-11      660.332
       772.30000  1.40646e-11      660.473
       772.40000  1.40646e-11      660.614
       772.50000  9.71544e-12      456.334
       772.60000  9.71544e-12      456.334
       772.70000  9.71544e-12      456.334
       772.80000  9.71544e-12      456.237
       772.90000  9.71544e-12      456.237
       773.00000  9.71544e-12      456.140
       773.10000  9.71544e-12      455.557
       773.20000  9.71544e-12      455.071
       773.30000  9.71544e-12      454.488
       773.40000  9.71544e-12      454.003
       773.50000  1.22630e-11      572.436
       773.60000  1.22630e-11      571.946
       773.70000  1.22630e-11      571.455
       773.80000  1.22145e-11      568.706
       773.90000  1.22145e-11      568.217
       774.00000  1.22145e-11      567.729
       774.10000  1.22145e-11      567.362
       774.20000  1.22145e-11      566.996
       774.30000  1.22145e-11      566.751
       774.40000  1.22145e-11      566.385
       774.50000  1.29796e-11      601.603
       774.60000  1.29796e-11      601.473
       774.70000  1.29796e-11      601.214
       774.80000  1.29796e-11      601.084
       774.90000  1.29796e-11      600.954
       775.00000  1.29796e-11      600.824
       775.10000  1.29796e-11      600.824
       775.20000  1.29796e-11      600.824
       775.30000  1.29796e-11      600.824
       775.40000  1.29796e-11      600.824
       775.50000  1.46188e-11      676.850
       775.60000  1.46188e-11      676.996
       775.70000  1.46188e-11      677.143
       775.80000  1.46188e-11      677.289
       775.90000  1.46188e-11      677.581
       776.00000  1.46188e-11      677.874
       776.10000  1.46188e-11      678.166
       776.20000  1.46188e-11      678.604
       776.30000  1.45817e-11      677.321
       776.40000  1.45817e-11      677.759
       776.50000  1.49538e-11      695.499
       776.60000  1.49538e-11      696.097
       776.70000  1.49538e-11      696.695
       776.80000  1.49538e-11      697.294
       776.90000  1.49538e-11      698.041
       777.00000  1.49538e-11      698.639
       777.10000  1.49538e-11      698.340
       777.20000  1.49538e-11      698.191
       777.30000  1.49538e-11      697.892
       777.40000  1.49538e-11      697.593
       777.50000  1.46697e-11      684.047
       777.60000  1.46697e-11      683.900
       777.70000  1.46697e-11      683.607
       777.80000  1.46697e-11      683.460
       777.90000  1.46697e-11      683.313
       778.00000  1.46697e-11      683.020
       778.10000  1.46697e-11      682.873
       778.20000  1.46697e-11      682.726
       778.30000  1.46697e-11      682.580
       778.40000  1.46697e-11      682.433
       778.50000  1.42669e-11      663.698
       778.60000  1.42669e-11      663.555
       778.70000  1.42669e-11      663.413
       778.80000  1.42308e-11      661.732
       778.90000  1.42308e-11      661.732
       779.00000  1.42308e-11      661.590
       779.10000  1.42308e-11      661.875
       779.20000  1.42308e-11      662.017
       779.30000  1.42308e-11      662.301
       779.40000  1.42308e-11      662.444
       779.50000  1.35582e-11      631.268
       779.60000  1.35582e-11      631.404
       779.70000  1.35582e-11      631.539
       779.80000  1.35582e-11      631.675
       779.90000  1.35582e-11      631.811
       780.00000  1.35582e-11      631.946
       780.10000  1.35582e-11      631.946
       780.20000  1.35582e-11      632.082
       780.30000  1.35582e-11      632.082
       780.40000  1.35582e-11      632.082
       780.50000  1.22143e-11      569.428
       780.60000  1.22143e-11      569.428
       780.70000  1.22143e-11      569.428
       780.80000  1.22143e-11      569.428
       780.90000  1.22143e-11      569.428
       781.00000  1.22143e-11      569.306
       781.10000  1.22143e-11      569.306
       781.20000  1.22143e-11      569.184
       781.30000  1.21463e-11      565.898
       781.40000  1.21463e-11      565.777
       781.50000  1.29162e-11      601.509
       781.60000  1.29162e-11      601.380
       781.70000  1.29162e-11      601.251
       781.80000  1.29162e-11      601.122
       781.90000  1.29162e-11      600.863
       782.00000  1.29162e-11      600.734
       782.10000  1.29162e-11      600.476
       782.20000  1.29162e-11      600.217
       782.30000  1.29162e-11      600.088
       782.40000  1.29162e-11      599.830
       782.50000  1.30516e-11      605.853
       782.60000  1.30516e-11      605.462
       782.70000  1.30516e-11      605.201
       782.80000  1.30516e-11      604.940
       782.90000  1.30516e-11      604.548
       783.00000  1.30516e-11      604.287
       783.10000  1.30516e-11      604.548
       783.20000  1.30516e-11      604.809
       783.30000  1.30516e-11      605.070
       783.40000  1.30516e-11      605.201
       783.50000  1.41880e-11      658.183
       783.60000  1.41880e-11      658.466
       783.70000  1.41880e-11      658.608
       783.80000  1.41157e-11      655.533
       783.90000  1.41157e-11      655.816
       784.00000  1.41157e-11      655.957
       784.10000  1.41157e-11      656.098
       784.20000  1.41157e-11      656.380
       784.30000  1.41157e-11      656.521
       784.40000  1.41157e-11      656.662
       784.50000  1.41801e-11      659.800
       784.60000  1.41801e-11      659.942
       784.70000  1.41801e-11      660.084
       784.80000  1.41801e-11      660.226
       784.90000  1.41801e-11      660.368
       785.00000  1.41801e-11      660.368
       785.10000  1.41801e-11      660.368
       785.20000  1.41801e-11      660.368
       785.30000  1.41801e-11      660.368
       785.40000  1.41801e-11      660.368
       785.50000  8.53670e-12      397.554
       785.60000  8.53670e-12      397.554
       785.70000  8.53670e-12      397.554
       785.80000  8.53670e-12      397.554
       785.90000  8.53670e-12      397.554
       786.00000  8.53670e-12      397.554
       786.10000  8.53670e-12      397.554
       786.20000  8.53670e-12      397.554
       786.30000  8.52239e-12      396.888
       786.40000  8.52239e-12      396.888
       786.50000  9.01012e-12      419.601
       786.60000  9.01012e-12      419.601
       786.70000  9.01012e-12      419.601
       786.80000  9.01012e-12      419.601
       786.90000  9.01012e-12      419.601
       787.00000  9.01012e-12      419.601
       787.10000  9.01012e-12      419.601
       787.20000  9.01012e-12      419.601
       787.30000  9.01012e-12      419.601
       787.40000  9.01012e-12      419.601
       787.50000  9.73732e-12      453.467
       787.60000  9.73732e-12      453.467
       787.70000  9.73732e-12      453.467
       787.80000  9.73732e-12      453.467
       787.90000  9.73732e-12      453.467
       788.00000  9.73732e-12      453.467
       788.10000  9.73732e-12      453.467
       788.20000  9.73732e-12      453.467
       788.30000  9.73732e-12      453.467
       788.40000  9.73732e-12      453.467
       788.50000  7.10015e-12      330.654
       788.60000  7.10015e-12      330.654
       788.70000  7.10015e-12      330.654
       788.80000  7.10139e-12      330.712
       788.90000  7.10139e-12      330.712
       789.00000  7.10139e-12      330.712
       789.10000  7.10139e-12      330.570
       789.20000  7.10139e-12      330.357
       789.30000  7.10139e-12      330.144
       789.40000  7.10139e-12      330.002
       789.50000  6.66758e-12      309.643
       789.60000  6.66758e-12      309.443
       789.70000  6.66758e-12      309.309
       789.80000  6.66758e-12      309.109
       789.90000  6.66758e-12      308.909
       790.00000  6.66758e-12      308.776
       790.10000  6.66758e-12      308.576
       790.20000  6.66758e-12      308.442
       790.30000  6.66758e-12      308.242
       790.40000  6.66758e-12      308.109
       790.50000  8.28009e-12      382.375
       790.60000  8.28009e-12      382.126
       790.70000  8.28009e-12      381.961
       790.80000  8.28009e-12      381.712
       790.90000  8.28009e-12      381.547
       791.00000  8.28009e-12      381.298
       791.10000  8.28009e-12      381.050
       791.20000  8.28009e-12      380.884
       791.30000  8.25596e-12      379.526
       791.40000  8.25596e-12      379.279
       791.50000  6.63249e-12      304.497
       791.60000  6.63249e-12      304.299
       791.70000  6.63249e-12      304.166
       791.80000  6.63249e-12      303.967
       791.90000  6.63249e-12      303.834
       792.00000  6.63249e-12      303.635
       792.10000  6.63249e-12      303.503
       792.20000  6.63249e-12      303.370
       792.30000  6.63249e-12      303.171
       792.40000  6.63249e-12      303.038
       792.50000  5.67024e-12      258.960
       792.60000  5.67024e-12      258.847
       792.70000  5.67024e-12      258.733
       792.80000  5.67024e-12      258.620
       792.90000  5.67024e-12      258.506
       793.00000  5.67024e-12      258.393
       793.10000  5.67024e-12      258.223
       793.20000  5.67024e-12      257.996
       793.30000  5.67024e-12      257.826
       793.40000  5.67024e-12      257.656
       793.50000  5.95760e-12      270.535
       793.60000  5.95760e-12      270.415
       793.70000  5.95760e-12      270.237
       793.80000  5.94060e-12      269.406
       793.90000  5.94060e-12      269.288
       794.00000  5.94060e-12      269.228
       794.10000  5.94060e-12      269.109
       794.20000  5.94060e-12      269.109
       794.30000  5.94060e-12      269.050
       794.40000  5.94060e-12      269.050
       794.50000  4.06683e-12      184.187
       794.60000  4.06683e-12      184.187
       794.70000  4.06683e-12      184.227
       794.80000  4.06683e-12      184.227
       794.90000  4.06683e-12      184.268
       795.00000  4.06683e-12      184.349
       795.10000  4.06683e-12      184.634
       795.20000  4.06683e-12      184.919
       795.30000  4.06683e-12      185.203
       795.40000  4.06683e-12      185.488
       795.50000  4.51711e-12      206.296
       795.60000  4.51711e-12      206.567
       795.70000  4.51711e-12      206.793
       795.80000  4.51711e-12      207.019
       795.90000  4.51711e-12      207.245
       796.00000  4.51711e-12      207.426
       796.10000  4.51711e-12      207.606
       796.20000  4.51711e-12      207.787
       796.30000  4.51110e-12      207.646
       796.40000  4.51110e-12      207.781
       796.50000  5.86085e-12      270.126
       796.60000  5.86085e-12      270.244
       796.70000  5.86085e-12      270.361
       796.80000  5.86085e-12      270.419
       796.90000  5.86085e-12      270.478
       797.00000  5.86085e-12      270.537
       797.10000  5.86085e-12      270.595
       797.20000  5.86085e-12      270.595
       797.30000  5.86085e-12      270.595
       797.40000  5.86085e-12      270.537
       797.50000  1.58867e-12      73.3173
       797.60000  1.58867e-12      73.3014
       797.70000  1.58867e-12      73.2696
       797.80000  1.58867e-12      73.2378
       797.90000  1.58867e-12      73.2061
       798.00000  1.58867e-12      73.1584
       798.10000  1.58867e-12      73.1108
       798.20000  1.58867e-12      73.0631
       798.30000  1.58867e-12      72.9995
       798.40000  1.58867e-12      72.9360
       798.50000  9.68599e-13      44.4296
       798.60000  9.68599e-13      44.3812
       798.70000  9.68599e-13      44.3328
       798.80000  9.66385e-13      44.1831
       798.90000  9.66385e-13      44.1251
       799.00000  9.66385e-13      44.0672
       799.10000  9.66385e-13      44.0962
       799.20000  9.66385e-13      44.1348
       799.30000  9.66385e-13      44.1735
       799.40000  9.66385e-13      44.2025
       799.50000  8.99008e-12      411.476
       799.60000  8.99008e-12      411.746
       799.70000  8.99008e-12      412.015
       799.80000  8.99008e-12      412.195
       799.90000  8.99008e-12      412.375
       800.00000  8.99008e-12      412.555
       800.10000  8.99008e-12      412.734
       800.20000  8.99008e-12      412.914
       800.30000  8.99008e-12      413.094
       800.40000  8.99008e-12      413.184
       800.50000  1.00334e-11      461.237
       800.60000  1.00334e-11      461.337
       800.70000  1.00334e-11      461.337
       800.80000  1.00334e-11      461.438
       800.90000  1.00334e-11      461.438
       801.00000  1.00334e-11      461.438
       801.10000  1.00334e-11      461.237
       801.20000  1.00334e-11      461.036
       801.30000  1.00040e-11      459.483
       801.40000  1.00040e-11      459.283
       801.50000  1.09739e-11      503.590
       801.60000  1.09739e-11      503.371
       801.70000  1.09739e-11      503.151
       801.80000  1.09739e-11      502.932
       801.90000  1.09739e-11      502.712
       802.00000  1.09739e-11      502.493
       802.10000  1.09739e-11      502.273
       802.20000  1.09739e-11      502.054
       802.30000  1.09739e-11      501.835
       802.40000  1.09739e-11      501.615
       802.50000  9.34248e-12      426.858
       802.60000  9.34248e-12      426.671
       802.70000  9.34248e-12      426.484
       802.80000  9.34248e-12      426.204
       802.90000  9.34248e-12      426.017
       803.00000  9.34248e-12      425.830
       803.10000  9.34248e-12      425.643
       803.20000  9.34248e-12      425.457
       803.30000  9.34248e-12      425.270
       803.40000  9.34248e-12      424.989
       803.50000  8.09240e-12      367.962
       803.60000  8.09240e-12      367.800
       803.70000  8.09240e-12      367.638
       803.80000  8.06726e-12      366.334
       803.90000  8.06726e-12      366.092
       804.00000  8.06726e-12      365.931
       804.10000  8.06726e-12      365.769
       804.20000  8.06726e-12      365.608
       804.30000  8.06726e-12      365.366
       804.40000  8.06726e-12      365.205
       804.50000  6.06502e-12      274.442
       804.60000  6.06502e-12      274.260
       804.70000  6.06502e-12      274.139
       804.80000  6.06502e-12      274.017
       804.90000  6.06502e-12      273.836
       805.00000  6.06502e-12      273.714
       805.10000  6.06502e-12      273.957
       805.20000  6.06502e-12      274.260
       805.30000  6.06502e-12      274.442
       805.40000  6.06502e-12      274.685
       805.50000  6.76180e-12      306.445
       805.60000  6.76180e-12      306.647
       805.70000  6.76180e-12      306.850
       805.80000  6.76180e-12      306.985
       805.90000  6.76180e-12      307.121
       806.00000  6.76180e-12      307.256
       806.10000  6.76180e-12      307.324
       806.20000  6.76180e-12      307.391
       806.30000  6.74857e-12      306.858
       806.40000  6.74857e-12      306.925
       806.50000  1.96952e-12      89.5739
       806.60000  1.96952e-12      89.5739
       806.70000  1.96952e-12      89.5542
       806.80000  1.96952e-12      89.5542
       806.90000  1.96952e-12      89.5345
       807.00000  1.96952e-12      89.4951
       807.10000  1.96952e-12      89.3375
       807.20000  1.96952e-12      89.1603
       807.30000  1.96952e-12      89.0027
       807.40000  1.96952e-12      88.8649
       807.50000  6.87639e-12      309.781
       807.60000  6.87639e-12      309.300
       807.70000  6.87639e-12      308.887
       807.80000  6.87639e-12      308.544
       807.90000  6.87639e-12      308.200
       808.00000  6.87639e-12      307.856
       808.10000  6.87639e-12      307.581
       808.20000  6.87639e-12      307.306
       808.30000  6.87639e-12      307.031
       808.40000  6.87639e-12      306.825
       808.50000  6.32259e-12      281.988
       808.60000  6.32259e-12      281.861
       808.70000  6.32259e-12      281.735
       808.80000  6.31661e-12      281.405
       808.90000  6.31661e-12      281.342
       809.00000  6.31661e-12      281.342
       809.10000  6.31661e-12      281.342
       809.20000  6.31661e-12      281.405
       809.30000  6.31661e-12      281.468
       809.40000  6.31661e-12      281.531
       809.50000  1.03618e-11      462.032
       809.60000  1.03618e-11      462.343
       809.70000  1.03618e-11      462.654
       809.80000  1.03618e-11      462.965
       809.90000  1.03618e-11      463.379
       810.00000  1.03618e-11      463.793
       810.10000  1.03618e-11      464.312
       810.20000  1.03618e-11      464.830
       810.30000  1.03618e-11      465.348
       810.40000  1.03618e-11      465.969
       810.50000  9.01896e-12      406.214
       810.60000  9.01896e-12      406.755
       810.70000  9.01896e-12      407.477
       810.80000  9.01896e-12      408.198
       810.90000  9.01896e-12      408.920
       811.00000  9.01896e-12      409.731
       811.10000  9.01896e-12      409.822
       811.20000  9.01896e-12      410.002
       811.30000  9.01302e-12      409.822
       811.40000  9.01302e-12      410.002
       811.50000  9.57170e-12      435.512
       811.60000  9.57170e-12      435.608
       811.70000  9.57170e-12      435.704
       811.80000  9.57170e-12      435.800
       811.90000  9.57170e-12      435.895
       812.00000  9.57170e-12      435.991
       812.10000  9.57170e-12      435.991
       812.20000  9.57170e-12      436.087
       812.30000  9.57170e-12      436.182
       812.40000  9.57170e-12      436.182
       812.50000  4.84483e-12      220.779
       812.60000  4.84483e-12      220.827
       812.70000  4.84483e-12      220.827
       812.80000  4.84483e-12      220.827
       812.90000  4.84483e-12      220.827
       813.00000  4.84483e-12      220.827
       813.10000  4.84483e-12      220.730
       813.20000  4.84483e-12      220.682
       813.30000  4.84483e-12      220.585
       813.40000  4.84483e-12      220.536
       813.50000  7.31617e-12      332.886
       813.60000  7.31617e-12      332.812
       813.70000  7.31617e-12      332.739
       813.80000  7.31536e-12      332.630
       813.90000  7.31536e-12      332.556
       814.00000  7.31536e-12      332.410
       814.10000  7.31536e-12      332.337
       814.20000  7.31536e-12      332.264
       814.30000  7.31536e-12      332.191
       814.40000  7.31536e-12      332.191
       814.50000  2.52715e-12      114.733
       814.60000  2.52715e-12      114.707
       814.70000  2.52715e-12      114.682
       814.80000  2.52715e-12      114.657
       814.90000  2.52715e-12      114.657
       815.00000  2.52715e-12      114.632
       815.10000  2.52715e-12      114.733
       815.20000  2.52715e-12      114.808
       815.30000  2.52715e-12      114.884
       815.40000  2.52715e-12      114.935
       815.50000  4.21633e-12      191.885
       815.60000  4.21633e-12      191.927
       815.70000  4.21633e-12      192.012
       815.80000  4.21633e-12      192.012
       815.90000  4.21633e-12      192.054
       816.00000  4.21633e-12      192.054
       816.10000  4.21633e-12      192.054
       816.20000  4.21633e-12      192.012
       816.30000  4.21621e-12      191.964
       816.40000  4.21621e-12      191.922
       816.50000  6.65190e-12      302.661
       816.60000  6.65190e-12      302.528
       816.70000  6.65190e-12      302.329
       816.80000  6.65190e-12      302.129
       816.90000  6.65190e-12      301.930
       817.00000  6.65190e-12      301.664
       817.10000  6.65190e-12      300.732
       817.20000  6.65190e-12      299.868
       817.30000  6.65190e-12      299.069
       817.40000  6.65190e-12      298.271
       817.50000  4.46794e-12      199.851
       817.60000  4.46794e-12      199.404
       817.70000  4.46794e-12      198.957
       817.80000  4.46794e-12      198.511
       817.90000  4.46794e-12      198.153
       818.00000  4.46794e-12      197.751
       818.10000  4.46794e-12      197.438
       818.20000  4.46794e-12      197.126
       818.30000  4.46794e-12      196.813
       818.40000  4.46794e-12      196.589
       818.50000  4.10193e-12      180.239
       818.60000  4.10193e-12      180.075
       818.70000  4.10193e-12      179.911
       818.80000  4.10130e-12      179.719
       818.90000  4.10130e-12      179.637
       819.00000  4.10130e-12      179.514
       819.10000  4.10130e-12      179.473
       819.20000  4.10130e-12      179.432
       819.30000  4.10130e-12      179.391
       819.40000  4.10130e-12      179.391
       819.50000  6.37122e-12      278.741
       819.60000  6.37122e-12      278.804
       819.70000  6.37122e-12      278.932
       819.80000  6.37122e-12      279.123
       819.90000  6.37122e-12      279.314
       820.00000  6.37122e-12      279.569
       820.10000  6.37122e-12      279.824
       820.20000  6.37122e-12      280.142
       820.30000  6.37122e-12      280.525
       820.40000  6.37122e-12      280.907
       820.50000  6.23070e-12      275.148
       820.60000  6.23070e-12      275.584
       820.70000  6.23070e-12      276.082
       820.80000  6.23070e-12      276.581
       820.90000  6.23070e-12      277.142
       821.00000  6.23070e-12      277.765
       821.10000  6.23070e-12      277.640
       821.20000  6.23070e-12      277.578
       821.30000  6.24857e-12      278.249
       821.40000  6.24857e-12      278.186
       821.50000  6.20844e-12      276.276
       821.60000  6.20844e-12      276.214
       821.70000  6.20844e-12      276.151
       821.80000  6.20844e-12      276.027
       821.90000  6.20844e-12      275.965
       822.00000  6.20844e-12      275.903
       822.10000  6.20844e-12      275.903
       822.20000  6.20844e-12      275.841
       822.30000  6.20844e-12      275.779
       822.40000  6.20844e-12      275.779
       822.50000  4.53644e-12      201.463
       822.60000  4.53644e-12      201.463
       822.70000  4.53644e-12      201.418
       822.80000  4.53644e-12      201.418
       822.90000  4.53644e-12      201.418
       823.00000  4.53644e-12      201.418
       823.10000  4.53644e-12      201.418
       823.20000  4.53644e-12      201.418
       823.30000  4.53644e-12      201.418
       823.40000  4.53644e-12      201.418
       823.50000  4.63816e-12      205.981
       823.60000  4.63816e-12      205.981
       823.70000  4.63816e-12      206.027
       823.80000  4.65082e-12      206.589
       823.90000  4.65082e-12      206.636
       824.00000  4.65082e-12      206.682
       824.10000  4.65082e-12      206.729
       824.20000  4.65082e-12      206.775
       824.30000  4.65082e-12      206.822
       824.40000  4.65082e-12      206.915
       824.50000  2.88992e-12      128.601
       824.60000  2.88992e-12      128.659
       824.70000  2.88992e-12      128.688
       824.80000  2.88992e-12      128.746
       824.90000  2.88992e-12      128.804
       825.00000  2.88992e-12      128.862
       825.10000  2.88992e-12      128.919
       825.20000  2.88992e-12      128.977
       825.30000  2.88992e-12      129.064
       825.40000  2.88992e-12      129.122
       825.50000  5.49133e-12      245.517
       825.60000  5.49133e-12      245.627
       825.70000  5.49133e-12      245.792
       825.80000  5.49133e-12      245.957
       825.90000  5.49133e-12      246.121
       826.00000  5.49133e-12      246.286
       826.10000  5.49133e-12      246.451
       826.20000  5.49133e-12      246.561
       826.30000  5.49498e-12      246.889
       826.40000  5.49498e-12      246.999
       826.50000  4.87586e-12      219.219
       826.60000  4.87586e-12      219.316
       826.70000  4.87586e-12      219.414
       826.80000  4.87586e-12      219.462
       826.90000  4.87586e-12      219.511
       827.00000  4.87586e-12      219.560
       827.10000  4.87586e-12      219.560
       827.20000  4.87586e-12      219.609
       827.30000  4.87586e-12      219.609
       827.40000  4.87586e-12      219.609
       827.50000  5.79551e-12      261.030
       827.60000  5.79551e-12      261.030
       827.70000  5.79551e-12      260.972
       827.80000  5.79551e-12      260.914
       827.90000  5.79551e-12      260.856
       828.00000  5.79551e-12      260.798
       828.10000  5.79551e-12      260.624
       828.20000  5.79551e-12      260.392
       828.30000  5.79551e-12      260.160
       828.40000  5.79551e-12      259.929
       828.50000  3.51163e-12      157.391
       828.60000  3.51163e-12      157.251
       828.70000  3.51163e-12      157.146
       828.80000  3.50878e-12      156.913
       828.90000  3.50878e-12      156.772
       829.00000  3.50878e-12      156.667
       829.10000  3.50878e-12      156.562
       829.20000  3.50878e-12      156.457
       829.30000  3.50878e-12      156.351
       829.40000  3.50878e-12      156.246
       829.50000  5.12787e-12      228.190
       829.60000  5.12787e-12      228.036
       829.70000  5.12787e-12      227.883
       829.80000  5.12787e-12      227.729
       829.90000  5.12787e-12      227.626
       830.00000  5.12787e-12      227.472
       830.10000  5.12787e-12      227.370
       830.20000  5.12787e-12      227.216
       830.30000  5.12787e-12      227.113
       830.40000  5.12787e-12      226.960
       830.50000  8.02665e-12      355.099
       830.60000  8.02665e-12      354.938
       830.70000  8.02665e-12      354.698
       830.80000  8.02665e-12      354.537
       830.90000  8.02665e-12      354.376
       831.00000  8.02665e-12      354.216
       831.10000  8.02665e-12      354.055
       831.20000  8.02665e-12      353.895
       831.30000  8.04841e-12      354.774
       831.40000  8.04841e-12      354.613
       831.50000  7.69651e-12      338.954
       831.60000  7.69651e-12      338.877
       831.70000  7.69651e-12      338.723
       831.80000  7.69651e-12      338.569
       831.90000  7.69651e-12      338.493
       832.00000  7.69651e-12      338.416
       832.10000  7.69651e-12      338.108
       832.20000  7.69651e-12      337.800
       832.30000  7.69651e-12      337.569
       832.40000  7.69651e-12      337.338
       832.50000  5.84900e-12      256.186
       832.60000  5.84900e-12      256.069
       832.70000  5.84900e-12      255.952
       832.80000  5.84900e-12      255.777
       832.90000  5.84900e-12      255.718
       833.00000  5.84900e-12      255.601
       833.10000  5.84900e-12      255.484
       833.20000  5.84900e-12      255.426
       833.30000  5.84900e-12      255.367
       833.40000  5.84900e-12      255.309
       833.50000  4.14447e-12      180.906
       833.60000  4.14447e-12      180.865
       833.70000  4.14447e-12      180.865
       833.80000  4.14879e-12      181.053
       833.90000  4.14879e-12      181.095
       834.00000  4.14879e-12      181.095
       834.10000  4.14879e-12      181.302
       834.20000  4.14879e-12      181.468
       834.30000  4.14879e-12      181.676
       834.40000  4.14879e-12      181.842
       834.50000  6.00599e-12      263.483
       834.60000  6.00599e-12      263.723
       834.70000  6.00599e-12      263.903
       834.80000  6.00599e-12      264.083
       834.90000  6.00599e-12      264.323
       835.00000  6.00599e-12      264.504
       835.10000  6.00599e-12      264.624
       835.20000  6.00599e-12      264.804
       835.30000  6.00599e-12      264.924
       835.40000  6.00599e-12      265.044
       835.50000  5.26197e-12      232.316
       835.60000  5.26197e-12      232.421
       835.70000  5.26197e-12      232.474
       835.80000  5.26197e-12      232.579
       835.90000  5.26197e-12      232.632
       836.00000  5.26197e-12      232.684
       836.10000  5.26197e-12      232.579
       836.20000  5.26197e-12      232.527
       836.30000  5.25959e-12      232.316
       836.40000  5.25959e-12      232.263
       836.50000  3.74752e-12      165.453
       836.60000  3.74752e-12      165.378
       836.70000  3.74752e-12      165.340
       836.80000  3.74752e-12      165.303
       836.90000  3.74752e-12      165.228
       837.00000  3.74752e-12      165.190
       837.10000  3.74752e-12      165.153
       837.20000  3.74752e-12      165.116
       837.30000  3.74752e-12      165.078
       837.40000  3.74752e-12      165.041
       837.50000  5.46741e-12      240.730
       837.60000  5.46741e-12      240.675
       837.70000  5.46741e-12      240.621
       837.80000  5.46741e-12      240.566
       837.90000  5.46741e-12      240.566
       838.00000  5.46741e-12      240.511
       838.10000  5.46741e-12      240.457
       838.20000  5.46741e-12      240.457
       838.30000  5.46741e-12      240.457
       838.40000  5.46741e-12      240.457
       838.50000  7.08320e-12      311.448
       838.60000  7.08320e-12      311.448
       838.70000  7.08320e-12      311.448
       838.80000  7.06178e-12      310.436
       838.90000  7.06178e-12      310.436
       839.00000  7.06178e-12      310.436
       839.10000  7.06178e-12      310.365
       839.20000  7.06178e-12      310.365
       839.30000  7.06178e-12      310.365
       839.40000  7.06178e-12      310.295
       839.50000  4.15602e-12      182.616
       839.60000  4.15602e-12      182.616
       839.70000  4.15602e-12      182.574
       839.80000  4.15602e-12      182.574
       839.90000  4.15602e-12      182.574
       840.00000  4.15602e-12      182.532
       840.10000  4.15602e-12      182.532
       840.20000  4.15602e-12      182.532
       840.30000  4.15602e-12      182.491
       840.40000  4.15602e-12      182.491
       840.50000  4.85620e-12      213.236
       840.60000  4.85620e-12      213.187
       840.70000  4.85620e-12      213.187
       840.80000  4.85620e-12      213.187
       840.90000  4.85620e-12      213.139
       841.00000  4.85620e-12      213.139
       841.10000  4.85620e-12      213.139
       841.20000  4.85620e-12      213.139
       841.30000  4.85594e-12      213.078
       841.40000  4.85594e-12      213.078
       841.50000  4.51811e-12      198.255
       841.60000  4.51811e-12      198.209
       841.70000  4.51811e-12      198.209
       841.80000  4.51811e-12      198.209
       841.90000  4.51811e-12      198.164
       842.00000  4.51811e-12      198.164
       842.10000  4.51811e-12      197.983
       842.20000  4.51811e-12      197.848
       842.30000  4.51811e-12      197.712
       842.40000  4.51811e-12      197.532
       842.50000  7.74338e-12      338.308
       842.60000  7.74338e-12      338.153
       842.70000  7.74338e-12      337.921
       842.80000  7.74338e-12      337.766
       842.90000  7.74338e-12      337.534
       843.00000  7.74338e-12      337.379
       843.10000  7.74338e-12      337.224
       843.20000  7.74338e-12      337.069
       843.30000  7.74338e-12      336.992
       843.40000  7.74338e-12      336.837
       843.50000  4.65522e-12      202.456
       843.60000  4.65522e-12      202.409
       843.70000  4.65522e-12      202.363
       843.80000  4.66194e-12      202.608
       843.90000  4.66194e-12      202.608
       844.00000  4.66194e-12      202.561
       844.10000  4.66194e-12      202.701
       844.20000  4.66194e-12      202.794
       844.30000  4.66194e-12      202.888
       844.40000  4.66194e-12      202.981
       844.50000  3.94810e-12      171.979
       844.60000  3.94810e-12      172.058
       844.70000  3.94810e-12      172.098
       844.80000  3.94810e-12      172.177
       844.90000  3.94810e-12      172.216
       845.00000  3.94810e-12      172.295
       845.10000  3.94810e-12      172.335
       845.20000  3.94810e-12      172.374
       845.30000  3.94810e-12      172.453
       845.40000  3.94810e-12      172.492
       845.50000  4.20321e-12      183.638
       845.60000  4.20321e-12      183.680
       845.70000  4.20321e-12      183.722
       845.80000  4.20321e-12      183.764
       845.90000  4.20321e-12      183.764
       846.00000  4.20321e-12      183.806
       846.10000  4.20321e-12      183.806
       846.20000  4.20321e-12      183.806
       846.30000  4.21427e-12      184.290
       846.40000  4.21427e-12      184.332
       846.50000  1.22930e-12      53.7697
       846.60000  1.22930e-12      53.7574
       846.70000  1.22930e-12      53.7574
       846.80000  1.22930e-12      53.7574
       846.90000  1.22930e-12      53.7451
       847.00000  1.22930e-12      53.7451
       847.10000  1.22930e-12      53.7328
       847.20000  1.22930e-12      53.7328
       847.30000  1.22930e-12      53.7205
       847.40000  1.22930e-12      53.7082
       847.50000  4.77627e-12      208.628
       847.60000  4.77627e-12      208.580
       847.70000  4.77627e-12      208.532
       847.80000  4.77627e-12      208.484
       847.90000  4.77627e-12      208.389
       848.00000  4.77627e-12      208.341
       848.10000  4.77627e-12      207.338
       848.20000  4.77627e-12      206.430
       848.30000  4.77627e-12      205.523
       848.40000  4.77627e-12      204.663
       848.50000  3.19921e-12      136.542
       848.60000  3.19921e-12      136.062
       848.70000  3.19921e-12      135.582
       848.80000  3.21142e-12      135.650
       848.90000  3.21142e-12      135.233
       849.00000  3.21142e-12      134.848
