PDS_VERSION_ID         = PDS3
RECORD_TYPE            = STREAM
OBJECT                 = TEXT
  PUBLICATION_DATE     = 2014-04-25
  INTERCHANGE_FORMAT   = ASCII
  NOTE                 = "System transmission vs. wavelength."
END_OBJECT             = TEXT
END
    
The systrans directory contains the non-wavelength-integrated system 
transmission values (QE*optics*filter1*filter2) for each filter combination. 
The naming convention for these files is as follows:

<camera><filter 1><filter 2>_systrans.tab

where <camera> is "issna" or "isswa," and <filter 1> and <filter 2> represent
the filter names. For polarized filter combinations, values are given for the
parallel orientation of the filter (full transmission), with values for the 
perpendicular (blocking) orientation provided in files with subscript 
"_b_systrans.tab". 

Columns in systrans files are as follows:

 1st column: Wavelength (nm)  
 2nd column: Transmitted Flux
 3rd column: Transmitted Flux * Solar Flux (phot per cm^2-s-angstrom at 1 AU)

The solar spectrum used for this calculation is provided in solarflux.tab.

\begindata
       600.00000  1.49712e-09      79736.6
       600.10000  1.49712e-09      79616.8
       600.20000  1.49712e-09      79482.0
       600.30000  1.49712e-09      79317.4
       600.40000  1.49712e-09      79122.7
       600.50000  8.11911e-10      42803.9
       600.60000  8.11911e-10      42860.8
       600.70000  8.11911e-10      42909.5
       600.80000  8.11911e-10      42958.2
       600.90000  8.11911e-10      42990.7
       601.00000  8.11911e-10      43015.0
       601.10000  8.11911e-10      43023.1
       601.20000  8.11911e-10      43031.3
       601.30000  8.11804e-10      43025.6
       601.40000  8.11804e-10      43009.4
       601.50000  1.25793e-09      66619.8
       601.60000  1.25793e-09      66330.5
       601.70000  1.25793e-09      66091.5
       601.80000  1.25793e-09      65877.6
       601.90000  1.25793e-09      65714.1
       602.00000  1.25793e-09      65588.3
       602.10000  1.25793e-09      65487.6
       602.20000  1.25793e-09      65437.3
       602.30000  1.25793e-09      65424.8
       602.40000  1.25793e-09      65449.9
       602.50000  1.76947e-09      92136.3
       602.60000  1.76947e-09      92277.8
       602.70000  1.76947e-09      92472.5
       602.80000  1.76947e-09      92720.2
       602.90000  1.76947e-09      93021.0
       603.00000  1.76947e-09      93374.9
       603.10000  1.76947e-09      93781.9
       603.20000  1.76947e-09      94241.9
       603.30000  1.76947e-09      94755.1
       603.40000  1.76947e-09      95321.3
       603.50000  2.58565e-09      140194.
       603.60000  2.58565e-09      140142.
       603.70000  2.58565e-09      140090.
       603.80000  2.58455e-09      139979.
       603.90000  2.58455e-09      139902.
       604.00000  2.58455e-09      139850.
       604.10000  2.58455e-09      139772.
       604.20000  2.58455e-09      139721.
       604.30000  2.58455e-09      139643.
       604.40000  2.58455e-09      139591.
       604.50000  3.69498e-09      199455.
       604.60000  3.69498e-09      199307.
       604.70000  3.69498e-09      199159.
       604.80000  3.69498e-09      199012.
       604.90000  3.69498e-09      198864.
       605.00000  3.69498e-09      198753.
       605.10000  3.69498e-09      198642.
       605.20000  3.69498e-09      198568.
       605.30000  3.69498e-09      198457.
       605.40000  3.69498e-09      198384.
       605.50000  4.43303e-09      237921.
       605.60000  4.43303e-09      237876.
       605.70000  4.43303e-09      237788.
       605.80000  4.43303e-09      237743.
       605.90000  4.43303e-09      237743.
       606.00000  4.43303e-09      237699.
       606.10000  4.43303e-09      237699.
       606.20000  4.43303e-09      237699.
       606.30000  4.43315e-09      237706.
       606.40000  4.43315e-09      237750.
       606.50000  8.65407e-09      464204.
       606.60000  8.65407e-09      464378.
       606.70000  8.65407e-09      464464.
       606.80000  8.65407e-09      464637.
       606.90000  8.65407e-09      464637.
       607.00000  8.65407e-09      464724.
       607.10000  8.65407e-09      464724.
       607.20000  8.65407e-09      464724.
       607.30000  8.65407e-09      464637.
       607.40000  8.65407e-09      464551.
       607.50000  2.09681e-08  1.12536e+06
       607.60000  2.09681e-08  1.12410e+06
       607.70000  2.09681e-08  1.12305e+06
       607.80000  2.09681e-08  1.12221e+06
       607.90000  2.09681e-08  1.12138e+06
       608.00000  2.09681e-08  1.12054e+06
       608.10000  2.09681e-08  1.11991e+06
       608.20000  2.09681e-08  1.11928e+06
       608.30000  2.09681e-08  1.11886e+06
       608.40000  2.09681e-08  1.11844e+06
       608.50000  2.45047e-08  1.30684e+06
       608.60000  2.45047e-08  1.30659e+06
       608.70000  2.45047e-08  1.30635e+06
       608.80000  2.44995e-08  1.30607e+06
       608.90000  2.44995e-08  1.30631e+06
       609.00000  2.44995e-08  1.30656e+06
       609.10000  2.44995e-08  1.30680e+06
       609.20000  2.44995e-08  1.30729e+06
       609.30000  2.44995e-08  1.30778e+06
       609.40000  2.44995e-08  1.30852e+06
       609.50000  2.78795e-08  1.49016e+06
       609.60000  2.78795e-08  1.48347e+06
       609.70000  2.78795e-08  1.47761e+06
       609.80000  2.78795e-08  1.47259e+06
       609.90000  2.78795e-08  1.46841e+06
       610.00000  2.78795e-08  1.46479e+06
       610.10000  2.78795e-08  1.46172e+06
       610.20000  2.78795e-08  1.45949e+06
       610.30000  2.78795e-08  1.45810e+06
       610.40000  2.78795e-08  1.45754e+06
       610.50000  3.11544e-08  1.62844e+06
       610.60000  3.11544e-08  1.63654e+06
       610.70000  3.11544e-08  1.64371e+06
       610.80000  3.11544e-08  1.65025e+06
       610.90000  3.11544e-08  1.65586e+06
       611.00000  3.89430e-08  2.07566e+06
       611.10000  3.50487e-08  1.87265e+06
       611.20000  4.67316e-08  2.50154e+06
       611.30000  4.67317e-08  2.50529e+06
       611.40000  5.06260e-08  2.71659e+06
       611.50000  5.33291e-08  2.86271e+06
       611.60000  6.85660e-08  3.68062e+06
       611.70000  7.61844e-08  4.08729e+06
       611.80000  8.38029e-08  4.49183e+06
       611.90000  9.14213e-08  4.89287e+06
       612.00000  1.02849e-07  5.49419e+06
       612.10000  9.52305e-08  5.07484e+06
       612.20000  1.02849e-07  5.46437e+06
       612.30000  1.06658e-07  5.64755e+06
       612.40000  1.33323e-07  7.03144e+06
       612.50000  1.33952e-07  7.03380e+06
       612.60000  1.48835e-07  7.79599e+06
       612.70000  1.63719e-07  8.55594e+06
       612.80000  1.86044e-07  9.70405e+06
       612.90000  2.15811e-07  1.12394e+07
       613.00000  2.34415e-07  1.21919e+07
       613.10000  2.67903e-07  1.39203e+07
       613.20000  2.93949e-07  1.52619e+07
       613.30000  3.16275e-07  1.64147e+07
       613.40000  3.64646e-07  1.89251e+07
       613.50000  4.27505e-07  2.21918e+07
       613.60000  4.56736e-07  2.37777e+07
       613.70000  5.37122e-07  2.80324e+07
       613.80000  5.69384e-07  2.97845e+07
       613.90000  6.53332e-07  3.42542e+07
       614.00000  7.08081e-07  3.72025e+07
       614.10000  7.99328e-07  4.20686e+07
       614.20000  9.34374e-07  4.92602e+07
       614.30000  1.02927e-06  5.43455e+07
       614.40000  1.21177e-06  6.40661e+07
       614.50000  1.37948e-06  7.30161e+07
       614.60000  1.56128e-06  8.27165e+07
       614.70000  1.86070e-06  9.86543e+07
       614.80000  2.11378e-06  1.12136e+08
       614.90000  2.57361e-06  1.36582e+08
       615.00000  2.90155e-06  1.54014e+08
       615.10000  3.26514e-06  1.73346e+08
       615.20000  3.97805e-06  2.11155e+08
       615.30000  4.55551e-06  2.41761e+08
       615.40000  5.63557e-06  2.98967e+08
       615.50000  6.82203e-06  3.61636e+08
       615.60000  7.90782e-06  4.14528e+08
       615.70000  1.00026e-05  5.18936e+08
       615.80000  1.17448e-05  6.03799e+08
       615.90000  1.49358e-05  7.61877e+08
       616.00000  1.78022e-05  9.01860e+08
       616.10000  2.06267e-05  1.03917e+09
       616.20000  2.65200e-05  1.33024e+09
       616.30000  3.22294e-05  1.61147e+09
       616.40000  4.15211e-05  2.07232e+09
       616.50000  5.19197e-05  2.58924e+09
       616.60000  6.20927e-05  3.12326e+09
       616.70000  7.92223e-05  4.01657e+09
       616.80000  9.32377e-05  4.76165e+09
       616.90000  0.000116116  5.97067e+09
       617.00000  0.000134300  6.95005e+09
       617.10000  0.000153652  7.99761e+09
       617.20000  0.000184233  9.63905e+09
       617.30000  0.000200828  1.05575e+10
       617.40000  0.000229740  1.21303e+10
       617.50000  0.000247462  1.31155e+10
       617.60000  0.000257620  1.36977e+10
       617.70000  0.000269188  1.43531e+10
       617.80000  0.000271602  1.45171e+10
       617.90000  0.000272798  1.46056e+10
       618.00000  0.000271148  1.45390e+10
       618.10000  0.000267542  1.43590e+10
       618.20000  0.000262522  1.40948e+10
       618.30000  0.000258933  1.39021e+10
       618.40000  0.000254999  1.36832e+10
       618.50000  0.000245573  1.31651e+10
       618.60000  0.000244263  1.30705e+10
       618.70000  0.000242596  1.29570e+10
       618.80000  0.000242950  1.29590e+10
       618.90000  0.000243646  1.29790e+10
       619.00000  0.000244310  1.30022e+10
       619.10000  0.000245524  1.30570e+10
       619.20000  0.000247050  1.31332e+10
       619.30000  0.000248605  1.32134e+10
       619.40000  0.000249578  1.32651e+10
       619.50000  0.000244000  1.29735e+10
       619.60000  0.000243704  1.30040e+10
       619.70000  0.000241501  1.29275e+10
       619.80000  0.000238814  1.28195e+10
       619.90000  0.000233637  1.25720e+10
       620.00000  0.000227617  1.22709e+10
       620.10000  0.000220922  1.19276e+10
       620.20000  0.000208720  1.12813e+10
       620.30000  0.000198447  1.07340e+10
       620.40000  0.000182364  9.86588e+09
       620.50000  0.000160157  8.66451e+09
       620.60000  0.000147916  7.96971e+09
       620.70000  0.000128475  6.89524e+09
       620.80000  0.000116398  6.22614e+09
       620.90000  9.85277e-05  5.25448e+09
       621.00000  8.69333e-05  4.62398e+09
       621.10000  7.58178e-05  4.02365e+09
       621.20000  6.28954e-05  3.33220e+09
       621.30000  5.51985e-05  2.92000e+09
       621.40000  4.43303e-05  2.34241e+09
       621.50000  3.51930e-05  1.85854e+09
       621.60000  3.08879e-05  1.63675e+09
       621.70000  2.48858e-05  1.32268e+09
       621.80000  2.17770e-05  1.16028e+09
       621.90000  1.77665e-05  9.48731e+08
       622.00000  1.56413e-05  8.36654e+08
       622.10000  1.36194e-05  7.29453e+08
       622.20000  1.12179e-05  6.01280e+08
       622.30000  9.74850e-06  5.22812e+08
       622.40000  8.08782e-06  4.33750e+08
       622.50000  6.59420e-06  3.53515e+08
       622.60000  5.81580e-06  3.11552e+08
       622.70000  4.85390e-06  2.59732e+08
       622.80000  4.29452e-06  2.29456e+08
       622.90000  3.57827e-06  1.90793e+08
       623.00000  3.26158e-06  1.73516e+08
       623.10000  2.91530e-06  1.54657e+08
       623.20000  2.50094e-06  1.32225e+08
       623.30000  2.24937e-06  1.18497e+08
       623.40000  1.94156e-06  1.01854e+08
       623.50000  1.61929e-06  8.45755e+07
       623.60000  1.46054e-06  7.62692e+07
       623.70000  1.28158e-06  6.69239e+07
       623.80000  1.15497e-06  6.02893e+07
       623.90000  9.87915e-07  5.15593e+07
       624.00000  8.89988e-07  4.64307e+07
       624.10000  8.29503e-07  4.32503e+07
       624.20000  7.40217e-07  3.85727e+07
       624.30000  6.71091e-07  3.49504e+07
       624.40000  5.96205e-07  3.10265e+07
       624.50000  5.01421e-07  2.60739e+07
       624.60000  4.56850e-07  2.36648e+07
       624.70000  4.12279e-07  2.12901e+07
       624.80000  3.76066e-07  1.93674e+07
       624.90000  3.39852e-07  1.74650e+07
       625.00000  3.17567e-07  1.62943e+07
       625.10000  2.84139e-07  1.45649e+07
       625.20000  2.50710e-07  1.28439e+07
       625.30000  2.53496e-07  1.29891e+07
       625.40000  2.22854e-07  1.14257e+07
       625.50000  2.02744e-07  1.04069e+07
       625.60000  1.81118e-07  9.31128e+06
       625.70000  1.56789e-07  8.07932e+06
       625.80000  1.54086e-07  7.96160e+06
       625.90000  1.24350e-07  6.44629e+06
       626.00000  1.21646e-07  6.33048e+06
       626.10000  1.18943e-07  6.21716e+06
       626.20000  1.05427e-07  5.53702e+06
       626.30000  1.05261e-07  5.55882e+06
       626.40000  8.90667e-08  4.73122e+06
       626.50000  8.38246e-08  4.48043e+06
       626.60000  8.12051e-08  4.34123e+06
       626.70000  6.81075e-08  3.64171e+06
       626.80000  6.54880e-08  3.50230e+06
       626.90000  6.02490e-08  3.22272e+06
       627.00000  6.81075e-08  3.64375e+06
       627.10000  6.81075e-08  3.64443e+06
       627.20000  6.81075e-08  3.64443e+06
       627.30000  6.81075e-08  3.64511e+06
       627.40000  6.81075e-08  3.64580e+06
       627.50000  5.44832e-08  2.91703e+06
       627.60000  5.44832e-08  2.91921e+06
       627.70000  5.44832e-08  2.92085e+06
       627.80000  5.44832e-08  2.92193e+06
       627.90000  5.44832e-08  2.92302e+06
       628.00000  5.44832e-08  2.92357e+06
       628.10000  5.44832e-08  2.92411e+06
       628.20000  5.44832e-08  2.92411e+06
       628.30000  5.44832e-08  2.92357e+06
       628.40000  5.44832e-08  2.92302e+06
       628.50000  4.14679e-08  2.22392e+06
       628.60000  4.14679e-08  2.22268e+06
       628.70000  4.14679e-08  2.22144e+06
       628.80000  4.13802e-08  2.21508e+06
       628.90000  4.13802e-08  2.21302e+06
       629.00000  4.13802e-08  2.21095e+06
       629.10000  4.13802e-08  2.20846e+06
       629.20000  4.13802e-08  2.20598e+06
       629.30000  4.13802e-08  2.20308e+06
       629.40000  4.13802e-08  2.19977e+06
       629.50000  1.87869e-08      997211.
       629.60000  1.87869e-08      995145.
       629.70000  1.87869e-08      993078.
       629.80000  1.87869e-08      991199.
       629.90000  1.87869e-08      989509.
       630.00000  1.87869e-08      987818.
       630.10000  1.87869e-08      986127.
       630.20000  1.87869e-08      984812.
       630.30000  1.87869e-08      983309.
       630.40000  1.87869e-08      982182.
       630.50000  1.12980e-08      589979.
       630.60000  1.12980e-08      589301.
       630.70000  1.12980e-08      588736.
       630.80000  1.12980e-08      588285.
       630.90000  1.12980e-08      587833.
       631.00000  1.12980e-08      587494.
       631.10000  1.12980e-08      587833.
       631.20000  1.12980e-08      588172.
       631.30000  1.12974e-08      588595.
       631.40000  1.12974e-08      588934.
       631.50000  6.48458e-09      338236.
       631.60000  6.48458e-09      338430.
       631.70000  6.48458e-09      338625.
       631.80000  6.48458e-09      338754.
       631.90000  6.48458e-09      338949.
       632.00000  6.48458e-09      339143.
       632.10000  6.48458e-09      339338.
       632.20000  6.48458e-09      339468.
       632.30000  6.48458e-09      339662.
       632.40000  6.48458e-09      339857.
       632.50000  4.15720e-09      217962.
       632.60000  4.15720e-09      218045.
       632.70000  4.15720e-09      218170.
       632.80000  4.15720e-09      218253.
       632.90000  4.15720e-09      218336.
       633.00000  4.15720e-09      218461.
       633.10000  4.15720e-09      218544.
       633.20000  4.15720e-09      218627.
       633.30000  4.15720e-09      218710.
       633.40000  4.15720e-09      218793.
       633.50000  1.99242e-09      104901.
       633.60000  1.99242e-09      104941.
       633.70000  1.99242e-09      104981.
       633.80000  1.99211e-09      104984.
       633.90000  1.99211e-09      105024.
       634.00000  1.99211e-09      105064.
       634.10000  1.99211e-09      105084.
       634.20000  1.99211e-09      105124.
       634.30000  1.99211e-09      105144.
       634.40000  1.99211e-09      105184.
       634.50000  1.80277e-09      95204.1
       634.60000  1.80277e-09      95222.2
       634.70000  1.80277e-09      95258.2
       634.80000  1.80277e-09      95276.3
       634.90000  1.80277e-09      95294.3
       635.00000  1.80277e-09      95312.3
       635.10000  1.80277e-09      95330.3
       635.20000  1.80277e-09      95330.3
       635.30000  1.80277e-09      95348.4
       635.40000  1.80277e-09      95348.4
       635.50000  1.37168e-09      72562.1
       635.60000  1.37168e-09      72575.8
       635.70000  1.37168e-09      72575.8
       635.80000  1.37168e-09      72589.5
       635.90000  1.37168e-09      72589.5
       636.00000  1.37168e-09      72603.2
       636.10000  1.37168e-09      72603.2
       636.20000  1.37168e-09      72616.9
       636.30000  1.36355e-09      72186.5
       636.40000  1.36355e-09      72200.2
       636.50000  1.06674e-09      56483.8
       636.60000  1.06674e-09      56494.5
       636.70000  1.06674e-09      56494.5
       636.80000  1.06674e-09      56505.1
       636.90000  1.06674e-09      56505.1
       637.00000  1.06674e-09      56505.1
       637.10000  1.06674e-09      56515.8
       637.20000  1.06674e-09      56515.8
       637.30000  1.06674e-09      56526.5
       637.40000  1.06674e-09      56526.5
       637.50000  8.31333e-10      44052.3
       637.60000  8.31333e-10      44060.6
       637.70000  8.31333e-10      44060.6
       637.80000  8.31333e-10      44069.0
       637.90000  8.31333e-10      44069.0
       638.00000  8.31333e-10      44069.0
       638.10000  8.31333e-10      44077.3
       638.20000  8.31333e-10      44077.3
       638.30000  8.31333e-10      44077.3
       638.40000  8.31333e-10      44085.6
       638.50000  5.72132e-10      30340.2
       638.60000  5.72132e-10      30340.2
       638.70000  5.72132e-10      30345.9
       638.80000  5.68381e-10      30146.9
       638.90000  5.68381e-10      30146.9
       639.00000  5.68381e-10      30146.9
       639.10000  5.68381e-10      30101.4
       639.20000  5.68381e-10      30056.0
       639.30000  5.68381e-10      30010.5
       639.40000  5.68381e-10      29970.7
       639.50000  4.68492e-10      24666.1
       639.60000  4.68492e-10      24638.0
       639.70000  4.68492e-10      24605.2
       639.80000  4.68492e-10      24577.1
       639.90000  4.68492e-10      24553.7
       640.00000  4.68492e-10      24525.6
       640.10000  4.68492e-10      24502.2
       640.20000  4.68492e-10      24483.4
       640.30000  4.68492e-10      24464.7
       640.40000  4.68492e-10      24445.9
       640.50000  4.61338e-10      24054.2
       640.60000  4.61338e-10      24040.3
       640.70000  4.61338e-10      24026.5
       640.80000  4.61338e-10      24017.3
       640.90000  4.61338e-10      24003.4
       641.00000  4.61338e-10      23998.8
       641.10000  4.61338e-10      24008.0
       641.20000  4.61338e-10      24017.3
       641.30000  4.58218e-10      23864.0
       641.40000  4.58218e-10      23873.1
       641.50000  3.17485e-10      16547.3
       641.60000  3.17485e-10      16553.6
       641.70000  3.17485e-10      16560.0
       641.80000  3.17485e-10      16566.3
       641.90000  3.17485e-10      16572.7
       642.00000  3.17485e-10      16579.0
       642.10000  3.17485e-10      16582.2
       642.20000  3.17485e-10      16588.6
       642.30000  3.17485e-10      16594.9
       642.40000  3.17485e-10      16601.3
       642.50000  2.93367e-10      15346.0
       642.60000  2.93367e-10      15351.9
       642.70000  2.93367e-10      15357.8
       642.80000  2.93367e-10      15363.6
       642.90000  2.93367e-10      15369.5
       643.00000  2.93367e-10      15375.4
       643.10000  2.93367e-10      15378.3
       643.20000  2.93367e-10      15384.2
       643.30000  2.93367e-10      15390.0
       643.40000  2.93367e-10      15395.9
       643.50000  2.44824e-10      12853.3
       643.60000  2.44824e-10      12858.2
       643.70000  2.44824e-10      12860.6
       643.80000  2.44498e-10      12848.4
       643.90000  2.44498e-10      12853.3
       644.00000  2.44498e-10      12858.1
       644.10000  2.44498e-10      12863.0
       644.20000  2.44498e-10      12865.5
       644.30000  2.44498e-10      12870.4
       644.40000  2.44498e-10      12875.3
       644.50000  3.46095e-10      18232.3
       644.60000  3.46095e-10      18235.7
       644.70000  3.46095e-10      18242.7
       644.80000  3.46095e-10      18249.6
       644.90000  3.46095e-10      18256.5
       645.00000  3.46095e-10      18260.0
       645.10000  3.46095e-10      18256.5
       645.20000  3.46095e-10      18249.6
       645.30000  3.46095e-10      18246.1
       645.40000  3.46095e-10      18239.2
       645.50000  3.08125e-10      16229.0
       645.60000  3.08125e-10      16222.8
       645.70000  3.08125e-10      16216.6
       645.80000  3.08125e-10      16207.4
       645.90000  3.08125e-10      16198.1
       646.00000  3.08125e-10      16188.9
       646.10000  3.08125e-10      16179.7
       646.20000  3.08125e-10      16170.4
       646.30000  3.07936e-10      16148.2
       646.40000  3.07936e-10      16135.9
       646.50000  2.24188e-10      11740.8
       646.60000  2.24188e-10      11729.5
       646.70000  2.24188e-10      11720.6
       646.80000  2.24188e-10      11711.6
       646.90000  2.24188e-10      11700.4
       647.00000  2.24188e-10      11691.4
       647.10000  2.24188e-10      11660.0
       647.20000  2.24188e-10      11630.9
       647.30000  2.24188e-10      11604.0
       647.40000  2.24188e-10      11577.1
       647.50000  2.36491e-10      12186.4
       647.60000  2.36491e-10      12165.1
       647.70000  2.36491e-10      12141.4
       647.80000  2.36491e-10      12122.5
       647.90000  2.36491e-10      12103.6
       648.00000  2.36491e-10      12087.0
       648.10000  2.36491e-10      12072.8
       648.20000  2.36491e-10      12061.0
       648.30000  2.36491e-10      12049.2
       648.40000  2.36491e-10      12039.7
       648.50000  3.09004e-10      15722.1
       648.60000  3.09004e-10      15716.0
       648.70000  3.09004e-10      15709.8
       648.80000  3.09324e-10      15722.9
       648.90000  3.09324e-10      15722.9
       649.00000  3.09324e-10      15726.0
       649.10000  3.09324e-10      15729.1
       649.20000  3.09324e-10      15738.4
       649.30000  3.09324e-10      15744.6
       649.40000  3.09324e-10      15757.0
       649.50000  2.11713e-10      10795.2
       649.60000  2.11713e-10      10805.8
       649.70000  2.11713e-10      10818.5
       649.80000  2.11713e-10      10833.3
       649.90000  2.11713e-10      10848.2
       650.00000  2.11713e-10      10865.1
       650.10000  2.11713e-10      10884.1
       650.20000  2.11713e-10      10905.3
       650.30000  2.11713e-10      10928.6
       650.40000  2.11713e-10      10951.9
       650.50000  1.07606e-10      5579.36
       650.60000  1.07606e-10      5593.35
       650.70000  1.07606e-10      5607.34
       650.80000  1.07606e-10      5623.48
       650.90000  1.07606e-10      5639.62
       651.00000  1.07606e-10      5656.84
       651.10000  1.07606e-10      5661.14
       651.20000  1.07606e-10      5665.44
       651.30000  1.07471e-10      5661.56
       651.40000  1.07471e-10      5664.79
       651.50000  2.22138e-10      11715.6
       651.60000  2.22138e-10      11717.8
       651.70000  2.22138e-10      11722.2
       651.80000  2.22138e-10      11724.5
       651.90000  2.22138e-10      11724.5
       652.00000  2.22138e-10      11724.5
       652.10000  2.22138e-10      11722.2
       652.20000  2.22138e-10      11720.0
       652.30000  2.22138e-10      11717.8
       652.40000  2.22138e-10      11713.3
       652.50000  1.43237e-10      7548.61
       652.60000  1.43237e-10      7544.31
       652.70000  1.43237e-10      7540.01
       652.80000  1.43237e-10      7532.85
       652.90000  1.43237e-10      7527.12
       653.00000  1.43237e-10      7519.96
       653.10000  1.43237e-10      7514.23
       653.20000  1.43237e-10      7508.50
       653.30000  1.43237e-10      7499.91
       653.40000  1.43237e-10      7491.31
       653.50000  2.08643e-10      10899.5
       653.60000  2.08643e-10      10884.9
       653.70000  2.08643e-10      10868.2
       653.80000  2.08388e-10      10836.2
       653.90000  2.08388e-10      10817.4
       654.00000  2.08388e-10      10796.6
       654.10000  2.08388e-10      10775.8
       654.20000  2.08388e-10      10750.8
       654.30000  2.08388e-10      10725.7
       654.40000  2.08388e-10      10700.7
       654.50000  2.26140e-10      11582.9
       654.60000  2.26140e-10      11551.2
       654.70000  2.26140e-10      11517.3
       654.80000  2.26140e-10      11483.4
       654.90000  2.26140e-10      11447.2
       655.00000  2.26140e-10      11408.8
       655.10000  2.26140e-10      11300.2
       655.20000  2.26140e-10      11196.2
       655.30000  2.26140e-10      11099.0
       655.40000  2.26140e-10      11008.5
       655.50000  2.23267e-10      10783.8
       655.60000  2.23267e-10      10705.6
       655.70000  2.23267e-10      10632.0
       655.80000  2.23267e-10      10565.0
       655.90000  2.23267e-10      10502.5
       656.00000  2.23267e-10      10446.6
       656.10000  2.23267e-10      10397.5
       656.20000  2.23267e-10      10352.9
       656.30000  2.23097e-10      10307.1
       656.40000  2.23097e-10      10273.6
       656.50000  1.19893e-10      5506.67
       656.60000  1.19893e-10      5495.88
       656.70000  1.19893e-10      5487.48
       656.80000  1.19893e-10      5482.69
       656.90000  1.19893e-10      5480.29
       657.00000  1.19893e-10      5481.49
       657.10000  1.19893e-10      5528.25
       657.20000  1.19893e-10      5573.81
       657.30000  1.19893e-10      5618.17
       657.40000  1.19893e-10      5661.33
       657.50000  1.86253e-10      8858.20
       657.60000  1.86253e-10      8921.53
       657.70000  1.86253e-10      8981.13
       657.80000  1.86253e-10      9038.87
       657.90000  1.86253e-10      9092.88
       658.00000  1.86253e-10      9146.90
       658.10000  1.86253e-10      9199.05
       658.20000  1.86253e-10      9247.47
       658.30000  1.86253e-10      9294.04
       658.40000  1.86253e-10      9338.74
       658.50000  1.93224e-10      9730.74
       658.60000  1.93224e-10      9773.25
       658.70000  1.93224e-10      9811.90
       658.80000  1.93023e-10      9840.31
       658.90000  1.93023e-10      9875.06
       659.00000  1.93023e-10      9905.94
       659.10000  1.93023e-10      9936.82
       659.20000  1.93023e-10      9965.78
       659.30000  1.93023e-10      9990.87
       659.40000  1.93023e-10      10014.0
       659.50000  1.90917e-10      9925.78
       659.60000  1.90917e-10      9944.88
       659.70000  1.90917e-10      9960.15
       659.80000  1.90917e-10      9975.42
       659.90000  1.90917e-10      9986.88
       660.00000  1.90917e-10      9996.42
       660.10000  1.90917e-10      10004.1
       660.20000  1.90917e-10      10007.9
       660.30000  1.90917e-10      10011.7
       660.40000  1.90917e-10      10011.7
       660.50000  2.20316e-10      11551.1
       660.60000  2.20316e-10      11546.7
       660.70000  2.20316e-10      11540.1
       660.80000  2.20316e-10      11529.1
       660.90000  2.20316e-10      11518.1
       661.00000  2.20316e-10      11502.7
       661.10000  2.20316e-10      11496.1
       661.20000  2.20316e-10      11487.3
       661.30000  2.19769e-10      11452.1
       661.40000  2.19769e-10      11445.5
       661.50000  2.28209e-10      11878.3
       661.60000  2.28209e-10      11873.7
       661.70000  2.28209e-10      11866.8
       661.80000  2.28209e-10      11862.3
       661.90000  2.28209e-10      11857.7
       662.00000  2.28209e-10      11853.2
       662.10000  2.28209e-10      11848.6
       662.20000  2.28209e-10      11844.0
       662.30000  2.28209e-10      11841.7
       662.40000  2.28209e-10      11839.5
       662.50000  1.79620e-10      9315.12
       662.60000  1.79620e-10      9315.12
       662.70000  1.79620e-10      9313.32
       662.80000  1.79620e-10      9311.52
       662.90000  1.79620e-10      9311.52
       663.00000  1.79620e-10      9311.52
       663.10000  1.79620e-10      9318.71
       663.20000  1.79620e-10      9324.10
       663.30000  1.79620e-10      9331.28
       663.40000  1.79620e-10      9336.67
       663.50000  1.75537e-10      9129.67
       663.60000  1.75537e-10      9134.94
       663.70000  1.75537e-10      9138.45
       663.80000  1.75162e-10      9124.21
       663.90000  1.75162e-10      9127.72
       664.00000  1.75162e-10      9129.47
       664.10000  1.75162e-10      9132.97
       664.20000  1.75162e-10      9134.72
       664.30000  1.75162e-10      9136.47
       664.40000  1.75162e-10      9138.23
       664.50000  1.42535e-10      7436.03
       664.60000  1.42535e-10      7436.03
       664.70000  1.42535e-10      7436.03
       664.80000  1.42535e-10      7436.03
       664.90000  1.42535e-10      7436.03
       665.00000  1.42535e-10      7434.61
       665.10000  1.42535e-10      7433.18
       665.20000  1.42535e-10      7431.76
       665.30000  1.42535e-10      7428.91
       665.40000  1.42535e-10      7426.06
       665.50000  1.13725e-10      5922.81
       665.60000  1.13725e-10      5920.54
       665.70000  1.13725e-10      5917.12
       665.80000  1.13725e-10      5914.85
       665.90000  1.13725e-10      5911.44
       666.00000  1.13725e-10      5906.89
       666.10000  1.13725e-10      5903.48
       666.20000  1.13725e-10      5898.93
       666.30000  1.13440e-10      5879.57
       666.40000  1.13440e-10      5875.04
       666.50000  1.45209e-10      7513.12
       666.60000  1.45209e-10      7505.86
       666.70000  1.45209e-10      7498.60
       666.80000  1.45209e-10      7491.34
       666.90000  1.45209e-10      7484.08
       667.00000  1.45209e-10      7475.37
       667.10000  1.45209e-10      7484.08
       667.20000  1.45209e-10      7491.34
       667.30000  1.45209e-10      7498.60
       667.40000  1.45209e-10      7505.86
       667.50000  8.22394e-11      4255.06
       667.60000  8.22394e-11      4258.35
       667.70000  8.22394e-11      4261.64
       667.80000  8.22394e-11      4264.11
       667.90000  8.22394e-11      4266.58
       668.00000  8.22394e-11      4269.04
       668.10000  8.22394e-11      4271.51
       668.20000  8.22394e-11      4273.16
       668.30000  8.22394e-11      4274.80
       668.40000  8.22394e-11      4275.62
       668.50000  6.94428e-11      3611.02
       668.60000  6.94428e-11      3611.72
       668.70000  6.94428e-11      3611.72
       668.80000  6.93292e-11      3605.81
       668.90000  6.93292e-11      3605.81
       669.00000  6.93292e-11      3605.12
       669.10000  6.93292e-11      3600.26
       669.20000  6.93292e-11      3595.41
       669.30000  6.93292e-11      3591.25
       669.40000  6.93292e-11      3587.09
       669.50000  1.17521e-10      6073.49
       669.60000  1.17521e-10      6066.44
       669.70000  1.17521e-10      6060.56
       669.80000  1.17521e-10      6054.69
       669.90000  1.17521e-10      6048.81
       670.00000  1.17521e-10      6044.11
       670.10000  1.17521e-10      6039.41
       670.20000  1.17521e-10      6034.71
       670.30000  1.17521e-10      6030.01
       670.40000  1.17521e-10      6026.48
       670.50000  8.38465e-11      4297.13
       670.60000  8.38465e-11      4294.62
       670.70000  8.38465e-11      4292.94
       670.80000  8.38465e-11      4291.27
       670.90000  8.38465e-11      4289.59
       671.00000  8.38465e-11      4288.75
       671.10000  8.38465e-11      4287.07
       671.20000  8.38465e-11      4287.07
       671.30000  8.38497e-11      4286.40
       671.40000  8.38497e-11      4286.40
       671.50000  1.02799e-10      5255.11
       671.60000  1.02799e-10      5255.11
       671.70000  1.02799e-10      5255.11
       671.80000  1.02799e-10      5256.13
       671.90000  1.02799e-10      5257.16
       672.00000  1.02799e-10      5259.22
       672.10000  1.02799e-10      5261.27
       672.20000  1.02799e-10      5263.33
       672.30000  1.02799e-10      5265.39
       672.40000  1.02799e-10      5268.47
       672.50000  7.10582e-11      3643.86
       672.60000  7.10582e-11      3646.00
       672.70000  7.10582e-11      3648.13
       672.80000  7.10582e-11      3650.97
       672.90000  7.10582e-11      3653.81
       673.00000  7.10582e-11      3657.37
       673.10000  7.10582e-11      3655.94
       673.20000  7.10582e-11      3654.52
       673.30000  7.10582e-11      3653.10
       673.40000  7.10582e-11      3652.39
       673.50000  6.94653e-11      3569.13
       673.60000  6.94653e-11      3568.43
       673.70000  6.94653e-11      3567.74
       673.80000  6.94930e-11      3567.77
       673.90000  6.94930e-11      3567.08
       674.00000  6.94930e-11      3566.38
       674.10000  6.94930e-11      3565.69
       674.20000  6.94930e-11      3564.99
       674.30000  6.94930e-11      3564.30
       674.40000  6.94930e-11      3563.60
       674.50000  7.03471e-11      3606.69
       674.60000  7.03471e-11      3606.69
       674.70000  7.03471e-11      3605.99
       674.80000  7.03471e-11      3605.99
       674.90000  7.03471e-11      3605.29
       675.00000  7.03471e-11      3605.29
       675.10000  7.03471e-11      3605.99
       675.20000  7.03471e-11      3606.69
       675.30000  7.03471e-11      3607.40
       675.40000  7.03471e-11      3608.10
       675.50000  7.40261e-11      3796.80
       675.60000  7.40261e-11      3797.54
       675.70000  7.40261e-11      3798.28
       675.80000  7.40261e-11      3798.28
       675.90000  7.40261e-11      3799.02
       676.00000  7.40261e-11      3799.02
       676.10000  7.40261e-11      3799.76
       676.20000  7.40261e-11      3799.76
       676.30000  7.39506e-11      3795.89
       676.40000  7.39506e-11      3795.89
       676.50000  6.60319e-11      3390.08
       676.60000  6.60319e-11      3390.08
       676.70000  6.60319e-11      3390.08
       676.80000  6.60319e-11      3389.42
       676.90000  6.60319e-11      3389.42
       677.00000  6.60319e-11      3389.42
       677.10000  6.60319e-11      3389.42
       677.20000  6.60319e-11      3388.76
       677.30000  6.60319e-11      3388.76
       677.40000  6.60319e-11      3388.10
       677.50000  7.22396e-11      3706.61
       677.60000  7.22396e-11      3705.89
       677.70000  7.22396e-11      3705.89
       677.80000  7.22396e-11      3705.17
       677.90000  7.22396e-11      3704.44
       678.00000  7.22396e-11      3703.72
       678.10000  7.22396e-11      3703.00
       678.20000  7.22396e-11      3702.28
       678.30000  7.22396e-11      3701.56
       678.40000  7.22396e-11      3700.83
       678.50000  6.29990e-11      3226.18
       678.60000  6.29990e-11      3225.55
       678.70000  6.29990e-11      3224.92
       678.80000  6.29942e-11      3223.41
       678.90000  6.29942e-11      3222.78
       679.00000  6.29942e-11      3221.52
       679.10000  6.29942e-11      3221.52
       679.20000  6.29942e-11      3222.15
       679.30000  6.29942e-11      3222.15
       679.40000  6.29942e-11      3222.15
       679.50000  6.91365e-11      3536.33
       679.60000  6.91365e-11      3536.33
       679.70000  6.91365e-11      3536.33
       679.80000  6.91365e-11      3536.33
       679.90000  6.91365e-11      3536.33
       680.00000  6.91365e-11      3535.64
       680.10000  6.91365e-11      3535.64
       680.20000  6.91365e-11      3535.64
       680.30000  6.91365e-11      3534.95
       680.40000  6.91365e-11      3534.95
       680.50000  5.23327e-11      2675.25
       680.60000  5.23327e-11      2675.25
       680.70000  5.23327e-11      2674.72
       680.80000  5.23327e-11      2674.20
       680.90000  5.23327e-11      2673.68
       681.00000  5.23327e-11      2673.68
       681.10000  5.23327e-11      2673.15
       681.20000  5.23327e-11      2672.63
       681.30000  5.23278e-11      2672.38
       681.40000  5.23278e-11      2671.86
       681.50000  3.96703e-11      2025.17
       681.60000  3.96703e-11      2024.77
       681.70000  3.96703e-11      2024.38
       681.80000  3.96703e-11      2023.58
       681.90000  3.96703e-11      2023.19
       682.00000  3.96703e-11      2022.79
       682.10000  3.96703e-11      2022.00
       682.20000  3.96703e-11      2021.20
       682.30000  3.96703e-11      2020.81
       682.40000  3.96703e-11      2020.01
       682.50000  3.26107e-11      1659.89
       682.60000  3.26107e-11      1659.23
       682.70000  3.26107e-11      1658.58
       682.80000  3.26107e-11      1657.93
       682.90000  3.26107e-11      1656.95
       683.00000  3.26107e-11      1656.30
       683.10000  3.26107e-11      1655.65
       683.20000  3.26107e-11      1654.67
       683.30000  3.26107e-11      1653.69
       683.40000  3.26107e-11      1652.71
       683.50000  3.22201e-11      1632.27
       683.60000  3.22201e-11      1631.30
       683.70000  3.22201e-11      1630.34
       683.80000  3.21954e-11      1627.80
       683.90000  3.21954e-11      1626.83
       684.00000  3.21954e-11      1625.87
       684.10000  3.21954e-11      1624.58
       684.20000  3.21954e-11      1623.62
       684.30000  3.21954e-11      1622.33
       684.40000  3.21954e-11      1621.36
       684.50000  6.02850e-11      3033.54
       684.60000  6.02850e-11      3031.13
       684.70000  6.02850e-11      3028.72
       684.80000  6.02850e-11      3026.31
       684.90000  6.02850e-11      3023.29
       685.00000  6.02850e-11      3020.88
       685.10000  6.02850e-11      3023.29
       685.20000  6.02850e-11      3026.31
       685.30000  6.02850e-11      3028.72
       685.40000  6.02850e-11      3030.53
       685.50000  5.28598e-11      2659.38
       685.60000  5.28598e-11      2661.49
       685.70000  5.28598e-11      2663.08
       685.80000  5.28598e-11      2664.66
       685.90000  5.28598e-11      2666.25
       686.00000  5.28598e-11      2667.84
       686.10000  5.28598e-11      2669.42
       686.20000  5.28598e-11      2670.48
       686.30000  5.28043e-11      2669.26
       686.40000  5.28043e-11      2670.31
       686.50000  2.89855e-11      1466.38
       686.60000  2.89855e-11      1466.96
       686.70000  2.89855e-11      1467.54
       686.80000  2.89855e-11      1467.83
       686.90000  2.89855e-11      1468.41
       687.00000  2.89855e-11      1468.70
       687.10000  2.89855e-11      1468.99
       687.20000  2.89855e-11      1468.99
       687.30000  2.89855e-11      1468.99
       687.40000  2.89855e-11      1468.99
       687.50000  4.93322e-11      2500.15
       687.60000  4.93322e-11      2500.15
       687.70000  4.93322e-11      2500.15
       687.80000  4.93322e-11      2500.15
       687.90000  4.93322e-11      2500.15
       688.00000  4.93322e-11      2499.66
       688.10000  4.93322e-11      2499.66
       688.20000  4.93322e-11      2499.66
       688.30000  4.93322e-11      2499.17
       688.40000  4.93322e-11      2499.17
       688.50000  3.38243e-11      1713.20
       688.60000  3.38243e-11      1712.86
       688.70000  3.38243e-11      1712.86
       688.80000  3.37811e-11      1710.34
       688.90000  3.37811e-11      1710.00
       689.00000  3.37811e-11      1709.66
       689.10000  3.37811e-11      1709.32
       689.20000  3.37811e-11      1708.99
       689.30000  3.37811e-11      1708.65
       689.40000  3.37811e-11      1708.31
       689.50000  2.88067e-11      1456.47
       689.60000  2.88067e-11      1456.18
       689.70000  2.88067e-11      1455.60
       689.80000  2.88067e-11      1455.32
       689.90000  2.88067e-11      1455.03
       690.00000  2.88067e-11      1454.45
       690.10000  2.88067e-11      1453.87
       690.20000  2.88067e-11      1453.59
       690.30000  2.88067e-11      1453.01
       690.40000  2.88067e-11      1452.43
       690.50000  3.35743e-11      1692.48
       690.60000  3.35743e-11      1691.81
       690.70000  3.35743e-11      1691.14
       690.80000  3.35743e-11      1690.47
       690.90000  3.35743e-11      1689.80
       691.00000  3.35743e-11      1689.13
       691.10000  3.35743e-11      1689.80
       691.20000  3.35743e-11      1690.13
       691.30000  3.35423e-11      1689.19
       691.40000  3.35423e-11      1689.52
       691.50000  3.60574e-11      1816.57
       691.60000  3.60574e-11      1817.29
       691.70000  3.60574e-11      1817.65
       691.80000  3.60574e-11      1818.01
       691.90000  3.60574e-11      1818.37
       692.00000  3.60574e-11      1818.37
       692.10000  3.60574e-11      1818.73
       692.20000  3.60574e-11      1819.09
       692.30000  3.60574e-11      1819.09
       692.40000  3.60574e-11      1819.09
       692.50000  3.49975e-11      1765.97
       692.60000  3.49975e-11      1765.97
       692.70000  3.49975e-11      1765.97
       692.80000  3.49975e-11      1765.97
       692.90000  3.49975e-11      1765.97
       693.00000  3.49975e-11      1765.62
       693.10000  3.49975e-11      1765.62
       693.20000  3.49975e-11      1765.27
       693.30000  3.49975e-11      1764.92
       693.40000  3.49975e-11      1764.57
       693.50000  3.00270e-11      1513.66
       693.60000  3.00270e-11      1513.36
       693.70000  3.00270e-11      1513.06
       693.80000  2.99079e-11      1506.76
       693.90000  2.99079e-11      1506.16
       694.00000  2.99079e-11      1505.86
       694.10000  2.99079e-11      1505.56
       694.20000  2.99079e-11      1504.96
       694.30000  2.99079e-11      1504.67
       694.40000  2.99079e-11      1504.07
       694.50000  4.05855e-11      2040.23
       694.60000  4.05855e-11      2039.83
       694.70000  4.05855e-11      2039.02
       694.80000  4.05855e-11      2038.21
       694.90000  4.05855e-11      2037.39
       695.00000  4.05855e-11      2036.58
       695.10000  4.05855e-11      2035.77
       695.20000  4.05855e-11      2034.96
       695.30000  4.05855e-11      2033.74
       695.40000  4.05855e-11      2032.93
       695.50000  2.69911e-11      1351.44
       695.60000  2.69911e-11      1350.63
       695.70000  2.69911e-11      1350.09
       695.80000  2.69911e-11      1349.28
       695.90000  2.69911e-11      1348.47
       696.00000  2.69911e-11      1347.93
       696.10000  2.69911e-11      1347.12
       696.20000  2.69911e-11      1346.31
       696.30000  2.69646e-11      1344.18
       696.40000  2.69646e-11      1343.38
       696.50000  2.23115e-11      1110.89
       696.60000  2.23115e-11      1110.22
       696.70000  2.23115e-11      1109.33
       696.80000  2.23115e-11      1108.66
       696.90000  2.23115e-11      1107.99
       697.00000  2.23115e-11      1107.10
       697.10000  2.23115e-11      1108.66
       697.20000  2.23115e-11      1109.78
       697.30000  2.23115e-11      1111.12
       697.40000  2.23115e-11      1112.23
       697.50000  3.03989e-11      1516.91
       697.60000  3.03989e-11      1518.12
       697.70000  3.03989e-11      1519.34
       697.80000  3.03989e-11      1520.25
       697.90000  3.03989e-11      1521.16
       698.00000  3.03989e-11      1521.77
       698.10000  3.03989e-11      1522.38
       698.20000  3.03989e-11      1522.99
       698.30000  3.03989e-11      1523.29
       698.40000  3.03989e-11      1523.59
       698.50000  2.77666e-11      1391.94
       698.60000  2.77666e-11      1391.94
       698.70000  2.77666e-11      1391.66
       698.80000  2.77192e-11      1389.01
       698.90000  2.77192e-11      1388.73
       699.00000  2.77192e-11      1388.18
       699.10000  2.77192e-11      1385.68
       699.20000  2.77192e-11      1382.91
       699.30000  2.77192e-11      1380.69
       699.40000  2.77192e-11      1378.20
       699.50000  2.54307e-11      1262.38
       699.60000  2.54307e-11      1260.34
       699.70000  2.54307e-11      1258.56
       699.80000  2.54307e-11      1256.78
       699.90000  2.54307e-11      1255.00
       700.00000  2.54307e-11      1253.48
       700.10000  2.54307e-11      1251.95
       700.20000  2.54307e-11      1250.43
       700.30000  2.54307e-11      1249.15
       700.40000  2.54307e-11      1247.88
       700.50000  2.86222e-11      1403.06
       700.60000  2.86222e-11      1401.92
       700.70000  2.86222e-11      1400.77
       700.80000  2.86222e-11      1399.91
       700.90000  2.86222e-11      1399.06
       701.00000  2.86222e-11      1398.20
       701.10000  2.86222e-11      1397.91
       701.20000  2.86222e-11      1397.62
       701.30000  2.86027e-11      1396.38
       701.40000  2.86027e-11      1396.38
       701.50000  2.92080e-11      1425.94
       701.60000  2.92080e-11      1425.94
       701.70000  2.92080e-11      1425.94
       701.80000  2.92080e-11      1426.23
       701.90000  2.92080e-11      1426.23
       702.00000  2.92080e-11      1426.52
       702.10000  2.92080e-11      1427.10
       702.20000  2.92080e-11      1427.40
       702.30000  2.92080e-11      1427.98
       702.40000  2.92080e-11      1428.27
       702.50000  2.40962e-11      1178.78
       702.60000  2.40962e-11      1179.51
       702.70000  2.40962e-11      1179.99
       702.80000  2.40962e-11      1180.71
       702.90000  2.40962e-11      1181.44
       703.00000  2.40962e-11      1182.16
       703.10000  2.40962e-11      1184.33
       703.20000  2.40962e-11      1186.50
       703.30000  2.40962e-11      1188.42
       703.40000  2.40962e-11      1190.35
       703.50000  3.61424e-11      1787.97
       703.60000  3.61424e-11      1790.86
       703.70000  3.61424e-11      1793.03
       703.80000  3.60452e-11      1790.72
       703.90000  3.60452e-11      1792.89
       704.00000  3.60452e-11      1794.69
       704.10000  3.60452e-11      1796.85
       704.20000  3.60452e-11      1798.65
       704.30000  3.60452e-11      1800.10
       704.40000  3.60452e-11      1801.54
       704.50000  3.20428e-11      1602.78
       704.60000  3.20428e-11      1604.06
       704.70000  3.20428e-11      1605.02
       704.80000  3.20428e-11      1605.66
       704.90000  3.20428e-11      1606.63
       705.00000  3.20428e-11      1607.27
       705.10000  3.20428e-11      1607.59
       705.20000  3.20428e-11      1607.91
       705.30000  3.20428e-11      1608.23
       705.40000  3.20428e-11      1608.55
       705.50000  4.11606e-11      2066.26
       705.60000  4.11606e-11      2066.26
       705.70000  4.11606e-11      2065.85
       705.80000  4.11606e-11      2065.44
       705.90000  4.11606e-11      2065.03
       706.00000  4.11606e-11      2064.20
       706.10000  4.11606e-11      2063.38
       706.20000  4.11606e-11      2062.15
       706.30000  4.11915e-11      2062.46
       706.40000  4.11915e-11      2061.22
       706.50000  5.09596e-11      2547.98
       706.60000  5.09596e-11      2545.94
       706.70000  5.09596e-11      2543.90
       706.80000  5.09596e-11      2541.35
       706.90000  5.09596e-11      2538.80
       707.00000  5.09596e-11      2536.26
       707.10000  5.09596e-11      2534.22
       707.20000  5.09596e-11      2532.69
       707.30000  5.09596e-11      2530.65
       707.40000  5.09596e-11      2529.12
       707.50000  5.97111e-11      2961.67
       707.60000  5.97111e-11      2959.88
       707.70000  5.97111e-11      2958.68
       707.80000  5.97111e-11      2956.89
       707.90000  5.97111e-11      2955.70
       708.00000  5.97111e-11      2954.50
       708.10000  5.97111e-11      2953.31
       708.20000  5.97111e-11      2952.11
       708.30000  5.97111e-11      2950.92
       708.40000  5.97111e-11      2949.73
       708.50000  4.75511e-11      2348.55
       708.60000  4.75511e-11      2347.60
       708.70000  4.75511e-11      2347.12
       708.80000  4.73892e-11      2338.66
       708.90000  4.73892e-11      2338.18
       709.00000  4.73892e-11      2338.18
       709.10000  4.73892e-11      2339.13
       709.20000  4.73892e-11      2340.08
       709.30000  4.73892e-11      2340.55
       709.40000  4.73892e-11      2341.50
       709.50000  5.79264e-11      2862.72
       709.60000  5.79264e-11      2863.88
       709.70000  5.79264e-11      2864.46
       709.80000  5.79264e-11      2865.04
       709.90000  5.79264e-11      2865.62
       710.00000  5.79264e-11      2866.20
       710.10000  5.79264e-11      2866.78
       710.20000  5.79264e-11      2867.36
       710.30000  5.79264e-11      2867.36
       710.40000  5.79264e-11      2867.94
       710.50000  5.44965e-11      2698.12
       710.60000  5.44965e-11      2698.12
       710.70000  5.44965e-11      2698.12
       710.80000  5.44965e-11      2698.12
       710.90000  5.44965e-11      2698.12
       711.00000  5.44965e-11      2698.12
       711.10000  5.44965e-11      2698.12
       711.20000  5.44965e-11      2697.58
       711.30000  5.45083e-11      2698.16
       711.40000  5.45083e-11      2697.61
       711.50000  3.82388e-11      1892.06
       711.60000  3.82388e-11      1891.67
       711.70000  3.82388e-11      1891.29
       711.80000  3.82388e-11      1890.91
       711.90000  3.82388e-11      1890.53
       712.00000  3.82388e-11      1889.76
       712.10000  3.82388e-11      1889.38
       712.20000  3.82388e-11      1888.61
       712.30000  3.82388e-11      1888.23
       712.40000  3.82388e-11      1887.47
       712.50000  5.51007e-11      2718.67
       712.60000  5.51007e-11      2717.57
       712.70000  5.51007e-11      2715.91
       712.80000  5.51007e-11      2714.81
       712.90000  5.51007e-11      2713.71
       713.00000  5.51007e-11      2712.06
       713.10000  5.51007e-11      2712.06
       713.20000  5.51007e-11      2712.06
       713.30000  5.51007e-11      2712.06
       713.40000  5.51007e-11      2711.50
       713.50000  5.62748e-11      2769.28
       713.60000  5.62748e-11      2769.28
       713.70000  5.62748e-11      2768.72
       713.80000  5.62617e-11      2768.07
       713.90000  5.62617e-11      2767.51
       714.00000  5.62617e-11      2767.51
       714.10000  5.62617e-11      2766.95
       714.20000  5.62617e-11      2766.39
       714.30000  5.62617e-11      2766.39
       714.40000  5.62617e-11      2765.82
       714.50000  4.19143e-11      2060.09
       714.60000  4.19143e-11      2059.67
       714.70000  4.19143e-11      2059.67
       714.80000  4.19143e-11      2059.25
       714.90000  4.19143e-11      2058.83
       715.00000  4.19143e-11      2058.41
       715.10000  4.19143e-11      2057.99
       715.20000  4.19143e-11      2057.99
       715.30000  4.19143e-11      2057.99
       715.40000  4.19143e-11      2057.58
       715.50000  4.01107e-11      1968.63
       715.60000  4.01107e-11      1968.23
       715.70000  4.01107e-11      1967.83
       715.80000  4.01107e-11      1967.43
       715.90000  4.01107e-11      1967.03
       716.00000  4.01107e-11      1966.22
       716.10000  4.01107e-11      1965.82
       716.20000  4.01107e-11      1965.02
       716.30000  4.00528e-11      1961.39
       716.40000  4.00528e-11      1960.59
       716.50000  4.28105e-11      2094.72
       716.60000  4.28105e-11      2093.86
       716.70000  4.28105e-11      2093.00
       716.80000  4.28105e-11      2091.72
       716.90000  4.28105e-11      2090.86
       717.00000  4.28105e-11      2089.58
       717.10000  4.28105e-11      2088.30
       717.20000  4.28105e-11      2087.01
       717.30000  4.28105e-11      2085.73
       717.40000  4.28105e-11      2084.44
       717.50000  3.66854e-11      1785.11
       717.60000  3.66854e-11      1783.64
       717.70000  3.66854e-11      1782.54
       717.80000  3.66854e-11      1781.08
       717.90000  3.66854e-11      1779.61
       718.00000  3.66854e-11      1778.14
       718.10000  3.66854e-11      1776.67
       718.20000  3.66854e-11      1775.21
       718.30000  3.66854e-11      1773.74
       718.40000  3.66854e-11      1771.90
       718.50000  3.74015e-11      1805.00
       718.60000  3.74015e-11      1803.13
       718.70000  3.74015e-11      1801.26
       718.80000  3.72479e-11      1792.00
       718.90000  3.72479e-11      1790.13
       719.00000  3.72479e-11      1788.27
       719.10000  3.72479e-11      1788.27
       719.20000  3.72479e-11      1788.27
       719.30000  3.72479e-11      1788.27
       719.40000  3.72479e-11      1788.64
       719.50000  4.08268e-11      1960.50
       719.60000  4.08268e-11      1960.91
       719.70000  4.08268e-11      1960.91
       719.80000  4.08268e-11      1961.32
       719.90000  4.08268e-11      1961.73
       720.00000  4.08268e-11      1962.55
       720.10000  4.08268e-11      1962.95
       720.20000  4.08268e-11      1963.36
       720.30000  4.08268e-11      1964.18
       720.40000  4.08268e-11      1964.59
       720.50000  3.69832e-11      1780.37
       720.60000  3.69832e-11      1781.11
       720.70000  3.69832e-11      1781.85
       720.80000  3.69832e-11      1782.59
       720.90000  3.69832e-11      1783.70
       721.00000  3.69832e-11      1784.44
       721.10000  3.69832e-11      1786.29
       721.20000  3.69832e-11      1788.14
       721.30000  3.69079e-11      1786.34
       721.40000  3.69079e-11      1787.82
       721.50000  4.37010e-11      2119.06
       721.60000  4.37010e-11      2120.81
       721.70000  4.37010e-11      2122.56
       721.80000  4.37010e-11      2124.74
       721.90000  4.37010e-11      2126.49
       722.00000  4.37010e-11      2127.80
       722.10000  4.37010e-11      2129.55
       722.20000  4.37010e-11      2131.30
       722.30000  4.37010e-11      2132.61
       722.40000  4.37010e-11      2133.92
       722.50000  4.54394e-11      2220.17
       722.60000  4.54394e-11      2221.99
       722.70000  4.54394e-11      2222.90
       722.80000  4.54394e-11      2224.26
       722.90000  4.54394e-11      2225.62
       723.00000  4.54394e-11      2226.53
       723.10000  4.54394e-11      2227.90
       723.20000  4.54394e-11      2228.80
       723.30000  4.54394e-11      2229.71
       723.40000  4.54394e-11      2230.62
       723.50000  3.96261e-11      1946.04
       723.60000  3.96261e-11      1946.44
       723.70000  3.96261e-11      1947.23
       723.80000  3.95046e-11      1941.65
       723.90000  3.95046e-11      1942.04
       724.00000  3.95046e-11      1942.44
       724.10000  3.95046e-11      1942.83
       724.20000  3.95046e-11      1943.23
       724.30000  3.95046e-11      1943.62
       724.40000  3.95046e-11      1944.02
       724.50000  3.53328e-11      1738.73
       724.60000  3.53328e-11      1738.73
       724.70000  3.53328e-11      1738.73
       724.80000  3.53328e-11      1738.73
       724.90000  3.53328e-11      1738.73
       725.00000  3.53328e-11      1738.73
       725.10000  3.53328e-11      1739.43
       725.20000  3.53328e-11      1740.14
       725.30000  3.53328e-11      1740.49
       725.40000  3.53328e-11      1741.20
       725.50000  3.23361e-11      1593.85
       725.60000  3.23361e-11      1594.17
       725.70000  3.23361e-11      1594.17
       725.80000  3.23361e-11      1594.49
       725.90000  3.23361e-11      1594.49
       726.00000  3.23361e-11      1594.49
       726.10000  3.23361e-11      1594.49
       726.20000  3.23361e-11      1594.49
       726.30000  3.22519e-11      1590.02
       726.40000  3.22519e-11      1589.70
       726.50000  2.90544e-11      1431.80
       726.60000  2.90544e-11      1431.51
       726.70000  2.90544e-11      1431.22
       726.80000  2.90544e-11      1430.64
       726.90000  2.90544e-11      1430.06
       727.00000  2.90544e-11      1429.48
       727.10000  2.90544e-11      1427.45
       727.20000  2.90544e-11      1425.41
       727.30000  2.90544e-11      1423.38
       727.40000  2.90544e-11      1421.63
       727.50000  3.78427e-11      1849.37
       727.60000  3.78427e-11      1847.10
       727.70000  3.78427e-11      1845.21
       727.80000  3.78427e-11      1843.32
       727.90000  3.78427e-11      1841.42
       728.00000  3.78427e-11      1839.91
       728.10000  3.78427e-11      1838.40
       728.20000  3.78427e-11      1836.88
       728.30000  3.78427e-11      1835.37
       728.40000  3.78427e-11      1834.23
       728.50000  2.67813e-11      1297.28
       728.60000  2.67813e-11      1296.75
       728.70000  2.67813e-11      1295.95
       728.80000  2.67869e-11      1295.95
       728.90000  2.67869e-11      1295.42
       729.00000  2.67869e-11      1295.15
       729.10000  2.67869e-11      1294.88
       729.20000  2.67869e-11      1294.61
       729.30000  2.67869e-11      1294.61
       729.40000  2.67869e-11      1294.34
       729.50000  3.29494e-11      1592.44
       729.60000  3.29494e-11      1592.44
       729.70000  3.29494e-11      1592.77
       729.80000  3.29494e-11      1593.10
       729.90000  3.29494e-11      1593.76
       730.00000  3.29494e-11      1594.42
       730.10000  3.29494e-11      1595.08
       730.20000  3.29494e-11      1595.74
       730.30000  3.29494e-11      1596.73
       730.40000  3.29494e-11      1597.71
       730.50000  2.26498e-11      1098.97
       730.60000  2.26498e-11      1099.87
       730.70000  2.26498e-11      1100.78
       730.80000  2.26498e-11      1101.68
       730.90000  2.26498e-11      1102.82
       731.00000  2.26498e-11      1103.95
       731.10000  2.26498e-11      1103.72
       731.20000  2.26498e-11      1103.50
       731.30000  2.26331e-11      1102.46
       731.40000  2.26331e-11      1102.46
       731.50000  2.56543e-11      1249.37
       731.60000  2.56543e-11      1249.11
       731.70000  2.56543e-11      1248.85
       731.80000  2.56543e-11      1248.85
       731.90000  2.56543e-11      1248.60
       732.00000  2.56543e-11      1248.34
       732.10000  2.56543e-11      1248.08
       732.20000  2.56543e-11      1247.83
       732.30000  2.56543e-11      1247.83
       732.40000  2.56543e-11      1247.57
       732.50000  2.59951e-11      1263.88
       732.60000  2.59951e-11      1263.62
       732.70000  2.59951e-11      1263.36
       732.80000  2.59951e-11      1263.10
       732.90000  2.59951e-11      1262.84
       733.00000  2.59951e-11      1262.58
       733.10000  2.59951e-11      1262.32
       733.20000  2.59951e-11      1261.80
       733.30000  2.59951e-11      1261.54
       733.40000  2.59951e-11      1261.02
       733.50000  2.70198e-11      1310.46
       733.60000  2.70198e-11      1310.19
       733.70000  2.70198e-11      1309.65
       733.80000  2.69752e-11      1307.22
       733.90000  2.69752e-11      1306.95
       734.00000  2.69752e-11      1306.68
       734.10000  2.69752e-11      1306.41
       734.20000  2.69752e-11      1306.14
       734.30000  2.69752e-11      1305.87
       734.40000  2.69752e-11      1305.87
       734.50000  2.01668e-11      976.074
       734.60000  2.01668e-11      975.873
       734.70000  2.01668e-11      975.873
       734.80000  2.01668e-11      975.671
       734.90000  2.01668e-11      975.671
       735.00000  2.01668e-11      975.469
       735.10000  2.01668e-11      975.469
       735.20000  2.01668e-11      975.469
       735.30000  2.01668e-11      975.469
       735.40000  2.01668e-11      975.268
       735.50000  2.02643e-11      979.983
       735.60000  2.02643e-11      979.983
       735.70000  2.02643e-11      979.983
       735.80000  2.02643e-11      980.186
       735.90000  2.02643e-11      980.186
       736.00000  2.02643e-11      980.186
       736.10000  2.02643e-11      980.186
       736.20000  2.02643e-11      980.388
       736.30000  2.02256e-11      978.516
       736.40000  2.02256e-11      978.719
       736.50000  2.15080e-11      1040.77
       736.60000  2.15080e-11      1040.99
       736.70000  2.15080e-11      1041.20
       736.80000  2.15080e-11      1041.20
       736.90000  2.15080e-11      1041.42
       737.00000  2.15080e-11      1041.63
       737.10000  2.15080e-11      1040.56
       737.20000  2.15080e-11      1039.27
       737.30000  2.15080e-11      1038.19
       737.40000  2.15080e-11      1037.12
       737.50000  2.05352e-11      988.977
       737.60000  2.05352e-11      987.950
       737.70000  2.05352e-11      986.924
       737.80000  2.05352e-11      985.897
       737.90000  2.05352e-11      985.075
       738.00000  2.05352e-11      984.049
       738.10000  2.05352e-11      983.022
       738.20000  2.05352e-11      981.995
       738.30000  2.05352e-11      981.174
       738.40000  2.05352e-11      980.352
       738.50000  2.29510e-11      1094.54
       738.60000  2.29510e-11      1093.62
       738.70000  2.29510e-11      1092.70
       738.80000  2.28546e-11      1087.19
       738.90000  2.28546e-11      1086.28
       739.00000  2.28546e-11      1085.37
       739.10000  2.28546e-11      1083.54
       739.20000  2.28546e-11      1081.94
       739.30000  2.28546e-11      1080.57
       739.40000  2.28546e-11      1079.20
       739.50000  2.13421e-11      1006.49
       739.60000  2.13421e-11      1005.42
       739.70000  2.13421e-11      1004.57
       739.80000  2.13421e-11      1003.50
       739.90000  2.13421e-11      1002.86
       740.00000  2.13421e-11      1002.01
       740.10000  2.13421e-11      1001.58
       740.20000  2.13421e-11      1000.94
       740.30000  2.13421e-11      1000.52
       740.40000  2.13421e-11      1000.30
       740.50000  2.73154e-11      1280.00
       740.60000  2.73154e-11      1279.73
       740.70000  2.73154e-11      1279.73
       740.80000  2.73154e-11      1279.73
       740.90000  2.73154e-11      1280.00
       741.00000  2.73154e-11      1280.27
       741.10000  2.73154e-11      1280.82
       741.20000  2.73154e-11      1281.36
       741.30000  2.72968e-11      1281.04
       741.40000  2.72968e-11      1281.86
       741.50000  2.82077e-11      1325.48
       741.60000  2.82077e-11      1326.61
       741.70000  2.82077e-11      1328.02
       741.80000  2.82077e-11      1329.15
       741.90000  2.82077e-11      1330.84
       742.00000  2.82077e-11      1332.25
       742.10000  2.82077e-11      1333.94
       742.20000  2.82077e-11      1335.92
       742.30000  2.82077e-11      1337.89
       742.40000  2.82077e-11      1339.87
       742.50000  2.22424e-11      1058.30
       742.60000  2.22424e-11      1060.07
       742.70000  2.22424e-11      1062.08
       742.80000  2.22424e-11      1064.08
       742.90000  2.22424e-11      1066.30
       743.00000  2.22424e-11      1068.53
       743.10000  2.22424e-11      1068.08
       743.20000  2.22424e-11      1067.86
       743.30000  2.22424e-11      1067.64
       743.40000  2.22424e-11      1067.19
       743.50000  3.02911e-11      1453.06
       743.60000  3.02911e-11      1452.76
       743.70000  3.02911e-11      1452.46
       743.80000  3.02776e-11      1451.51
       743.90000  3.02776e-11      1451.20
       744.00000  3.02776e-11      1450.90
       744.10000  3.02776e-11      1450.90
       744.20000  3.02776e-11      1450.60
       744.30000  3.02776e-11      1450.60
       744.40000  3.02776e-11      1450.60
       744.50000  2.67167e-11      1279.73
       744.60000  2.67167e-11      1279.73
       744.70000  2.67167e-11      1279.73
       744.80000  2.67167e-11      1279.73
       744.90000  2.67167e-11      1280.00
       745.00000  2.67167e-11      1280.00
       745.10000  2.67167e-11      1280.80
       745.20000  2.67167e-11      1281.60
       745.30000  2.67167e-11      1282.13
       745.40000  2.67167e-11      1282.94
       745.50000  2.44607e-11      1175.09
       745.60000  2.44607e-11      1175.58
       745.70000  2.44607e-11      1176.07
       745.80000  2.44607e-11      1176.56
       745.90000  2.44607e-11      1176.81
       746.00000  2.44607e-11      1177.30
       746.10000  2.44607e-11      1177.54
       746.20000  2.44607e-11      1177.78
       746.30000  2.43492e-11      1172.66
       746.40000  2.43492e-11      1172.90
       746.50000  2.77042e-11      1334.79
       746.60000  2.77042e-11      1334.79
       746.70000  2.77042e-11      1335.06
       746.80000  2.77042e-11      1335.06
       746.90000  2.77042e-11      1335.06
       747.00000  2.77042e-11      1335.06
       747.10000  2.77042e-11      1334.23
       747.20000  2.77042e-11      1333.68
       747.30000  2.77042e-11      1333.12
       747.40000  2.77042e-11      1332.57
       747.50000  2.39689e-11      1152.42
       747.60000  2.39689e-11      1151.94
       747.70000  2.39689e-11      1151.47
       747.80000  2.39689e-11      1150.99
       747.90000  2.39689e-11      1150.51
       748.00000  2.39689e-11      1150.03
       748.10000  2.39689e-11      1149.79
       748.20000  2.39689e-11      1149.31
       748.30000  2.39689e-11      1148.83
       748.40000  2.39689e-11      1148.59
       748.50000  2.48759e-11      1191.56
       748.60000  2.48759e-11      1191.06
       748.70000  2.48759e-11      1190.81
       748.80000  2.47882e-11      1186.12
       748.90000  2.47882e-11      1185.87
       749.00000  2.47882e-11      1185.62
       749.10000  2.47882e-11      1185.13
       749.20000  2.47882e-11      1184.88
       749.30000  2.47882e-11      1184.63
       749.40000  2.47882e-11      1184.38
       749.50000  2.73242e-11      1305.28
       749.60000  2.73242e-11      1305.00
       749.70000  2.73242e-11      1304.46
       749.80000  2.73242e-11      1304.19
       749.90000  2.73242e-11      1304.19
       750.00000  2.73242e-11      1303.91
       750.10000  2.73242e-11      1303.64
       750.20000  2.73242e-11      1303.37
       750.30000  2.73242e-11      1303.09
       750.40000  2.73242e-11      1303.09
       750.50000  2.44443e-11      1165.50
       750.60000  2.44443e-11      1165.26
       750.70000  2.44443e-11      1165.26
       750.80000  2.44443e-11      1165.01
       750.90000  2.44443e-11      1165.01
       751.00000  2.44443e-11      1164.77
       751.10000  2.44443e-11      1164.77
       751.20000  2.44443e-11      1164.77
       751.30000  2.43896e-11      1161.92
       751.40000  2.43896e-11      1161.92
       751.50000  2.83018e-11      1348.30
       751.60000  2.83018e-11      1348.30
       751.70000  2.83018e-11      1348.30
       751.80000  2.83018e-11      1348.30
       751.90000  2.83018e-11      1348.30
       752.00000  2.83018e-11      1348.30
       752.10000  2.83018e-11      1348.30
       752.20000  2.83018e-11      1348.30
       752.30000  2.83018e-11      1348.30
       752.40000  2.83018e-11      1348.30
       752.50000  2.04880e-11      976.251
       752.60000  2.04880e-11      976.251
       752.70000  2.04880e-11      976.251
       752.80000  2.04880e-11      976.456
       752.90000  2.04880e-11      976.456
       753.00000  2.04880e-11      976.661
       753.10000  2.04880e-11      976.661
       753.20000  2.04880e-11      976.661
       753.30000  2.04880e-11      976.661
       753.40000  2.04880e-11      976.661
       753.50000  2.42598e-11      1156.46
       753.60000  2.42598e-11      1156.46
       753.70000  2.42598e-11      1156.46
       753.80000  2.42475e-11      1155.88
       753.90000  2.42475e-11      1155.88
       754.00000  2.42475e-11      1155.88
       754.10000  2.42475e-11      1155.88
       754.20000  2.42475e-11      1155.64
       754.30000  2.42475e-11      1155.64
       754.40000  2.42475e-11      1155.64
       754.50000  2.89308e-11      1378.84
       754.60000  2.89308e-11      1378.84
       754.70000  2.89308e-11      1378.55
       754.80000  2.89308e-11      1378.55
       754.90000  2.89308e-11      1378.26
       755.00000  2.89308e-11      1378.26
       755.10000  2.89308e-11      1377.97
       755.20000  2.89308e-11      1377.97
       755.30000  2.89308e-11      1377.69
       755.40000  2.89308e-11      1377.69
       755.50000  2.38051e-11      1133.36
       755.60000  2.38051e-11      1133.12
       755.70000  2.38051e-11      1133.12
       755.80000  2.38051e-11      1132.89
       755.90000  2.38051e-11      1132.65
       756.00000  2.38051e-11      1132.65
       756.10000  2.38051e-11      1132.41
       756.20000  2.38051e-11      1132.17
       756.30000  2.37672e-11      1130.13
       756.40000  2.37672e-11      1130.13
       756.50000  2.99578e-11      1424.19
       756.60000  2.99578e-11      1423.89
       756.70000  2.99578e-11      1423.59
       756.80000  2.99578e-11      1423.59
       756.90000  2.99578e-11      1423.29
       757.00000  2.99578e-11      1422.99
       757.10000  2.99578e-11      1422.69
       757.20000  2.99578e-11      1422.39
       757.30000  2.99578e-11      1422.39
       757.40000  2.99578e-11      1422.09
       757.50000  3.03217e-11      1439.07
       757.60000  3.03217e-11      1438.77
       757.70000  3.03217e-11      1438.46
       757.80000  3.03217e-11      1438.16
       757.90000  3.03217e-11      1437.86
       758.00000  3.03217e-11      1437.86
       758.10000  3.03217e-11      1437.55
       758.20000  3.03217e-11      1437.25
       758.30000  3.03217e-11      1436.95
       758.40000  3.03217e-11      1436.64
       758.50000  2.77654e-11      1315.25
       758.60000  2.77654e-11      1314.97
       758.70000  2.77654e-11      1314.69
       758.80000  2.76905e-11      1310.87
       758.90000  2.76905e-11      1310.59
       759.00000  2.76905e-11      1310.31
       759.10000  2.76905e-11      1310.31
       759.20000  2.76905e-11      1310.04
       759.30000  2.76905e-11      1310.04
       759.40000  2.76905e-11      1309.76
       759.50000  2.91349e-11      1378.08
       759.60000  2.91349e-11      1378.08
       759.70000  2.91349e-11      1377.79
       759.80000  2.91349e-11      1377.79
       759.90000  2.91349e-11      1377.79
       760.00000  2.91349e-11      1377.79
       760.10000  2.91349e-11      1377.79
       760.20000  2.91349e-11      1377.79
       760.30000  2.91349e-11      1378.08
       760.40000  2.91349e-11      1378.08
       760.50000  2.29003e-11      1083.19
       760.60000  2.29003e-11      1083.41
       760.70000  2.29003e-11      1083.41
       760.80000  2.29003e-11      1083.64
       760.90000  2.29003e-11      1083.64
       761.00000  2.29003e-11      1083.87
       761.10000  2.29003e-11      1084.79
       761.20000  2.29003e-11      1085.48
       761.30000  2.28527e-11      1083.90
       761.40000  2.28527e-11      1084.59
       761.50000  1.64138e-11      779.490
       761.60000  1.64138e-11      779.819
       761.70000  1.64138e-11      780.147
       761.80000  1.64138e-11      780.475
       761.90000  1.64138e-11      780.803
       762.00000  1.64138e-11      780.968
       762.10000  1.64138e-11      781.296
       762.20000  1.64138e-11      781.460
       762.30000  1.64138e-11      781.624
       762.40000  1.64138e-11      781.624
       762.50000  1.90374e-11      906.559
       762.60000  1.90374e-11      906.749
       762.70000  1.90374e-11      906.749
       762.80000  1.90374e-11      906.559
       762.90000  1.90374e-11      906.559
       763.00000  1.90374e-11      906.369
       763.10000  1.90374e-11      906.178
       763.20000  1.90374e-11      905.988
       763.30000  1.90374e-11      905.607
       763.40000  1.90374e-11      905.226
       763.50000  1.54371e-11      733.726
       763.60000  1.54371e-11      733.417
       763.70000  1.54371e-11      733.109
       763.80000  1.53976e-11      730.770
       763.90000  1.53976e-11      730.308
       764.00000  1.53976e-11      729.846
       764.10000  1.53976e-11      729.384
       764.20000  1.53976e-11      728.769
       764.30000  1.53976e-11      728.153
       764.40000  1.53976e-11      727.537
       764.50000  1.40606e-11      663.802
       764.60000  1.40606e-11      663.240
       764.70000  1.40606e-11      662.537
       764.80000  1.40606e-11      661.834
       764.90000  1.40606e-11      661.131
       765.00000  1.40606e-11      660.287
       765.10000  1.40606e-11      658.740
       765.20000  1.40606e-11      657.193
       765.30000  1.40606e-11      655.787
       765.40000  1.40606e-11      654.381
       765.50000  1.35802e-11      630.798
       765.60000  1.35802e-11      629.712
       765.70000  1.35802e-11      628.490
       765.80000  1.35802e-11      627.539
       765.90000  1.35802e-11      626.588
       766.00000  1.35802e-11      625.638
       766.10000  1.35802e-11      624.823
       766.20000  1.35802e-11      624.008
       766.30000  1.35798e-11      623.312
       766.40000  1.35798e-11      622.769
       766.50000  1.07544e-11      492.767
       766.60000  1.07544e-11      492.336
       766.70000  1.07544e-11      492.121
       766.80000  1.07544e-11      491.799
       766.90000  1.07544e-11      491.584
       767.00000  1.07544e-11      491.476
       767.10000  1.07544e-11      492.014
       767.20000  1.07544e-11      492.659
       767.30000  1.07544e-11      493.197
       767.40000  1.07544e-11      493.735
       767.50000  1.48900e-11      684.346
       767.60000  1.48900e-11      685.090
       767.70000  1.48900e-11      685.835
       767.80000  1.48900e-11      686.430
       767.90000  1.48900e-11      687.175
       768.00000  1.48900e-11      687.770
       768.10000  1.48900e-11      688.366
       768.20000  1.48900e-11      688.962
       768.30000  1.48900e-11      689.408
       768.40000  1.48900e-11      690.004
       768.50000  1.31131e-11      608.053
       768.60000  1.31131e-11      608.446
       768.70000  1.31131e-11      608.840
       768.80000  1.31061e-11      608.910
       768.90000  1.31061e-11      609.303
       769.00000  1.31061e-11      609.565
       769.10000  1.31061e-11      609.958
       769.20000  1.31061e-11      610.220
       769.30000  1.31061e-11      610.482
       769.40000  1.31061e-11      610.745
       769.50000  6.36857e-12      296.839
       769.60000  6.36857e-12      296.967
       769.70000  6.36857e-12      297.030
       769.80000  6.36857e-12      297.158
       769.90000  6.36857e-12      297.221
       770.00000  6.36857e-12      297.221
       770.10000  6.36857e-12      297.285
       770.20000  6.36857e-12      297.349
       770.30000  6.36857e-12      297.349
       770.40000  6.36857e-12      297.349
       770.50000  8.96917e-12      418.770
       770.60000  8.96917e-12      418.770
       770.70000  8.96917e-12      418.770
       770.80000  8.96917e-12      418.770
       770.90000  8.96917e-12      418.681
       771.00000  8.96917e-12      418.591
       771.10000  8.96917e-12      418.950
       771.20000  8.96917e-12      419.219
       771.30000  8.94172e-12      418.204
       771.40000  8.94172e-12      418.472
       771.50000  4.72429e-12      221.239
       771.60000  4.72429e-12      221.333
       771.70000  4.72429e-12      221.475
       771.80000  4.72429e-12      221.569
       771.90000  4.72429e-12      221.617
       772.00000  4.72429e-12      221.711
       772.10000  4.72429e-12      221.758
       772.20000  4.72429e-12      221.805
       772.30000  4.72429e-12      221.853
       772.40000  4.72429e-12      221.900
       772.50000  6.15114e-12      288.919
       772.60000  6.15114e-12      288.919
       772.70000  6.15114e-12      288.919
       772.80000  6.15114e-12      288.857
       772.90000  6.15114e-12      288.857
       773.00000  6.15114e-12      288.796
       773.10000  6.15114e-12      288.427
       773.20000  6.15114e-12      288.119
       773.30000  6.15114e-12      287.750
       773.40000  6.15114e-12      287.443
       773.50000  1.20972e-11      564.697
       773.60000  1.20972e-11      564.213
       773.70000  1.20972e-11      563.729
       773.80000  1.20493e-11      561.017
       773.90000  1.20493e-11      560.535
       774.00000  1.20493e-11      560.053
       774.10000  1.20493e-11      559.691
       774.20000  1.20493e-11      559.330
       774.30000  1.20493e-11      559.089
       774.40000  1.20493e-11      558.728
       774.50000  1.16718e-11      540.988
       774.60000  1.16718e-11      540.871
       774.70000  1.16718e-11      540.638
       774.80000  1.16718e-11      540.521
       774.90000  1.16718e-11      540.404
       775.00000  1.16718e-11      540.288
       775.10000  1.16718e-11      540.288
       775.20000  1.16718e-11      540.288
       775.30000  1.16718e-11      540.288
       775.40000  1.16718e-11      540.288
       775.50000  1.12592e-11      521.300
       775.60000  1.12592e-11      521.412
       775.70000  1.12592e-11      521.525
       775.80000  1.12592e-11      521.637
       775.90000  1.12592e-11      521.863
       776.00000  1.12592e-11      522.088
       776.10000  1.12592e-11      522.313
       776.20000  1.12592e-11      522.651
       776.30000  1.12306e-11      521.663
       776.40000  1.12306e-11      522.000
       776.50000  1.44290e-11      671.095
       776.60000  1.44290e-11      671.672
       776.70000  1.44290e-11      672.249
       776.80000  1.44290e-11      672.827
       776.90000  1.44290e-11      673.548
       777.00000  1.44290e-11      674.125
       777.10000  1.44290e-11      673.837
       777.20000  1.44290e-11      673.692
       777.30000  1.44290e-11      673.404
       777.40000  1.44290e-11      673.115
       777.50000  9.72382e-12      453.422
       777.60000  9.72382e-12      453.324
       777.70000  9.72382e-12      453.130
       777.80000  9.72382e-12      453.033
       777.90000  9.72382e-12      452.935
       778.00000  9.72382e-12      452.741
       778.10000  9.72382e-12      452.644
       778.20000  9.72382e-12      452.547
       778.30000  9.72382e-12      452.449
       778.40000  9.72382e-12      452.352
       778.50000  5.35708e-12      249.211
       778.60000  5.35708e-12      249.158
       778.70000  5.35708e-12      249.104
       778.80000  5.34350e-12      248.473
       778.90000  5.34350e-12      248.473
       779.00000  5.34350e-12      248.419
       779.10000  5.34350e-12      248.526
       779.20000  5.34350e-12      248.580
       779.30000  5.34350e-12      248.687
       779.40000  5.34350e-12      248.740
       779.50000  1.11130e-11      517.421
       779.60000  1.11130e-11      517.532
       779.70000  1.11130e-11      517.643
       779.80000  1.11130e-11      517.754
       779.90000  1.11130e-11      517.866
       780.00000  1.11130e-11      517.977
       780.10000  1.11130e-11      517.977
       780.20000  1.11130e-11      518.088
       780.30000  1.11130e-11      518.088
       780.40000  1.11130e-11      518.088
       780.50000  6.55084e-12      305.400
       780.60000  6.55084e-12      305.400
       780.70000  6.55084e-12      305.400
       780.80000  6.55084e-12      305.400
       780.90000  6.55084e-12      305.400
       781.00000  6.55084e-12      305.335
       781.10000  6.55084e-12      305.335
       781.20000  6.55084e-12      305.269
       781.30000  6.51442e-12      303.507
       781.40000  6.51442e-12      303.441
       781.50000  8.62351e-12      401.597
       781.60000  8.62351e-12      401.511
       781.70000  8.62351e-12      401.425
       781.80000  8.62351e-12      401.338
       781.90000  8.62351e-12      401.166
       782.00000  8.62351e-12      401.080
       782.10000  8.62351e-12      400.907
       782.20000  8.62351e-12      400.735
       782.30000  8.62351e-12      400.648
       782.40000  8.62351e-12      400.476
       782.50000  6.10103e-12      283.210
       782.60000  6.10103e-12      283.027
       782.70000  6.10103e-12      282.905
       782.80000  6.10103e-12      282.783
       782.90000  6.10103e-12      282.600
       783.00000  6.10103e-12      282.478
       783.10000  6.10103e-12      282.600
       783.20000  6.10103e-12      282.722
       783.30000  6.10103e-12      282.844
       783.40000  6.10103e-12      282.905
       783.50000  1.09861e-11      509.646
       783.60000  1.09861e-11      509.866
       783.70000  1.09861e-11      509.976
       783.80000  1.09301e-11      507.595
       783.90000  1.09301e-11      507.813
       784.00000  1.09301e-11      507.922
       784.10000  1.09301e-11      508.032
       784.20000  1.09301e-11      508.250
       784.30000  1.09301e-11      508.360
       784.40000  1.09301e-11      508.469
       784.50000  7.13672e-12      332.072
       784.60000  7.13672e-12      332.143
       784.70000  7.13672e-12      332.214
       784.80000  7.13672e-12      332.286
       784.90000  7.13672e-12      332.357
       785.00000  7.13672e-12      332.357
       785.10000  7.13672e-12      332.357
       785.20000  7.13672e-12      332.357
       785.30000  7.13672e-12      332.357
       785.40000  7.13672e-12      332.357
       785.50000  6.76143e-12      314.880
       785.60000  6.76143e-12      314.880
       785.70000  6.76143e-12      314.880
       785.80000  6.76143e-12      314.880
       785.90000  6.76143e-12      314.880
       786.00000  6.76143e-12      314.880
       786.10000  6.76143e-12      314.880
       786.20000  6.76143e-12      314.880
       786.30000  6.75010e-12      314.352
       786.40000  6.75010e-12      314.352
       786.50000  1.04227e-11      485.387
       786.60000  1.04227e-11      485.387
       786.70000  1.04227e-11      485.387
       786.80000  1.04227e-11      485.387
       786.90000  1.04227e-11      485.387
       787.00000  1.04227e-11      485.387
       787.10000  1.04227e-11      485.387
       787.20000  1.04227e-11      485.387
       787.30000  1.04227e-11      485.387
       787.40000  1.04227e-11      485.387
       787.50000  9.63505e-12      448.704
       787.60000  9.63505e-12      448.704
       787.70000  9.63505e-12      448.704
       787.80000  9.63505e-12      448.704
       787.90000  9.63505e-12      448.704
       788.00000  9.63505e-12      448.704
       788.10000  9.63505e-12      448.704
       788.20000  9.63505e-12      448.704
       788.30000  9.63505e-12      448.704
       788.40000  9.63505e-12      448.704
       788.50000  6.84195e-12      318.630
       788.60000  6.84195e-12      318.630
       788.70000  6.84195e-12      318.630
       788.80000  6.84315e-12      318.685
       788.90000  6.84315e-12      318.685
       789.00000  6.84315e-12      318.685
       789.10000  6.84315e-12      318.548
       789.20000  6.84315e-12      318.343
       789.30000  6.84315e-12      318.138
       789.40000  6.84315e-12      318.001
       789.50000  1.10713e-11      514.152
       789.60000  1.10713e-11      513.820
       789.70000  1.10713e-11      513.599
       789.80000  1.10713e-11      513.266
       789.90000  1.10713e-11      512.934
       790.00000  1.10713e-11      512.713
       790.10000  1.10713e-11      512.381
       790.20000  1.10713e-11      512.159
       790.30000  1.10713e-11      511.827
       790.40000  1.10713e-11      511.606
       790.50000  1.09631e-11      506.276
       790.60000  1.09631e-11      505.947
       790.70000  1.09631e-11      505.728
       790.80000  1.09631e-11      505.399
       790.90000  1.09631e-11      505.180
       791.00000  1.09631e-11      504.851
       791.10000  1.09631e-11      504.522
       791.20000  1.09631e-11      504.303
       791.30000  1.09311e-11      502.505
       791.40000  1.09311e-11      502.177
       791.50000  9.13492e-12      419.384
       791.60000  9.13492e-12      419.110
       791.70000  9.13492e-12      418.928
       791.80000  9.13492e-12      418.654
       791.90000  9.13492e-12      418.471
       792.00000  9.13492e-12      418.197
       792.10000  9.13492e-12      418.014
       792.20000  9.13492e-12      417.831
       792.30000  9.13492e-12      417.557
       792.40000  9.13492e-12      417.375
       792.50000  8.97667e-12      409.965
       792.60000  8.97667e-12      409.785
       792.70000  8.97667e-12      409.606
       792.80000  8.97667e-12      409.426
       792.90000  8.97667e-12      409.247
       793.00000  8.97667e-12      409.067
       793.10000  8.97667e-12      408.798
       793.20000  8.97667e-12      408.439
       793.30000  8.97667e-12      408.169
       793.40000  8.97667e-12      407.900
       793.50000  9.25400e-12      420.224
       793.60000  9.25400e-12      420.039
       793.70000  9.25400e-12      419.762
       793.80000  9.22760e-12      418.472
       793.90000  9.22760e-12      418.287
       794.00000  9.22760e-12      418.195
       794.10000  9.22760e-12      418.010
       794.20000  9.22760e-12      418.010
       794.30000  9.22760e-12      417.918
       794.40000  9.22760e-12      417.918
       794.50000  1.25110e-11      566.622
       794.60000  1.25110e-11      566.622
       794.70000  1.25110e-11      566.747
       794.80000  1.25110e-11      566.747
       794.90000  1.25110e-11      566.873
       795.00000  1.25110e-11      567.123
       795.10000  1.25110e-11      567.999
       795.20000  1.25110e-11      568.874
       795.30000  1.25110e-11      569.750
       795.40000  1.25110e-11      570.626
       795.50000  6.76187e-12      308.815
       795.60000  6.76187e-12      309.220
       795.70000  6.76187e-12      309.559
       795.80000  6.76187e-12      309.897
       795.90000  6.76187e-12      310.235
       796.00000  6.76187e-12      310.505
       796.10000  6.76187e-12      310.776
       796.20000  6.76187e-12      311.046
       796.30000  6.75287e-12      310.835
       796.40000  6.75287e-12      311.037
       796.50000  7.49723e-12      345.547
       796.60000  7.49723e-12      345.697
       796.70000  7.49723e-12      345.847
       796.80000  7.49723e-12      345.922
       796.90000  7.49723e-12      345.997
       797.00000  7.49723e-12      346.072
       797.10000  7.49723e-12      346.147
       797.20000  7.49723e-12      346.147
       797.30000  7.49723e-12      346.147
       797.40000  7.49723e-12      346.072
       797.50000  1.12493e-11      519.157
       797.60000  1.12493e-11      519.044
       797.70000  1.12493e-11      518.819
       797.80000  1.12493e-11      518.594
       797.90000  1.12493e-11      518.369
       798.00000  1.12493e-11      518.032
       798.10000  1.12493e-11      517.694
       798.20000  1.12493e-11      517.357
       798.30000  1.12493e-11      516.907
       798.40000  1.12493e-11      516.457
       798.50000  4.55139e-12      208.772
       798.60000  4.55139e-12      208.545
       798.70000  4.55139e-12      208.317
       798.80000  4.54099e-12      207.614
       798.90000  4.54099e-12      207.342
       799.00000  4.54099e-12      207.069
       799.10000  4.54099e-12      207.205
       799.20000  4.54099e-12      207.387
       799.30000  4.54099e-12      207.569
       799.40000  4.54099e-12      207.705
       799.50000  5.16664e-12      236.477
       799.60000  5.16664e-12      236.632
       799.70000  5.16664e-12      236.787
       799.80000  5.16664e-12      236.891
       799.90000  5.16664e-12      236.994
       800.00000  5.16664e-12      237.097
       800.10000  5.16664e-12      237.201
       800.20000  5.16664e-12      237.304
       800.30000  5.16664e-12      237.407
       800.40000  5.16664e-12      237.459
       800.50000  7.72286e-12      355.020
       800.60000  7.72286e-12      355.097
       800.70000  7.72286e-12      355.097
       800.80000  7.72286e-12      355.174
       800.90000  7.72286e-12      355.174
       801.00000  7.72286e-12      355.174
       801.10000  7.72286e-12      355.020
       801.20000  7.72286e-12      354.866
       801.30000  7.70019e-12      353.670
       801.40000  7.70019e-12      353.516
       801.50000  7.35324e-12      337.440
       801.60000  7.35324e-12      337.293
       801.70000  7.35324e-12      337.146
       801.80000  7.35324e-12      336.999
       801.90000  7.35324e-12      336.852
       802.00000  7.35324e-12      336.705
       802.10000  7.35324e-12      336.558
       802.20000  7.35324e-12      336.411
       802.30000  7.35324e-12      336.264
       802.40000  7.35324e-12      336.117
       802.50000  5.54688e-12      253.437
       802.60000  5.54688e-12      253.326
       802.70000  5.54688e-12      253.215
       802.80000  5.54688e-12      253.049
       802.90000  5.54688e-12      252.938
       803.00000  5.54688e-12      252.827
       803.10000  5.54688e-12      252.716
       803.20000  5.54688e-12      252.605
       803.30000  5.54688e-12      252.494
       803.40000  5.54688e-12      252.327
       803.50000  7.17087e-12      326.060
       803.60000  7.17087e-12      325.916
       803.70000  7.17087e-12      325.773
       803.80000  7.14859e-12      324.618
       803.90000  7.14859e-12      324.403
       804.00000  7.14859e-12      324.260
       804.10000  7.14859e-12      324.117
       804.20000  7.14859e-12      323.974
       804.30000  7.14859e-12      323.760
       804.40000  7.14859e-12      323.617
       804.50000  5.52359e-12      249.943
       804.60000  5.52359e-12      249.777
       804.70000  5.52359e-12      249.666
       804.80000  5.52359e-12      249.556
       804.90000  5.52359e-12      249.390
       805.00000  5.52359e-12      249.280
       805.10000  5.52359e-12      249.501
       805.20000  5.52359e-12      249.777
       805.30000  5.52359e-12      249.943
       805.40000  5.52359e-12      250.164
       805.50000  7.32338e-12      331.895
       805.60000  7.32338e-12      332.115
       805.70000  7.32338e-12      332.335
       805.80000  7.32338e-12      332.481
       805.90000  7.32338e-12      332.628
       806.00000  7.32338e-12      332.774
       806.10000  7.32338e-12      332.847
       806.20000  7.32338e-12      332.921
       806.30000  7.30905e-12      332.343
       806.40000  7.30905e-12      332.416
       806.50000  5.86172e-12      266.591
       806.60000  5.86172e-12      266.591
       806.70000  5.86172e-12      266.532
       806.80000  5.86172e-12      266.532
       806.90000  5.86172e-12      266.474
       807.00000  5.86172e-12      266.356
       807.10000  5.86172e-12      265.887
       807.20000  5.86172e-12      265.360
       807.30000  5.86172e-12      264.891
       807.40000  5.86172e-12      264.481
       807.50000  6.07385e-12      273.627
       807.60000  6.07385e-12      273.202
       807.70000  6.07385e-12      272.837
       807.80000  6.07385e-12      272.534
       807.90000  6.07385e-12      272.230
       808.00000  6.07385e-12      271.926
       808.10000  6.07385e-12      271.683
       808.20000  6.07385e-12      271.440
       808.30000  6.07385e-12      271.198
       808.40000  6.07385e-12      271.015
       808.50000  6.25989e-12      279.191
       808.60000  6.25989e-12      279.066
       808.70000  6.25989e-12      278.941
       808.80000  6.25397e-12      278.614
       808.90000  6.25397e-12      278.552
       809.00000  6.25397e-12      278.552
       809.10000  6.25397e-12      278.552
       809.20000  6.25397e-12      278.614
       809.30000  6.25397e-12      278.677
       809.40000  6.25397e-12      278.739
       809.50000  5.90469e-12      263.290
       809.60000  5.90469e-12      263.467
       809.70000  5.90469e-12      263.644
       809.80000  5.90469e-12      263.821
       809.90000  5.90469e-12      264.058
       810.00000  5.90469e-12      264.294
       810.10000  5.90469e-12      264.589
       810.20000  5.90469e-12      264.884
       810.30000  5.90469e-12      265.180
       810.40000  5.90469e-12      265.534
       810.50000  8.64546e-12      389.392
       810.60000  8.64546e-12      389.910
       810.70000  8.64546e-12      390.602
       810.80000  8.64546e-12      391.294
       810.90000  8.64546e-12      391.985
       811.00000  8.64546e-12      392.763
       811.10000  8.64546e-12      392.850
       811.20000  8.64546e-12      393.023
       811.30000  8.63976e-12      392.850
       811.40000  8.63976e-12      393.023
       811.50000  9.33896e-12      424.923
       811.60000  9.33896e-12      425.016
       811.70000  9.33896e-12      425.110
       811.80000  9.33896e-12      425.203
       811.90000  9.33896e-12      425.296
       812.00000  9.33896e-12      425.390
       812.10000  9.33896e-12      425.390
       812.20000  9.33896e-12      425.483
       812.30000  9.33896e-12      425.577
       812.40000  9.33896e-12      425.577
       812.50000  2.12342e-12      96.7645
       812.60000  2.12342e-12      96.7857
       812.70000  2.12342e-12      96.7857
       812.80000  2.12342e-12      96.7857
       812.90000  2.12342e-12      96.7857
       813.00000  2.12342e-12      96.7857
       813.10000  2.12342e-12      96.7432
       813.20000  2.12342e-12      96.7220
       813.30000  2.12342e-12      96.6795
       813.40000  2.12342e-12      96.6583
       813.50000  7.40541e-12      336.946
       813.60000  7.40541e-12      336.872
       813.70000  7.40541e-12      336.798
       813.80000  7.40459e-12      336.687
       813.90000  7.40459e-12      336.613
       814.00000  7.40459e-12      336.465
       814.10000  7.40459e-12      336.391
       814.20000  7.40459e-12      336.317
       814.30000  7.40459e-12      336.243
       814.40000  7.40459e-12      336.243
       814.50000  3.78924e-12      172.031
       814.60000  3.78924e-12      171.994
       814.70000  3.78924e-12      171.956
       814.80000  3.78924e-12      171.918
       814.90000  3.78924e-12      171.918
       815.00000  3.78924e-12      171.880
       815.10000  3.78924e-12      172.031
       815.20000  3.78924e-12      172.145
       815.30000  3.78924e-12      172.259
       815.40000  3.78924e-12      172.335
       815.50000  6.59665e-13      30.0214
       815.60000  6.59665e-13      30.0280
       815.70000  6.59665e-13      30.0412
       815.80000  6.59665e-13      30.0412
       815.90000  6.59665e-13      30.0478
       816.00000  6.59665e-13      30.0478
       816.10000  6.59665e-13      30.0478
       816.20000  6.59665e-13      30.0412
       816.30000  6.59647e-13      30.0337
       816.40000  6.59647e-13      30.0271
       816.50000  1.16008e-12      52.7837
       816.60000  1.16008e-12      52.7605
       816.70000  1.16008e-12      52.7257
       816.80000  1.16008e-12      52.6909
       816.90000  1.16008e-12      52.6561
       817.00000  1.16008e-12      52.6097
       817.10000  1.16008e-12      52.4473
       817.20000  1.16008e-12      52.2964
       817.30000  1.16008e-12      52.1572
       817.40000  1.16008e-12      52.0180
       817.50000  3.21616e-12      143.859
       817.60000  3.21616e-12      143.537
       817.70000  3.21616e-12      143.216
       817.80000  3.21616e-12      142.894
       817.90000  3.21616e-12      142.637
       818.00000  3.21616e-12      142.347
       818.10000  3.21616e-12      142.122
       818.20000  3.21616e-12      141.897
       818.30000  3.21616e-12      141.672
       818.40000  3.21616e-12      141.511
       818.50000  7.01220e-12      308.116
       818.60000  7.01220e-12      307.835
       818.70000  7.01220e-12      307.555
       818.80000  7.01113e-12      307.228
       818.90000  7.01113e-12      307.088
       819.00000  7.01113e-12      306.877
       819.10000  7.01113e-12      306.807
       819.20000  7.01113e-12      306.737
       819.30000  7.01113e-12      306.667
       819.40000  7.01113e-12      306.667
       819.50000  2.24141e-12      98.0618
       819.60000  2.24141e-12      98.0842
       819.70000  2.24141e-12      98.1291
       819.80000  2.24141e-12      98.1963
       819.90000  2.24141e-12      98.2635
       820.00000  2.24141e-12      98.3532
       820.10000  2.24141e-12      98.4428
       820.20000  2.24141e-12      98.5549
       820.30000  2.24141e-12      98.6894
       820.40000  2.24141e-12      98.8239
       820.50000  1.33745e-12      59.0618
       820.60000  1.33745e-12      59.1554
       820.70000  1.33745e-12      59.2624
       820.80000  1.33745e-12      59.3694
       820.90000  1.33745e-12      59.4898
       821.00000  1.33745e-12      59.6235
       821.10000  1.33745e-12      59.5968
       821.20000  1.33745e-12      59.5834
       821.30000  1.34128e-12      59.7274
       821.40000  1.34128e-12      59.7140
       821.50000  6.00411e-12      267.183
       821.60000  6.00411e-12      267.123
       821.70000  6.00411e-12      267.063
       821.80000  6.00411e-12      266.943
       821.90000  6.00411e-12      266.883
       822.00000  6.00411e-12      266.823
       822.10000  6.00411e-12      266.823
       822.20000  6.00411e-12      266.762
       822.30000  6.00411e-12      266.702
       822.40000  6.00411e-12      266.702
       822.50000  1.38791e-12      61.6370
       822.60000  1.38791e-12      61.6370
       822.70000  1.38791e-12      61.6231
       822.80000  1.38791e-12      61.6231
       822.90000  1.38791e-12      61.6231
       823.00000  1.38791e-12      61.6231
       823.10000  1.38791e-12      61.6231
       823.20000  1.38791e-12      61.6231
       823.30000  1.38791e-12      61.6231
       823.40000  1.38791e-12      61.6231
       823.50000  1.19458e-12      53.0515
       823.60000  1.19458e-12      53.0515
       823.70000  1.19458e-12      53.0634
       823.80000  1.19784e-12      53.2082
       823.90000  1.19784e-12      53.2202
       824.00000  1.19784e-12      53.2321
       824.10000  1.19784e-12      53.2441
       824.20000  1.19784e-12      53.2561
       824.30000  1.19784e-12      53.2681
       824.40000  1.19784e-12      53.2920
       824.50000  2.63200e-14      1.17124
       824.60000  2.63200e-14      1.17177
       824.70000  2.63200e-14      1.17203
       824.80000  2.63200e-14      1.17256
       824.90000  2.63200e-14      1.17308
       825.00000  2.63200e-14      1.17361
       825.10000  2.63200e-14      1.17414
       825.20000  2.63200e-14      1.17466
       825.30000  2.63200e-14      1.17545
       825.40000  2.63200e-14      1.17598
       825.50000  8.22851e-13      36.7897
       825.60000  8.22851e-13      36.8061
       825.70000  8.22851e-13      36.8308
       825.80000  8.22851e-13      36.8555
       825.90000  8.22851e-13      36.8802
       826.00000  8.22851e-13      36.9049
       826.10000  8.22851e-13      36.9296
       826.20000  8.22851e-13      36.9460
       826.30000  8.23398e-13      36.9953
       826.40000  8.23398e-13      37.0117
       826.50000  2.62678e-12      118.100
       826.60000  2.62678e-12      118.152
       826.70000  2.62678e-12      118.205
       826.80000  2.62678e-12      118.231
       826.90000  2.62678e-12      118.258
       827.00000  2.62678e-12      118.284
       827.10000  2.62678e-12      118.284
       827.20000  2.62678e-12      118.310
       827.30000  2.62678e-12      118.310
       827.40000  2.62678e-12      118.310
       827.50000  4.50776e-12      203.030
       827.60000  4.50776e-12      203.030
       827.70000  4.50776e-12      202.984
       827.80000  4.50776e-12      202.939
       827.90000  4.50776e-12      202.894
       828.00000  4.50776e-12      202.849
       828.10000  4.50776e-12      202.714
       828.20000  4.50776e-12      202.534
       828.30000  4.50776e-12      202.353
       828.40000  4.50776e-12      202.173
       828.50000  3.45004e-12      154.631
       828.60000  3.45004e-12      154.493
       828.70000  3.45004e-12      154.389
       828.80000  3.44724e-12      154.161
       828.90000  3.44724e-12      154.023
       829.00000  3.44724e-12      153.919
       829.10000  3.44724e-12      153.816
       829.20000  3.44724e-12      153.713
       829.30000  3.44724e-12      153.609
       829.40000  3.44724e-12      153.506
       829.50000  4.30631e-12      191.631
       829.60000  4.30631e-12      191.502
       829.70000  4.30631e-12      191.372
       829.80000  4.30631e-12      191.243
       829.90000  4.30631e-12      191.157
       830.00000  4.30631e-12      191.028
       830.10000  4.30631e-12      190.942
       830.20000  4.30631e-12      190.812
       830.30000  4.30631e-12      190.726
       830.40000  4.30631e-12      190.597
       830.50000  2.67852e-12      118.498
       830.60000  2.67852e-12      118.444
       830.70000  2.67852e-12      118.364
       830.80000  2.67852e-12      118.310
       830.90000  2.67852e-12      118.257
       831.00000  2.67852e-12      118.203
       831.10000  2.67852e-12      118.149
       831.20000  2.67852e-12      118.096
       831.30000  2.68578e-12      118.389
       831.40000  2.68578e-12      118.335
       831.50000  3.87548e-12      170.676
       831.60000  3.87548e-12      170.638
       831.70000  3.87548e-12      170.560
       831.80000  3.87548e-12      170.483
       831.90000  3.87548e-12      170.444
       832.00000  3.87548e-12      170.405
       832.10000  3.87548e-12      170.250
       832.20000  3.87548e-12      170.095
       832.30000  3.87548e-12      169.979
       832.40000  3.87548e-12      169.862
       832.50000  1.32833e-12      58.1807
       832.60000  1.32833e-12      58.1542
       832.70000  1.32833e-12      58.1276
       832.80000  1.32833e-12      58.0877
       832.90000  1.32833e-12      58.0745
       833.00000  1.32833e-12      58.0479
       833.10000  1.32833e-12      58.0213
       833.20000  1.32833e-12      58.0080
       833.30000  1.32833e-12      57.9948
       833.40000  1.32833e-12      57.9815
       833.50000  6.63731e-13      28.9719
       833.60000  6.63731e-13      28.9652
       833.70000  6.63731e-13      28.9652
       833.80000  6.64424e-13      28.9955
       833.90000  6.64424e-13      29.0021
       834.00000  6.64424e-13      29.0021
       834.10000  6.64424e-13      29.0353
       834.20000  6.64424e-13      29.0619
       834.30000  6.64424e-13      29.0951
       834.40000  6.64424e-13      29.1217
       834.50000  2.92650e-12      128.386
       834.60000  2.92650e-12      128.503
       834.70000  2.92650e-12      128.591
       834.80000  2.92650e-12      128.678
       834.90000  2.92650e-12      128.795
       835.00000  2.92650e-12      128.883
       835.10000  2.92650e-12      128.942
       835.20000  2.92650e-12      129.030
       835.30000  2.92650e-12      129.088
       835.40000  2.92650e-12      129.147
       835.50000  3.02515e-12      133.560
       835.60000  3.02515e-12      133.621
       835.70000  3.02515e-12      133.651
       835.80000  3.02515e-12      133.712
       835.90000  3.02515e-12      133.742
       836.00000  3.02515e-12      133.772
       836.10000  3.02515e-12      133.712
       836.20000  3.02515e-12      133.681
       836.30000  3.02378e-12      133.560
       836.40000  3.02378e-12      133.530
       836.50000  5.23057e-12      230.930
       836.60000  5.23057e-12      230.825
       836.70000  5.23057e-12      230.773
       836.80000  5.23057e-12      230.721
       836.90000  5.23057e-12      230.616
       837.00000  5.23057e-12      230.564
       837.10000  5.23057e-12      230.511
       837.20000  5.23057e-12      230.459
       837.30000  5.23057e-12      230.407
       837.40000  5.23057e-12      230.354
       837.50000  5.79726e-12      255.254
       837.60000  5.79726e-12      255.196
       837.70000  5.79726e-12      255.138
       837.80000  5.79726e-12      255.080
       837.90000  5.79726e-12      255.080
       838.00000  5.79726e-12      255.022
       838.10000  5.79726e-12      254.964
       838.20000  5.79726e-12      254.964
       838.30000  5.79726e-12      254.964
       838.40000  5.79726e-12      254.964
       838.50000  3.18691e-12      140.129
       838.60000  3.18691e-12      140.129
       838.70000  3.18691e-12      140.129
       838.80000  3.17728e-12      139.673
       838.90000  3.17728e-12      139.673
       839.00000  3.17728e-12      139.673
       839.10000  3.17728e-12      139.641
       839.20000  3.17728e-12      139.641
       839.30000  3.17728e-12      139.641
       839.40000  3.17728e-12      139.610
       839.50000  6.53527e-12      287.160
       839.60000  6.53527e-12      287.160
       839.70000  6.53527e-12      287.095
       839.80000  6.53527e-12      287.095
       839.90000  6.53527e-12      287.095
       840.00000  6.53527e-12      287.029
       840.10000  6.53527e-12      287.029
       840.20000  6.53527e-12      287.029
       840.30000  6.53527e-12      286.964
       840.40000  6.53527e-12      286.964
       840.50000  3.49778e-12      153.587
       840.60000  3.49778e-12      153.552
       840.70000  3.49778e-12      153.552
       840.80000  3.49778e-12      153.552
       840.90000  3.49778e-12      153.517
       841.00000  3.49778e-12      153.517
       841.10000  3.49778e-12      153.517
       841.20000  3.49778e-12      153.517
       841.30000  3.49759e-12      153.474
       841.40000  3.49759e-12      153.474
       841.50000  4.20338e-12      184.444
       841.60000  4.20338e-12      184.402
       841.70000  4.20338e-12      184.402
       841.80000  4.20338e-12      184.402
       841.90000  4.20338e-12      184.360
       842.00000  4.20338e-12      184.360
       842.10000  4.20338e-12      184.192
       842.20000  4.20338e-12      184.066
       842.30000  4.20338e-12      183.940
       842.40000  4.20338e-12      183.772
       842.50000  2.82358e-12      123.362
       842.60000  2.82358e-12      123.306
       842.70000  2.82358e-12      123.221
       842.80000  2.82358e-12      123.165
       842.90000  2.82358e-12      123.080
       843.00000  2.82358e-12      123.024
       843.10000  2.82358e-12      122.967
       843.20000  2.82358e-12      122.911
       843.30000  2.82358e-12      122.882
       843.40000  2.82358e-12      122.826
       843.50000  3.65939e-12      159.147
       843.60000  3.65939e-12      159.110
       843.70000  3.65939e-12      159.074
       843.80000  3.66467e-12      159.266
       843.90000  3.66467e-12      159.266
       844.00000  3.66467e-12      159.230
       844.10000  3.66467e-12      159.340
       844.20000  3.66467e-12      159.413
       844.30000  3.66467e-12      159.486
       844.40000  3.66467e-12      159.560
       844.50000  1.06675e-12      46.4674
       844.60000  1.06675e-12      46.4888
       844.70000  1.06675e-12      46.4994
       844.80000  1.06675e-12      46.5208
       844.90000  1.06675e-12      46.5314
       845.00000  1.06675e-12      46.5528
       845.10000  1.06675e-12      46.5634
       845.20000  1.06675e-12      46.5741
       845.30000  1.06675e-12      46.5955
       845.40000  1.06675e-12      46.6061
       845.50000  2.36036e-12      103.124
       845.60000  2.36036e-12      103.148
       845.70000  2.36036e-12      103.172
       845.80000  2.36036e-12      103.195
       845.90000  2.36036e-12      103.195
       846.00000  2.36036e-12      103.219
       846.10000  2.36036e-12      103.219
       846.20000  2.36036e-12      103.219
       846.30000  2.36658e-12      103.490
       846.40000  2.36658e-12      103.514
       846.50000  3.46205e-12      151.430
       846.60000  3.46205e-12      151.396
       846.70000  3.46205e-12      151.396
       846.80000  3.46205e-12      151.396
       846.90000  3.46205e-12      151.361
       847.00000  3.46205e-12      151.361
       847.10000  3.46205e-12      151.326
       847.20000  3.46205e-12      151.326
       847.30000  3.46205e-12      151.292
       847.40000  3.46205e-12      151.257
       847.50000  3.77210e-12      164.766
       847.60000  3.77210e-12      164.728
       847.70000  3.77210e-12      164.690
       847.80000  3.77210e-12      164.652
       847.90000  3.77210e-12      164.577
       848.00000  3.77210e-12      164.539
       848.10000  3.77210e-12      163.747
       848.20000  3.77210e-12      163.030
       848.30000  3.77210e-12      162.314
       848.40000  3.77210e-12      161.635
       848.50000  4.88365e-13      20.8434
       848.60000  4.88365e-13      20.7702
       848.70000  4.88365e-13      20.6969
       848.80000  4.90229e-13      20.7073
       848.90000  4.90229e-13      20.6436
       849.00000  4.90229e-13      20.5847
       849.10000  4.90229e-13      20.5259
       849.20000  4.90229e-13      20.4769
       849.30000  4.90229e-13      20.4328
       849.40000  4.90229e-13      20.3886
       849.50000  1.06209e-10      4409.82
       849.60000  1.06209e-10      4402.38
       849.70000  1.06209e-10      4397.07
       849.80000  1.06209e-10      4391.76
       849.90000  1.06209e-10      4387.51
       850.00000  1.06209e-10      4384.33
       850.10000  1.06209e-10      4407.69
       850.20000  1.06209e-10      4430.00
       850.30000  1.06209e-10      4450.18
       850.40000  1.06209e-10      4468.23
       850.50000  1.24633e-10      5263.24
       850.60000  1.24633e-10      5280.69
       850.70000  1.24633e-10      5295.64
       850.80000  1.24633e-10      5309.35
       850.90000  1.24633e-10      5320.57
       851.00000  1.24633e-10      5330.54
       851.10000  1.24633e-10      5338.02
       851.20000  1.24633e-10      5344.25
       851.30000  1.24765e-10      5353.65
       851.40000  1.24765e-10      5354.90
       851.50000  9.64947e-11      4141.55
       851.60000  9.64947e-11      4139.62
       851.70000  9.64947e-11      4136.73
       851.80000  9.64947e-11      4131.91
       851.90000  9.64947e-11      4125.15
       852.00000  9.64947e-11      4117.43
       852.10000  9.64947e-11      4107.78
       852.20000  9.64947e-11      4097.17
       852.30000  9.64947e-11      4084.62
       852.40000  9.64947e-11      4071.11
       852.50000  7.66076e-11      3219.05
       852.60000  7.66076e-11      3206.03
       852.70000  7.66076e-11      3190.71
       852.80000  7.66076e-11      3175.39
       852.90000  7.66076e-11      3157.77
       853.00000  7.66076e-11      3139.38
       853.10000  7.66076e-11      3119.46
       853.20000  7.66076e-11      3098.78
       853.30000  7.66076e-11      3076.56
       853.40000  7.66076e-11      3053.58
       853.50000  6.08181e-11      2404.75
       853.60000  6.08181e-11      2384.07
       853.70000  6.08181e-11      2362.79
       853.80000  6.08994e-11      2343.41
       853.90000  6.08994e-11      2320.27
       854.00000  6.08994e-11      2295.91
       854.10000  6.08994e-11      2312.96
       854.20000  6.08994e-11      2330.01
       854.30000  6.08994e-11      2346.45
       854.40000  6.08994e-11      2362.29
       854.50000  1.01971e-10      3980.97
       854.60000  1.01971e-10      4006.46
       854.70000  1.01971e-10      4030.93
       854.80000  1.01971e-10      4054.39
       854.90000  1.01971e-10      4077.84
       855.00000  1.01971e-10      4100.27
       855.10000  1.01971e-10      4121.69
       855.20000  1.01971e-10      4142.08
       855.30000  1.01971e-10      4162.48
       855.40000  1.01971e-10      4180.83
       855.50000  7.80798e-11      3216.11
       855.60000  7.80798e-11      3229.38
       855.70000  7.80798e-11      3242.65
       855.80000  7.80798e-11      3255.15
       855.90000  7.80798e-11      3266.86
       856.00000  7.80798e-11      3277.79
       856.10000  7.80798e-11      3286.38
       856.20000  7.80798e-11      3294.19
       856.30000  7.81675e-11      3305.70
       856.40000  7.81675e-11      3313.52
       856.50000  1.15264e-10      4896.43
       856.60000  1.15264e-10      4906.81
       856.70000  1.15264e-10      4916.03
       856.80000  1.15264e-10      4925.25
       856.90000  1.15264e-10      4933.32
       857.00000  1.15264e-10      4941.39
       857.10000  1.15264e-10      4949.45
       857.20000  1.15264e-10      4956.37
       857.30000  1.15264e-10      4963.29
       857.40000  1.15264e-10      4969.05
       857.50000  6.27769e-11      2709.45
       857.60000  6.27769e-11      2712.59
       857.70000  6.27769e-11      2715.10
       857.80000  6.27769e-11      2717.61
       857.90000  6.27769e-11      2719.49
       858.00000  6.27769e-11      2722.01
       858.10000  6.27769e-11      2723.26
       858.20000  6.27769e-11      2724.52
       858.30000  6.27769e-11      2725.77
       858.40000  6.27769e-11      2726.40
       858.50000  1.02574e-10      4455.81
       858.60000  1.02574e-10      4456.83
       858.70000  1.02574e-10      4456.83
       858.80000  1.02884e-10      4470.32
       858.90000  1.02884e-10      4469.29
       859.00000  1.02884e-10      4468.26
       859.10000  1.02884e-10      4467.23
       859.20000  1.02884e-10      4465.18
       859.30000  1.02884e-10      4463.12
       859.40000  1.02884e-10      4460.03
       859.50000  2.87866e-11      1247.03
       859.60000  2.87866e-11      1246.17
       859.70000  2.87866e-11      1245.02
       859.80000  2.87866e-11      1243.58
       859.90000  2.87866e-11      1242.43
       860.00000  2.87866e-11      1240.99
       860.10000  2.87866e-11      1240.70
       860.20000  2.87866e-11      1240.41
       860.30000  2.87866e-11      1240.41
       860.40000  2.87866e-11      1240.41
       860.50000  9.72067e-11      4187.66
       860.60000  9.72067e-11      4187.66
       860.70000  9.72067e-11      4187.66
       860.80000  9.72067e-11      4187.66
       860.90000  9.72067e-11      4187.66
       861.00000  9.72067e-11      4187.66
       861.10000  9.72067e-11      4187.66
       861.20000  9.72067e-11      4187.66
       861.30000  9.75262e-11      4201.43
       861.40000  9.75262e-11      4202.40
       861.50000  1.29517e-10      5580.89
       861.60000  1.29517e-10      5580.89
       861.70000  1.29517e-10      5582.19
       861.80000  1.29517e-10      5583.48
       861.90000  1.29517e-10      5583.48
       862.00000  1.29517e-10      5584.78
       862.10000  1.29517e-10      5602.91
       862.20000  1.29517e-10      5618.45
       862.30000  1.29517e-10      5632.70
       862.40000  1.29517e-10      5645.65
       862.50000  1.24888e-10      5453.85
       862.60000  1.24888e-10      5462.59
       862.70000  1.24888e-10      5470.09
       862.80000  1.24888e-10      5476.33
       862.90000  1.24888e-10      5480.08
       863.00000  1.24888e-10      5482.58
       863.10000  1.24888e-10      5483.83
       863.20000  1.24888e-10      5483.83
       863.30000  1.24888e-10      5481.33
       863.40000  1.24888e-10      5477.58
       863.50000  6.84103e-11      2997.74
       863.60000  6.84103e-11      2993.63
       863.70000  6.84103e-11      2988.84
       863.80000  6.86016e-11      2991.72
       863.90000  6.86016e-11      2985.54
       864.00000  6.86016e-11      2978.00
       864.10000  6.86016e-11      2969.76
       864.20000  6.86016e-11      2960.85
       864.30000  6.86016e-11      2950.56
       864.40000  6.86016e-11      2940.27
       864.50000  5.27805e-11      2252.67
       864.60000  5.27805e-11      2243.17
       864.70000  5.27805e-11      2232.62
       864.80000  5.27805e-11      2222.06
       864.90000  5.27805e-11      2209.92
       865.00000  5.27805e-11      2197.78
       865.10000  5.27805e-11      2184.59
       865.20000  5.27805e-11      2170.86
       865.30000  5.27805e-11      2156.61
       865.40000  5.27805e-11      2141.31
       865.50000  5.58246e-11      2248.06
       865.60000  5.58246e-11      2230.75
       865.70000  5.58246e-11      2212.89
       865.80000  5.58246e-11      2193.91
       865.90000  5.58246e-11      2174.37
       866.00000  5.58246e-11      2154.27
       866.10000  5.58246e-11      2162.09
       866.20000  5.58246e-11      2169.34
       866.30000  5.59896e-11      2183.60
       866.40000  5.59896e-11      2190.87
       866.50000  6.93901e-11      2724.26
       866.60000  6.93901e-11      2733.28
       866.70000  6.93901e-11      2742.30
       866.80000  6.93901e-11      2751.32
       866.90000  6.93901e-11      2759.65
       867.00000  6.93901e-11      2767.97
       867.10000  6.93901e-11      2776.30
       867.20000  6.93901e-11      2784.63
       867.30000  6.93901e-11      2792.95
       867.40000  6.93901e-11      2800.59
       867.50000  1.00904e-10      4083.58
       867.60000  1.00904e-10      4094.68
       867.70000  1.00904e-10      4105.78
       867.80000  1.00904e-10      4116.88
       867.90000  1.00904e-10      4126.97
       868.00000  1.00904e-10      4137.06
       868.10000  1.00904e-10      4148.16
       868.20000  1.00904e-10      4159.26
       868.30000  1.00904e-10      4169.35
       868.40000  1.00904e-10      4179.44
       868.50000  4.54665e-11      1887.77
       868.60000  4.54665e-11      1891.86
       868.70000  4.54665e-11      1896.41
       868.80000  4.55804e-11      1904.81
       868.90000  4.55804e-11      1908.91
       869.00000  4.55804e-11      1912.55
       869.10000  4.55804e-11      1916.20
       869.20000  4.55804e-11      1919.85
       869.30000  4.55804e-11      1923.49
       869.40000  4.55804e-11      1926.68
       869.50000  3.38867e-11      1434.76
       869.60000  3.38867e-11      1436.80
       869.70000  3.38867e-11      1438.83
       869.80000  3.38867e-11      1440.86
       869.90000  3.38867e-11      1442.90
       870.00000  3.38867e-11      1444.93
       870.10000  3.38867e-11      1446.62
       870.20000  3.38867e-11      1448.32
       870.30000  3.38867e-11      1449.67
       870.40000  3.38867e-11      1451.03
       870.50000  8.95661e-12      383.880
       870.60000  8.95661e-12      384.239
       870.70000  8.95661e-12      384.507
       870.80000  8.95661e-12      384.866
       870.90000  8.95661e-12      385.045
       871.00000  8.95661e-12      385.314
       871.10000  8.95661e-12      385.493
       871.20000  8.95661e-12      385.672
       871.30000  9.00869e-12      388.094
       871.40000  9.00869e-12      388.184
       871.50000  6.25004e-11      2693.77
       871.60000  6.25004e-11      2694.39
       871.70000  6.25004e-11      2694.39
       871.80000  6.25004e-11      2695.02
       871.90000  6.25004e-11      2694.39
       872.00000  6.25004e-11      2694.39
       872.10000  6.25004e-11      2692.52
       872.20000  6.25004e-11      2691.27
       872.30000  6.25004e-11      2689.39
       872.40000  6.25004e-11      2688.14
       872.50000  2.65460e-11      1140.95
       872.60000  2.65460e-11      1140.42
       872.70000  2.65460e-11      1139.88
       872.80000  2.65460e-11      1139.35
       872.90000  2.65460e-11      1138.56
       873.00000  2.65460e-11      1138.03
       873.10000  2.65460e-11      1137.50
       873.20000  2.65460e-11      1136.96
       873.30000  2.65460e-11      1136.43
       873.40000  2.65460e-11      1135.90
       873.50000  4.38417e-12      187.511
       873.60000  4.38417e-12      187.423
       873.70000  4.38417e-12      187.336
       873.80000  4.40733e-12      188.281
       873.90000  4.40733e-12      188.193
       874.00000  4.40733e-12      188.105
       877.00000  7.54181e-11      3216.58
       877.10000  7.54181e-11      3218.84
       877.20000  7.54181e-11      3221.11
       877.30000  7.54181e-11      3223.37
       877.40000  7.54181e-11      3226.39
       877.50000  1.53693e-10      6581.14
       877.60000  1.53693e-10      6587.29
       877.70000  1.53693e-10      6593.44
       877.80000  1.53693e-10      6599.58
       877.90000  1.53693e-10      6607.27
       878.00000  1.53693e-10      6614.95
       878.10000  1.53693e-10      6605.73
       878.20000  1.53693e-10      6598.05
       878.30000  1.53693e-10      6590.36
       878.40000  1.53693e-10      6582.68
       878.50000  5.07407e-11      2170.69
       878.60000  5.07407e-11      2168.66
       878.70000  5.07407e-11      2166.12
       878.80000  5.09684e-11      2173.80
       878.90000  5.09684e-11      2171.76
       879.00000  5.09684e-11      2169.72
       883.00000  3.90396e-11      1659.96
       883.10000  3.90396e-11      1660.74
       883.20000  3.90396e-11      1661.53
       883.30000  3.90396e-11      1661.92
       883.40000  3.90396e-11      1662.31
       883.50000  8.74788e-11      3725.72
       883.60000  8.74788e-11      3725.72
       883.70000  8.74788e-11      3725.72
       883.80000  8.77975e-11      3739.29
       883.90000  8.77975e-11      3738.42
       884.00000  8.77975e-11      3737.54
       886.00000  1.90066e-10      7944.78
       888.00000  1.06098e-10      4473.10
       890.00000  2.20224e-10      9390.36
       890.10000  2.20224e-10      9383.75
       890.20000  2.20224e-10      9377.15
       890.30000  2.20224e-10      9370.54
       890.40000  2.20224e-10      9363.93
       890.50000  3.01992e-10      12831.6
       890.60000  3.01992e-10      12822.6
       890.70000  3.01992e-10      12813.5
       890.80000  3.01992e-10      12804.5
       890.90000  3.01992e-10      12795.4
       891.00000  3.01992e-10      12789.4
       893.00000  4.50893e-11      1893.75
       899.00000  5.97196e-11      2501.06
       899.10000  5.97196e-11      2498.67
       899.20000  5.97196e-11      2496.28
       899.30000  5.97196e-11      2493.89
       899.40000  5.97196e-11      2491.50
       899.50000  3.79628e-10      15822.9
       899.60000  3.79628e-10      15803.9
       899.70000  3.79628e-10      15788.7
       899.80000  3.79628e-10      15769.8
       899.90000  3.79628e-10      15750.8
       900.00000  3.79628e-10      15731.8
       900.10000  3.79628e-10      15686.2
       900.20000  3.79628e-10      15648.3
       900.30000  3.79628e-10      15606.5
       900.40000  3.79628e-10      15572.3
       900.50000  4.37960e-10      17925.7
       900.60000  4.37960e-10      17890.7
       900.70000  4.37960e-10      17855.6
       900.80000  4.37960e-10      17829.4
       900.90000  4.37960e-10      17803.1
       901.00000  4.37960e-10      17776.8
       901.10000  4.37960e-10      17759.3
       901.20000  4.37960e-10      17741.8
       901.30000  4.39744e-10      17796.4
       901.40000  4.39744e-10      17787.7
       901.50000  3.82945e-10      15482.4
       901.60000  3.82945e-10      15478.6
       901.70000  3.82945e-10      15474.8
       901.80000  3.82945e-10      15474.8
       901.90000  3.82945e-10      15478.6
       902.00000  3.82945e-10      15486.3
       902.10000  3.82945e-10      15539.9
       902.20000  3.82945e-10      15589.7
       902.30000  3.82945e-10      15639.5
       902.40000  3.82945e-10      15685.4
       902.50000  3.55689e-10      14611.7
       902.60000  3.55689e-10      14650.8
       902.70000  3.55689e-10      14690.0
       902.80000  3.55689e-10      14725.5
       902.90000  3.55689e-10      14761.1
       903.00000  3.55689e-10      14793.1
       903.10000  3.55689e-10      14825.1
       903.20000  3.55689e-10      14853.6
       903.30000  3.55689e-10      14878.5
       903.40000  3.55689e-10      14903.4
       903.50000  3.63019e-10      15232.3
       903.60000  3.63019e-10      15254.0
       903.70000  3.63019e-10      15275.8
       903.80000  3.64942e-10      15371.3
       903.90000  3.64942e-10      15389.6
       904.00000  3.64942e-10      15400.5
       904.10000  3.64942e-10      15411.5
       904.20000  3.64942e-10      15422.4
       904.30000  3.64942e-10      15429.7
       904.40000  3.64942e-10      15433.4
       904.50000  4.15677e-10      17583.1
       904.60000  4.15677e-10      17587.3
       904.70000  4.15677e-10      17587.3
       904.80000  4.15677e-10      17583.1
       904.90000  4.15677e-10      17579.0
       905.00000  4.15677e-10      17570.7
       905.10000  4.15677e-10      17562.3
       905.20000  4.15677e-10      17549.9
       905.30000  4.15677e-10      17537.4
       905.40000  4.15677e-10      17520.8
       905.50000  3.71759e-10      15651.1
       905.60000  3.71759e-10      15632.5
       905.70000  3.71759e-10      15613.9
       905.80000  3.71759e-10      15591.6
       905.90000  3.71759e-10      15565.5
       906.00000  3.71759e-10      15539.5
       906.10000  3.71759e-10      15524.7
       906.20000  3.71759e-10      15513.5
       906.30000  3.73474e-10      15573.9
       906.40000  3.73474e-10      15558.9
       906.50000  4.15527e-10      17298.4
       906.60000  4.15527e-10      17285.9
       906.70000  4.15527e-10      17273.4
       906.80000  4.15527e-10      17261.0
       906.90000  4.15527e-10      17248.5
       907.00000  4.15527e-10      17236.0
       907.10000  4.15527e-10      17223.6
       907.20000  4.15527e-10      17211.1
       907.30000  4.15527e-10      17198.6
       907.40000  4.15527e-10      17186.2
       907.50000  2.42251e-10      10012.3
       907.60000  2.42251e-10      10007.4
       907.70000  2.42251e-10      10000.1
       907.80000  2.42251e-10      9992.87
       907.90000  2.42251e-10      9988.03
       908.00000  2.42251e-10      9980.76
       908.10000  2.42251e-10      9971.07
       908.20000  2.42251e-10      9963.80
       908.30000  2.42251e-10      9954.11
       908.40000  2.42251e-10      9946.85
       908.50000  3.10816e-10      12752.8
       908.60000  3.10816e-10      12743.5
       908.70000  3.10816e-10      12737.2
       908.80000  3.11885e-10      12771.7
       908.90000  3.11885e-10      12765.4
       909.00000  3.11885e-10      12759.2
       909.10000  3.11885e-10      12753.0
       909.20000  3.11885e-10      12746.7
       909.30000  3.11885e-10      12740.5
       909.40000  3.11885e-10      12737.4
       909.50000  2.38511e-10      9738.40
       909.60000  2.38511e-10      9736.01
       909.70000  2.38511e-10      9733.63
       909.80000  2.38511e-10      9731.25
       909.90000  2.38511e-10      9731.25
       910.00000  2.38511e-10      9728.86
       910.10000  2.38511e-10      9728.86
       910.20000  2.38511e-10      9728.86
       910.30000  2.38511e-10      9731.25
       910.40000  2.38511e-10      9731.25
       910.50000  3.20269e-10      13070.2
       910.60000  3.20269e-10      13070.2
       910.70000  3.20269e-10      13073.4
       910.80000  3.20269e-10      13079.8
       910.90000  3.20269e-10      13083.0
       911.00000  3.20269e-10      13086.2
       911.10000  3.20269e-10      13092.6
       911.20000  3.20269e-10      13099.0
       911.30000  3.20566e-10      13117.6
       911.40000  3.20566e-10      13124.0
       911.50000  2.35257e-10      9638.49
       911.60000  2.35257e-10      9643.19
       911.70000  2.35257e-10      9650.25
       911.80000  2.35257e-10      9657.31
       911.90000  2.35257e-10      9664.37
       912.00000  2.35257e-10      9673.78
       912.10000  2.35257e-10      9685.54
       912.20000  2.35257e-10      9694.95
       912.30000  2.35257e-10      9704.36
       912.40000  2.35257e-10      9713.77
       912.50000  2.00178e-10      8273.36
       912.60000  2.00178e-10      8281.37
       912.70000  2.00178e-10      8289.38
       912.80000  2.00178e-10      8295.38
       912.90000  2.00178e-10      8301.39
       913.00000  2.00178e-10      8307.39
       913.10000  2.00178e-10      8313.40
       913.20000  2.00178e-10      8317.40
       913.30000  2.00178e-10      8323.41
       913.40000  2.00178e-10      8327.41
       913.50000  2.48596e-10      10346.6
       913.60000  2.48596e-10      10351.5
       913.70000  2.48596e-10      10354.0
       913.80000  2.49922e-10      10411.8
       913.90000  2.49922e-10      10416.8
       914.00000  2.49922e-10      10419.3
       914.10000  2.49922e-10      10414.3
       914.20000  2.49922e-10      10411.8
       914.30000  2.49922e-10      10409.3
       914.40000  2.49922e-10      10406.8
       914.50000  2.68237e-10      11166.7
       914.60000  2.68237e-10      11161.3
       914.70000  2.68237e-10      11158.7
       914.80000  2.68237e-10      11156.0
       914.90000  2.68237e-10      11153.3
       915.00000  2.68237e-10      11150.6
       915.10000  2.68237e-10      11147.9
       915.20000  2.68237e-10      11145.2
       915.30000  2.68237e-10      11142.6
       915.40000  2.68237e-10      11139.9
       915.50000  1.83873e-10      7634.39
       915.60000  1.83873e-10      7632.55
       915.70000  1.83873e-10      7630.71
       915.80000  1.83873e-10      7628.88
       915.90000  1.83873e-10      7627.04
       916.00000  1.83873e-10      7625.20
       916.10000  1.83873e-10      7623.36
       916.20000  1.83873e-10      7621.52
       916.30000  1.85184e-10      7674.04
       916.40000  1.85184e-10      7672.19
       916.50000  2.38164e-10      9864.75
       916.60000  2.38164e-10      9864.75
       916.70000  2.38164e-10      9862.37
       916.80000  2.38164e-10      9859.98
       916.90000  2.38164e-10      9857.60
       917.00000  2.38164e-10      9855.22
       917.10000  2.38164e-10      9855.22
       917.20000  2.38164e-10      9852.84
       917.30000  2.38164e-10      9850.46
       917.40000  2.38164e-10      9848.08
       917.50000  2.34524e-10      9697.58
       917.60000  2.34524e-10      9695.24
       917.70000  2.34524e-10      9692.89
       917.80000  2.34524e-10      9692.89
       917.90000  2.34524e-10      9690.55
       918.00000  2.34524e-10      9688.20
       918.10000  2.34524e-10      9692.89
       918.20000  2.34524e-10      9697.58
       918.30000  2.34524e-10      9702.27
       918.40000  2.34524e-10      9704.62
       918.50000  2.12267e-10      8785.74
       918.60000  2.12267e-10      8787.86
       918.70000  2.12267e-10      8787.86
       918.80000  2.14242e-10      8869.63
       918.90000  2.14242e-10      8869.63
       919.00000  2.14242e-10      8869.63
       919.10000  2.14242e-10      8867.48
       919.20000  2.14242e-10      8865.34
       919.30000  2.14242e-10      8863.20
       919.40000  2.14242e-10      8858.91
       919.50000  1.17241e-10      4845.58
       919.60000  1.17241e-10      4843.23
       919.70000  1.17241e-10      4840.89
       919.80000  1.17241e-10      4837.37
       919.90000  1.17241e-10      4835.03
       920.00000  1.17241e-10      4831.51
       920.10000  1.17241e-10      4820.96
       920.20000  1.17241e-10      4811.58
       920.30000  1.17241e-10      4802.20
       920.40000  1.17241e-10      4792.82
       920.50000  2.00623e-10      8185.42
       920.60000  2.00623e-10      8171.38
       920.70000  2.00623e-10      8157.33
       920.80000  2.00623e-10      8145.29
       920.90000  2.00623e-10      8131.25
       921.00000  2.00623e-10      8119.21
       921.10000  2.00623e-10      8107.18
       921.20000  2.00623e-10      8097.14
       921.30000  2.01452e-10      8118.53
       921.40000  2.01452e-10      8108.46
       921.50000  1.78931e-10      7193.03
       921.60000  1.78931e-10      7185.88
       921.70000  1.78931e-10      7178.72
       921.80000  1.78931e-10      7171.56
       921.90000  1.78931e-10      7164.40
       922.00000  1.78931e-10      7159.04
       922.10000  1.78931e-10      7151.88
       922.20000  1.78931e-10      7148.30
       922.30000  1.78931e-10      7142.93
       922.40000  1.78931e-10      7139.35
       922.50000  2.35918e-10      9406.05
       922.60000  2.35918e-10      9403.69
       922.70000  2.35918e-10      9398.97
       922.80000  2.35918e-10      9396.61
       922.90000  2.35918e-10      9394.25
       923.00000  2.35918e-10      9391.89
       923.10000  2.35918e-10      9391.89
       923.20000  2.35918e-10      9389.53
       923.30000  2.35918e-10      9389.53
       923.40000  2.35918e-10      9391.89
       923.50000  1.93232e-10      7692.58
       923.60000  1.93232e-10      7694.51
       923.70000  1.93232e-10      7696.44
       923.80000  1.93670e-10      7717.77
       923.90000  1.93670e-10      7719.70
       924.00000  1.93670e-10      7723.58
       924.10000  1.93670e-10      7723.58
       924.20000  1.93670e-10      7723.58
       924.30000  1.93670e-10      7723.58
       924.40000  1.93670e-10      7723.58
       924.50000  1.54845e-10      6175.20
       924.60000  1.54845e-10      6175.20
       924.70000  1.54845e-10      6176.75
       924.80000  1.54845e-10      6178.30
       924.90000  1.54845e-10      6178.30
       925.00000  1.54845e-10      6179.84
       925.10000  1.54845e-10      6182.94
       925.20000  1.54845e-10      6184.49
       925.30000  1.54845e-10      6186.04
       925.40000  1.54845e-10      6189.14
       925.50000  1.32844e-10      5312.43
       925.60000  1.32844e-10      5315.08
       925.70000  1.32844e-10      5317.74
       925.80000  1.32844e-10      5320.40
       925.90000  1.32844e-10      5323.05
       926.00000  1.32844e-10      5327.04
       926.10000  1.32844e-10      5335.01
       926.20000  1.32844e-10      5344.31
       926.30000  1.33395e-10      5374.48
       926.40000  1.33395e-10      5382.48
       926.50000  1.48420e-10      5997.65
       926.60000  1.48420e-10      6005.07
       926.70000  1.48420e-10      6012.49
       926.80000  1.48420e-10      6019.91
       926.90000  1.48420e-10      6027.33
       927.00000  1.48420e-10      6033.27
       927.10000  1.48420e-10      6039.20
       927.20000  1.48420e-10      6045.14
       927.30000  1.48420e-10      6049.59
       927.40000  1.48420e-10      6054.04
       927.50000  1.59184e-10      6497.89
       927.60000  1.59184e-10      6501.08
       927.70000  1.59184e-10      6505.85
       927.80000  1.59184e-10      6509.04
       927.90000  1.59184e-10      6510.63
       928.00000  1.59184e-10      6512.22
       928.10000  1.59184e-10      6509.04
       928.20000  1.59184e-10      6505.85
       928.30000  1.59184e-10      6501.08
       928.40000  1.59184e-10      6497.89
       928.50000  1.42551e-10      5816.09
       928.60000  1.42551e-10      5813.24
       928.70000  1.42551e-10      5810.39
       928.80000  1.43214e-10      5834.52
       928.90000  1.43214e-10      5831.66
       929.00000  1.43214e-10      5830.23
       929.10000  1.43214e-10      5827.36
       929.20000  1.43214e-10      5824.50
       929.30000  1.43214e-10      5823.06
       929.40000  1.43214e-10      5820.20
       929.50000  1.82363e-10      7409.41
       929.60000  1.82363e-10      7407.58
       929.70000  1.82363e-10      7403.94
       929.80000  1.82363e-10      7402.11
       929.90000  1.82363e-10      7400.29
       930.00000  1.82363e-10      7398.46
       930.10000  1.82363e-10      7398.46
       930.20000  1.82363e-10      7398.46
       930.30000  1.82363e-10      7396.64
       930.40000  1.82363e-10      7396.64
       930.50000  1.63285e-10      6622.83
       930.60000  1.63285e-10      6622.83
       930.70000  1.63285e-10      6621.19
       930.80000  1.63285e-10      6621.19
       930.90000  1.63285e-10      6621.19
       931.00000  1.63285e-10      6621.19
       931.10000  1.63285e-10      6621.19
       931.20000  1.63285e-10      6619.56
       931.30000  1.64021e-10      6649.40
       931.40000  1.64021e-10      6649.40
       931.50000  1.47978e-10      5999.04
       931.60000  1.47978e-10      5999.04
       931.70000  1.47978e-10      5999.04
       931.80000  1.47978e-10      5999.04
       931.90000  1.47978e-10      5999.04
       932.00000  1.47978e-10      5999.04
       932.10000  1.47978e-10      5999.04
       932.20000  1.47978e-10      5999.04
       932.30000  1.47978e-10      5999.04
       932.40000  1.47978e-10      5999.04
       932.50000  1.25850e-10      5101.97
       932.60000  1.25850e-10      5101.97
       932.70000  1.25850e-10      5101.97
       932.80000  1.25850e-10      5103.23
       932.90000  1.25850e-10      5103.23
       933.00000  1.25850e-10      5103.23
       933.10000  1.25850e-10      5103.23
       933.20000  1.25850e-10      5103.23
       933.30000  1.25850e-10      5104.49
       933.40000  1.25850e-10      5104.49
       933.50000  1.35551e-10      5497.93
       933.60000  1.35551e-10      5499.29
       933.70000  1.35551e-10      5499.29
       933.80000  1.36062e-10      5520.02
       933.90000  1.36062e-10      5521.38
       934.00000  1.36062e-10      5521.38
       934.10000  1.36062e-10      5517.30
       934.20000  1.36062e-10      5513.22
       934.30000  1.36062e-10      5509.14
       934.40000  1.36062e-10      5505.06
       934.50000  1.55622e-10      6291.78
       934.60000  1.55622e-10      6288.67
       934.70000  1.55622e-10      6285.56
       934.80000  1.55622e-10      6280.89
       934.90000  1.55622e-10      6277.78
       935.00000  1.55622e-10      6276.22
       935.10000  1.55622e-10      6273.11
       935.20000  1.55622e-10      6270.00
       935.30000  1.55622e-10      6268.44
       935.40000  1.55622e-10      6266.88
       935.50000  1.51035e-10      6080.66
       935.60000  1.51035e-10      6079.15
       935.70000  1.51035e-10      6077.64
       935.80000  1.51035e-10      6076.13
       935.90000  1.51035e-10      6076.13
       936.00000  1.51035e-10      6074.62
       936.10000  1.51035e-10      6079.15
       936.20000  1.51035e-10      6083.68
       936.30000  1.51560e-10      6109.40
       936.40000  1.51560e-10      6113.94
       936.50000  1.34148e-10      5414.21
       936.60000  1.34148e-10      5416.90
       936.70000  1.34148e-10      5419.58
       936.80000  1.34148e-10      5422.26
       936.90000  1.34148e-10      5423.60
       937.00000  1.34148e-10      5426.29
       937.10000  1.34148e-10      5427.63
       937.20000  1.34148e-10      5428.97
       937.30000  1.34148e-10      5428.97
       937.40000  1.34148e-10      5430.31
       937.50000  1.14356e-10      4629.14
       937.60000  1.14356e-10      4629.14
       937.70000  1.14356e-10      4629.14
       937.80000  1.14356e-10      4629.14
       937.90000  1.14356e-10      4628.00
       938.00000  1.14356e-10      4628.00
       938.10000  1.14356e-10      4626.85
       938.20000  1.14356e-10      4624.57
       938.30000  1.14356e-10      4623.42
       938.40000  1.14356e-10      4621.14
       938.50000  1.80384e-10      7287.52
       938.60000  1.80384e-10      7283.91
       938.70000  1.80384e-10      7278.50
       938.80000  1.80890e-10      7295.30
       938.90000  1.80890e-10      7289.88
       939.00000  1.80890e-10      7286.26
       939.10000  1.80890e-10      7280.83
       939.20000  1.80890e-10      7273.60
       939.30000  1.80890e-10      7268.17
       939.40000  1.80890e-10      7260.93
       939.50000  1.07410e-10      4307.16
       939.60000  1.07410e-10      4302.86
       939.70000  1.07410e-10      4298.57
       939.80000  1.07410e-10      4294.27
       939.90000  1.07410e-10      4288.90
       940.00000  1.07410e-10      4283.53
       940.10000  1.07410e-10      4276.01
       940.20000  1.07410e-10      4268.49
       940.30000  1.07410e-10      4262.05
       940.40000  1.07410e-10      4255.60
       940.50000  9.33843e-11      3694.28
       940.60000  9.33843e-11      3689.61
       940.70000  9.33843e-11      3684.94
       940.80000  9.33843e-11      3680.27
       940.90000  9.33843e-11      3675.61
       941.00000  9.33843e-11      3671.87
       941.10000  9.33843e-11      3668.13
       941.20000  9.33843e-11      3665.33
       941.30000  9.35045e-11      3667.25
       941.40000  9.35045e-11      3664.44
       941.50000  1.07409e-10      4206.15
       941.60000  1.07409e-10      4204.00
       941.70000  1.07409e-10      4201.85
       941.80000  1.07409e-10      4199.71
       941.90000  1.07409e-10      4197.56
       942.00000  1.07409e-10      4196.48
       942.10000  1.07409e-10      4199.71
       942.20000  1.07409e-10      4201.85
       942.30000  1.07409e-10      4205.08
       942.40000  1.07409e-10      4207.22
       942.50000  1.31452e-10      5151.59
       942.60000  1.31452e-10      5155.54
       942.70000  1.31452e-10      5158.17
       942.80000  1.31452e-10      5160.79
       942.90000  1.31452e-10      5163.42
       943.00000  1.31452e-10      5166.05
       943.10000  1.31452e-10      5170.00
       943.20000  1.31452e-10      5172.63
       943.30000  1.31452e-10      5175.25
       943.40000  1.31452e-10      5177.88
       943.50000  9.82726e-11      3872.92
       943.60000  9.82726e-11      3874.89
       943.70000  9.82726e-11      3876.85
       943.80000  9.82573e-11      3878.22
       943.90000  9.82573e-11      3880.18
       944.00000  9.82573e-11      3882.15
       944.10000  9.82573e-11      3884.11
       944.20000  9.82573e-11      3886.08
       944.30000  9.82573e-11      3887.06
       944.40000  9.82573e-11      3889.03
       944.50000  9.49998e-11      3761.99
       944.60000  9.49998e-11      3763.89
       944.70000  9.49998e-11      3764.84
       944.80000  9.49998e-11      3766.74
       944.90000  9.49998e-11      3768.64
       945.00000  9.49998e-11      3769.59
       945.10000  9.49998e-11      3771.49
       945.20000  9.49998e-11      3773.39
       945.30000  9.49998e-11      3774.34
       945.40000  9.49998e-11      3776.24
       945.50000  8.38746e-11      3334.85
       945.60000  8.38746e-11      3336.53
       945.70000  8.38746e-11      3337.37
       945.80000  8.38746e-11      3339.05
       945.90000  8.38746e-11      3339.89
       946.00000  8.38746e-11      3340.73
       946.10000  8.38746e-11      3342.40
       946.20000  8.38746e-11      3344.08
       946.30000  8.38996e-11      3346.76
       946.40000  8.38996e-11      3348.43
       946.50000  6.16664e-11      2462.34
       946.60000  6.16664e-11      2462.95
       946.70000  6.16664e-11      2464.19
       946.80000  6.16664e-11      2464.80
       946.90000  6.16664e-11      2465.42
       947.00000  6.16664e-11      2466.65
       947.10000  6.16664e-11      2467.27
       947.20000  6.16664e-11      2467.89
       947.30000  6.16664e-11      2468.50
       947.40000  6.16664e-11      2469.12
       947.50000  1.49459e-10      5984.36
       947.60000  1.49459e-10      5985.85
       947.70000  1.49459e-10      5987.35
       947.80000  1.49459e-10      5987.35
       947.90000  1.49459e-10      5988.84
       948.00000  1.49459e-10      5988.84
       948.10000  1.49459e-10      5988.84
       948.20000  1.49459e-10      5988.84
       948.30000  1.49459e-10      5987.35
       948.40000  1.49459e-10      5987.35
       948.50000  1.08713e-10      4353.95
       948.60000  1.08713e-10      4353.95
       948.70000  1.08713e-10      4353.95
       948.80000  1.09050e-10      4366.38
       948.90000  1.09050e-10      4366.38
       949.00000  1.09050e-10      4365.29
       949.10000  1.09050e-10      4365.29
       949.20000  1.09050e-10      4364.20
       949.30000  1.09050e-10      4364.20
       949.40000  1.09050e-10      4363.11
       949.50000  1.01462e-10      4059.50
       949.60000  1.01462e-10      4058.49
       949.70000  1.01462e-10      4057.47
       949.80000  1.01462e-10      4057.47
       949.90000  1.01462e-10      4056.46
       950.00000  1.01462e-10      4055.45
       950.10000  1.01462e-10      4055.45
       950.20000  1.01462e-10      4054.43
       950.30000  1.01462e-10      4053.42
       950.40000  1.01462e-10      4053.42
       950.50000  8.47651e-11      3385.52
       950.60000  8.47651e-11      3384.67
       950.70000  8.47651e-11      3383.82
       950.80000  8.47651e-11      3383.82
       950.90000  8.47651e-11      3382.97
       951.00000  8.47651e-11      3382.13
       951.10000  8.47651e-11      3381.28
       951.20000  8.47651e-11      3380.43
       951.30000  8.46842e-11      3377.21
       951.40000  8.46842e-11      3376.36
       951.50000  5.22717e-11      2083.55
       951.60000  5.22717e-11      2083.03
       951.70000  5.22717e-11      2082.50
       951.80000  5.22717e-11      2081.98
       951.90000  5.22717e-11      2081.46
       952.00000  5.22717e-11      2080.94
       952.10000  5.22717e-11      2076.75
       952.20000  5.22717e-11      2072.57
       952.30000  5.22717e-11      2068.91
       952.40000  5.22717e-11      2065.25
       952.50000  1.02527e-10      4043.65
       952.60000  1.02527e-10      4036.47
       952.70000  1.02527e-10      4030.32
       952.80000  1.02527e-10      4024.17
       952.90000  1.02527e-10      4018.02
       953.00000  1.02527e-10      4012.89
       953.10000  1.02527e-10      4007.76
       953.20000  1.02527e-10      4002.64
       953.30000  1.02527e-10      3998.54
       953.40000  1.02527e-10      3993.41
       953.50000  8.22256e-11      3199.40
       953.60000  8.22256e-11      3196.93
       953.70000  8.22256e-11      3193.64
       953.80000  8.24010e-11      3197.98
       953.90000  8.24010e-11      3195.51
       954.00000  8.24010e-11      3193.86
       954.10000  8.24010e-11      3193.04
       954.20000  8.24010e-11      3192.22
       954.30000  8.24010e-11      3192.22
       954.40000  8.24010e-11      3192.22
       954.50000  7.38372e-11      2859.72
       954.60000  7.38372e-11      2859.72
       954.70000  7.38372e-11      2859.72
       954.80000  7.38372e-11      2859.72
       954.90000  7.38372e-11      2860.45
       955.00000  7.38372e-11      2860.45
       955.10000  7.38372e-11      2861.19
       955.20000  7.38372e-11      2861.19
       955.30000  7.38372e-11      2861.93
       955.40000  7.38372e-11      2862.67
       955.50000  5.37144e-11      2083.04
       955.60000  5.37144e-11      2083.58
       955.70000  5.37144e-11      2084.12
       955.80000  5.37144e-11      2085.19
       955.90000  5.37144e-11      2085.73
       956.00000  5.37144e-11      2086.80
       956.10000  5.37144e-11      2087.88
       956.20000  5.37144e-11      2088.41
       956.30000  5.38967e-11      2096.58
       956.40000  5.38967e-11      2098.20
       956.50000  6.83318e-11      2661.52
       956.60000  6.83318e-11      2662.89
       956.70000  6.83318e-11      2664.94
       956.80000  6.83318e-11      2666.31
       956.90000  6.83318e-11      2668.36
       957.00000  6.83318e-11      2670.41
       957.10000  6.83318e-11      2672.46
       957.20000  6.83318e-11      2674.51
       957.30000  6.83318e-11      2677.24
       957.40000  6.83318e-11      2679.29
       957.50000  6.85938e-11      2691.62
       957.60000  6.85938e-11      2694.36
       957.70000  6.85938e-11      2697.11
       957.80000  6.85938e-11      2699.85
       957.90000  6.85938e-11      2702.60
       958.00000  6.85938e-11      2705.34
       958.10000  6.85938e-11      2705.34
       958.20000  6.85938e-11      2704.65
       958.30000  6.85938e-11      2704.65
       958.40000  6.85938e-11      2704.65
       958.50000  5.80704e-11      2289.72
       958.60000  5.80704e-11      2289.14
       958.70000  5.80704e-11      2289.14
       958.80000  5.81304e-11      2291.50
       958.90000  5.81304e-11      2290.92
       959.00000  5.81304e-11      2290.92
       959.10000  5.81304e-11      2290.34
       959.20000  5.81304e-11      2290.34
       959.30000  5.81304e-11      2289.76
       959.40000  5.81304e-11      2289.17
       959.50000  5.65032e-11      2225.10
       959.60000  5.65032e-11      2224.53
       959.70000  5.65032e-11      2224.53
       959.80000  5.65032e-11      2223.97
       959.90000  5.65032e-11      2223.40
       960.00000  5.65032e-11      2222.84
       960.10000  5.65032e-11      2222.27
       960.20000  5.65032e-11      2221.71
       960.30000  5.65032e-11      2221.14
       960.40000  5.65032e-11      2220.58
       960.50000  8.47191e-11      3328.61
       960.60000  8.47191e-11      3327.77
       960.70000  8.47191e-11      3326.92
       960.80000  8.47191e-11      3326.07
       960.90000  8.47191e-11      3325.22
       961.00000  8.47191e-11      3324.38
       961.10000  8.47191e-11      3323.53
       961.20000  8.47191e-11      3322.68
       961.30000  8.48853e-11      3328.35
       961.40000  8.48853e-11      3327.51
       961.50000  7.67919e-11      3009.48
       961.60000  7.67919e-11      3007.94
       961.70000  7.67919e-11      3007.17
       961.80000  7.67919e-11      3006.40
       961.90000  7.67919e-11      3005.64
       962.00000  7.67919e-11      3004.87
       962.10000  7.67919e-11      3003.33
       962.20000  7.67919e-11      3002.56
       962.30000  7.67919e-11      3001.80
       962.40000  7.67919e-11      3000.26
       962.50000  7.21008e-11      2816.26
       962.60000  7.21008e-11      2815.54
       962.70000  7.21008e-11      2814.10
       962.80000  7.21008e-11      2813.37
       962.90000  7.21008e-11      2811.93
       963.00000  7.21008e-11      2811.21
       963.10000  7.21008e-11      2810.49
       963.20000  7.21008e-11      2809.05
       963.30000  7.21008e-11      2808.33
       963.40000  7.21008e-11      2806.89
       963.50000  7.45168e-11      2900.20
       963.60000  7.45168e-11      2898.71
       963.70000  7.45168e-11      2897.96
       963.80000  7.46742e-11      2902.59
       963.90000  7.46742e-11      2901.09
       964.00000  7.46742e-11      2900.35
       964.10000  7.46742e-11      2898.85
       964.20000  7.46742e-11      2896.61
       964.30000  7.46742e-11      2895.12
       964.40000  7.46742e-11      2894.37
       964.50000  8.31317e-11      3220.52
       964.60000  8.31317e-11      3218.86
       964.70000  8.31317e-11      3218.03
       964.80000  8.31317e-11      3216.36
       964.90000  8.31317e-11      3215.53
       965.00000  8.31317e-11      3213.87
       965.10000  8.31317e-11      3213.04
       965.20000  8.31317e-11      3212.21
       965.30000  8.31317e-11      3211.38
       965.40000  8.31317e-11      3211.38
       965.50000  7.47658e-11      2887.45
       965.60000  7.47658e-11      2886.71
       965.70000  7.47658e-11      2886.71
       965.80000  7.47658e-11      2885.96
       965.90000  7.47658e-11      2885.96
       966.00000  7.47658e-11      2885.96
       966.10000  7.47658e-11      2886.71
       966.20000  7.47658e-11      2887.45
       966.30000  7.50109e-11      2898.42
       966.40000  7.50109e-11      2899.17
       966.50000  8.10996e-11      3135.31
       966.60000  8.10996e-11      3136.12
       966.70000  8.10996e-11      3136.93
       966.80000  8.10996e-11      3137.74
       966.90000  8.10996e-11      3138.56
       967.00000  8.10996e-11      3139.37
       967.10000  8.10996e-11      3140.18
       967.20000  8.10996e-11      3140.99
       967.30000  8.10996e-11      3141.80
       967.40000  8.10996e-11      3142.61
       967.50000  6.30025e-11      2441.35
       967.60000  6.30025e-11      2441.98
       967.70000  6.30025e-11      2442.61
       967.80000  6.30025e-11      2442.61
       967.90000  6.30025e-11      2443.24
       968.00000  6.30025e-11      2443.87
       968.10000  6.30025e-11      2443.87
       968.20000  6.30025e-11      2444.50
       968.30000  6.30025e-11      2444.50
       968.40000  6.30025e-11      2444.50
       968.50000  5.69179e-11      2208.98
       968.60000  5.69179e-11      2208.98
       968.70000  5.69179e-11      2208.98
       968.80000  5.70523e-11      2214.77
       968.90000  5.70523e-11      2214.77
       969.00000  5.70523e-11      2214.77
       969.10000  5.70523e-11      2214.77
       969.20000  5.70523e-11      2214.77
       969.30000  5.70523e-11      2214.77
       969.40000  5.70523e-11      2214.77
       969.50000  6.34368e-11      2462.62
       969.60000  6.34368e-11      2462.62
       969.70000  6.34368e-11      2462.62
       969.80000  6.34368e-11      2462.62
       969.90000  6.34368e-11      2462.62
       970.00000  6.34368e-11      2462.62
       970.10000  6.34368e-11      2463.25
       970.20000  6.34368e-11      2463.89
       970.30000  6.34368e-11      2463.89
       970.40000  6.34368e-11      2464.52
       970.50000  5.66981e-11      2202.72
       970.60000  5.66981e-11      2203.29
       970.70000  5.66981e-11      2203.29
       970.80000  5.66981e-11      2203.29
       970.90000  5.66981e-11      2203.29
       971.00000  5.66981e-11      2203.29
       971.10000  5.66981e-11      2203.29
       971.20000  5.66981e-11      2202.72
       971.30000  5.67899e-11      2206.29
       971.40000  5.67899e-11      2205.72
       971.50000  7.20268e-11      2797.52
       971.60000  7.20268e-11      2796.80
       971.70000  7.20268e-11      2796.08
       971.80000  7.20268e-11      2795.36
       971.90000  7.20268e-11      2794.64
       972.00000  7.20268e-11      2793.20
       972.10000  7.20268e-11      2790.32
       972.20000  7.20268e-11      2787.44
       972.30000  7.20268e-11      2785.28
       972.40000  7.20268e-11      2782.39
       972.50000  5.67099e-11      2189.00
       972.60000  5.67099e-11      2186.73
       972.70000  5.67099e-11      2185.03
       972.80000  5.67099e-11      2183.33
       972.90000  5.67099e-11      2181.63
       973.00000  5.67099e-11      2180.49
       973.10000  5.67099e-11      2178.79
       973.20000  5.67099e-11      2177.66
       973.30000  5.67099e-11      2176.52
       973.40000  5.67099e-11      2175.39
       973.50000  5.90777e-11      2265.04
       973.60000  5.90777e-11      2263.86
       973.70000  5.90777e-11      2263.27
       973.80000  5.91096e-11      2263.31
       973.90000  5.91096e-11      2262.72
       974.00000  5.91096e-11      2262.13
       974.10000  5.91096e-11      2262.72
       974.20000  5.91096e-11      2263.90
       974.30000  5.91096e-11      2264.49
       974.40000  5.91096e-11      2265.08
       974.50000  6.55746e-11      2513.48
       974.60000  6.55746e-11      2514.13
       974.70000  6.55746e-11      2514.79
       974.80000  6.55746e-11      2515.44
       974.90000  6.55746e-11      2515.44
       975.00000  6.55746e-11      2516.10
       975.10000  6.55746e-11      2516.75
       975.20000  6.55746e-11      2516.75
       975.30000  6.55746e-11      2517.41
       975.40000  6.55746e-11      2517.41
       975.50000  6.06332e-11      2327.71
       975.60000  6.06332e-11      2328.31
       975.70000  6.06332e-11      2328.31
       975.80000  6.06332e-11      2328.31
       975.90000  6.06332e-11      2328.31
       976.00000  6.06332e-11      2328.31
       976.10000  6.06332e-11      2327.71
       976.20000  6.06332e-11      2327.10
       976.30000  6.05924e-11      2324.93
       976.40000  6.05924e-11      2324.32
       976.50000  5.11345e-11      1961.52
       976.60000  5.11345e-11      1961.01
       976.70000  5.11345e-11      1960.50
       976.80000  5.11345e-11      1959.99
       976.90000  5.11345e-11      1959.99
       977.00000  5.11345e-11      1959.47
       977.10000  5.11345e-11      1958.96
       977.20000  5.11345e-11      1958.45
       977.30000  5.11345e-11      1958.45
       977.40000  5.11345e-11      1957.94
       977.50000  8.07540e-11      3091.26
       977.60000  8.07540e-11      3091.26
       977.70000  8.07540e-11      3090.46
       977.80000  8.07540e-11      3089.65
       977.90000  8.07540e-11      3089.65
       978.00000  8.07540e-11      3088.84
       978.10000  8.07540e-11      3088.84
       978.20000  8.07540e-11      3088.03
       978.30000  8.07540e-11      3088.03
       978.40000  8.07540e-11      3087.23
       978.50000  5.37620e-11      2054.79
       978.60000  5.37620e-11      2054.79
       978.70000  5.37620e-11      2054.79
       978.80000  5.37532e-11      2053.91
       978.90000  5.37532e-11      2053.91
       979.00000  5.37532e-11      2053.37
       979.10000  5.37532e-11      2053.37
       979.20000  5.37532e-11      2052.83
       979.30000  5.37532e-11      2052.83
       979.40000  5.37532e-11      2052.83
       979.50000  3.74010e-11      1427.97
       979.60000  3.74010e-11      1427.97
       979.70000  3.74010e-11      1427.97
       979.80000  3.74010e-11      1427.59
       979.90000  3.74010e-11      1427.59
       980.00000  3.74010e-11      1427.59
       980.10000  3.74010e-11      1428.34
       980.20000  3.74010e-11      1428.72
       980.30000  3.74010e-11      1429.46
       980.40000  3.74010e-11      1429.84
       980.50000  4.56487e-11      1746.06
       980.60000  4.56487e-11      1746.52
       980.70000  4.56487e-11      1746.98
       980.80000  4.56487e-11      1747.43
       980.90000  4.56487e-11      1747.89
       981.00000  4.56487e-11      1748.35
       981.10000  4.56487e-11      1748.80
       981.20000  4.56487e-11      1749.26
       981.30000  4.58936e-11      1758.64
       981.40000  4.58936e-11      1759.10
       981.50000  4.81382e-11      1845.14
       981.60000  4.81382e-11      1845.14
       981.70000  4.81382e-11      1845.62
       981.80000  4.81382e-11      1845.62
       981.90000  4.81382e-11      1845.62
       982.00000  4.81382e-11      1845.14
       982.10000  4.81382e-11      1844.65
       982.20000  4.81382e-11      1843.69
       982.30000  4.81382e-11      1843.21
       982.40000  4.81382e-11      1842.25
       982.50000  4.70167e-11      1798.86
       982.60000  4.70167e-11      1797.92
       982.70000  4.70167e-11      1797.45
       982.80000  4.70167e-11      1796.98
       982.90000  4.70167e-11      1796.04
       983.00000  4.70167e-11      1795.57
       983.10000  4.70167e-11      1795.10
       983.20000  4.70167e-11      1794.63
       983.30000  4.70167e-11      1794.16
       983.40000  4.70167e-11      1793.22
       983.50000  4.30666e-11      1642.13
       983.60000  4.30666e-11      1641.70
       983.70000  4.30666e-11      1641.27
       983.80000  4.31002e-11      1642.12
       983.90000  4.31002e-11      1641.69
       984.00000  4.31002e-11      1641.26
       984.10000  4.31002e-11      1641.26
       984.20000  4.31002e-11      1640.83
       984.30000  4.31002e-11      1640.40
       984.40000  4.31002e-11      1639.96
       984.50000  5.52204e-11      2101.14
       984.60000  5.52204e-11      2100.58
       984.70000  5.52204e-11      2100.03
       984.80000  5.52204e-11      2100.03
       984.90000  5.52204e-11      2099.48
       985.00000  5.52204e-11      2098.93
       985.10000  5.52204e-11      2098.93
       985.20000  5.52204e-11      2098.38
       985.30000  5.52204e-11      2098.38
       985.40000  5.52204e-11      2098.38
       985.50000  4.63108e-11      1759.35
       985.60000  4.63108e-11      1759.35
       985.70000  4.63108e-11      1759.35
       985.80000  4.63108e-11      1758.88
       985.90000  4.63108e-11      1758.88
       986.00000  4.63108e-11      1758.88
       986.10000  4.63108e-11      1758.42
       986.20000  4.63108e-11      1758.42
       986.30000  4.60454e-11      1748.35
       986.40000  4.60454e-11      1747.88
       986.50000  3.65087e-11      1385.51
       986.60000  3.65087e-11      1385.51
       986.70000  3.65087e-11      1385.14
       986.80000  3.65087e-11      1385.14
       986.90000  3.65087e-11      1384.78
       987.00000  3.65087e-11      1384.41
       987.10000  3.65087e-11      1384.04
       987.20000  3.65087e-11      1384.04
       987.30000  3.65087e-11      1383.68
       987.40000  3.65087e-11      1383.31
       987.50000  3.55728e-11      1347.50
       987.60000  3.55728e-11      1347.14
       987.70000  3.55728e-11      1346.79
       987.80000  3.55728e-11      1346.43
       987.90000  3.55728e-11      1346.07
       988.00000  3.55728e-11      1345.72
       988.10000  3.55728e-11      1344.65
       988.20000  3.55728e-11      1343.94
       988.30000  3.55728e-11      1342.87
       988.40000  3.55728e-11      1342.16
       988.50000  5.14061e-11      1938.52
       988.60000  5.14061e-11      1937.49
       988.70000  5.14061e-11      1936.47
       988.80000  5.15479e-11      1940.78
       988.90000  5.15479e-11      1939.75
       989.00000  5.15479e-11      1939.23
       989.10000  5.15479e-11      1938.72
       989.20000  5.15479e-11      1937.69
       989.30000  5.15479e-11      1937.17
       989.40000  5.15479e-11      1936.66
       989.50000  4.99506e-11      1876.15
       989.60000  4.99506e-11      1875.65
       989.70000  4.99506e-11      1875.65
       989.80000  4.99506e-11      1875.15
       989.90000  4.99506e-11      1875.15
       990.00000  4.99506e-11      1875.15
       990.10000  4.99506e-11      1874.65
       990.20000  4.99506e-11      1874.65
       990.30000  4.99506e-11      1875.15
       990.40000  4.99506e-11      1875.15
       990.50000  3.99975e-11      1501.51
       990.60000  3.99975e-11      1501.91
       990.70000  3.99975e-11      1501.91
       990.80000  3.99975e-11      1502.31
       990.90000  3.99975e-11      1502.71
       991.00000  3.99975e-11      1503.11
       991.10000  3.99975e-11      1503.51
       991.20000  3.99975e-11      1503.91
       991.30000  4.00823e-11      1507.50
       991.40000  4.00823e-11      1508.30
       991.50000  4.93470e-11      1857.42
       991.60000  4.93470e-11      1858.41
       991.70000  4.93470e-11      1859.40
       991.80000  4.93470e-11      1860.38
       991.90000  4.93470e-11      1861.37
       992.00000  4.93470e-11      1862.36
       992.10000  4.93470e-11      1862.85
       992.20000  4.93470e-11      1862.85
       992.30000  4.93470e-11      1862.85
       992.40000  4.93470e-11      1862.85
       992.50000  2.08143e-11      785.948
       992.60000  2.08143e-11      785.948
       992.70000  2.08143e-11      785.948
       992.80000  2.08143e-11      785.948
       992.90000  2.08143e-11      785.948
       993.00000  2.08143e-11      786.156
       993.10000  2.08143e-11      786.156
       993.20000  2.08143e-11      786.156
       993.30000  2.08143e-11      786.156
       993.40000  2.08143e-11      786.156
       993.50000  3.54759e-11      1339.93
       993.60000  3.54759e-11      1339.93
       993.70000  3.54759e-11      1339.93
       993.80000  3.54957e-11      1340.67
       993.90000  3.54957e-11      1340.32
       994.00000  3.54957e-11      1340.32
       994.10000  3.54957e-11      1340.32
       994.20000  3.54957e-11      1339.96
       994.30000  3.54957e-11      1339.96
       994.40000  3.54957e-11      1339.61
       994.50000  5.05218e-11      1906.69
       994.60000  5.05218e-11      1906.19
       994.70000  5.05218e-11      1906.19
       994.80000  5.05218e-11      1905.68
       994.90000  5.05218e-11      1905.68
       995.00000  5.05218e-11      1905.18
       995.10000  5.05218e-11      1905.18
       995.20000  5.05218e-11      1905.18
       995.30000  5.05218e-11      1904.67
       995.40000  5.05218e-11      1904.67
       995.50000  3.30555e-11      1246.19
       995.60000  3.30555e-11      1245.86
       995.70000  3.30555e-11      1245.86
       995.80000  3.30555e-11      1245.86
       995.90000  3.30555e-11      1245.86
       996.00000  3.30555e-11      1245.53
       996.10000  3.30555e-11      1245.86
       996.20000  3.30555e-11      1245.86
       996.30000  3.30940e-11      1247.31
       996.40000  3.30940e-11      1247.31
       996.50000  3.68775e-11      1389.91
       996.60000  3.68775e-11      1389.91
       996.70000  3.68775e-11      1389.91
       996.80000  3.68775e-11      1389.91
       996.90000  3.68775e-11      1389.91
       997.00000  3.68775e-11      1389.91
       997.10000  3.68775e-11      1389.91
       997.20000  3.68775e-11      1389.91
       997.30000  3.68775e-11      1389.91
       997.40000  3.68775e-11      1389.91
       997.50000  3.41490e-11      1287.07
       997.60000  3.41490e-11      1287.07
       997.70000  3.41490e-11      1287.07
       997.80000  3.41490e-11      1287.07
       997.90000  3.41490e-11      1287.07
       998.00000  3.41490e-11      1286.73
       998.10000  3.41490e-11      1286.73
       998.20000  3.41490e-11      1286.39
       998.30000  3.41490e-11      1286.39
       998.40000  3.41490e-11      1286.05
       998.50000  2.63608e-11      992.483
       998.60000  2.63608e-11      992.483
       998.70000  2.63608e-11      992.219
       998.80000  2.65770e-11      1000.36
       998.90000  2.65770e-11      1000.36
       999.00000  2.65770e-11      1000.09
       999.10000  2.65770e-11      1000.09
       999.20000  2.65770e-11      999.827
       999.30000  2.65770e-11      999.827
       999.40000  2.65770e-11      999.827
       999.50000  2.72084e-11      1023.31
       999.60000  2.72084e-11      1023.31
       999.70000  2.72084e-11      1023.31
       999.80000  2.72084e-11      1023.31
       999.90000  2.72084e-11      1023.31
       1000.0000  2.72084e-11      1023.04
       1000.1000  2.72084e-11      1023.04
       1000.2000  2.72084e-11      1023.04
       1000.3000  2.72084e-11      1023.04
       1000.4000  2.72084e-11      1023.04
       1000.5000  2.23662e-11      840.968
       1000.6000  2.23662e-11      840.968
       1000.7000  2.23662e-11      840.968
       1000.8000  2.23662e-11      840.968
       1000.9000  2.23662e-11      840.968
       1001.0000  2.23662e-11      840.968
       1001.1000  2.23662e-11      840.968
       1001.2000  2.23662e-11      841.192
       1001.3000  2.21040e-11      831.332
       1001.4000  2.21040e-11      831.332
       1001.5000  2.58088e-11      970.667
       1001.6000  2.58088e-11      970.667
       1001.7000  2.58088e-11      970.925
       1001.8000  2.58088e-11      970.925
       1001.9000  2.58088e-11      970.925
       1002.0000  2.58088e-11      971.184
       1002.1000  2.58088e-11      969.635
       1002.2000  2.58088e-11      968.087
       1002.3000  2.58088e-11      966.796
       1002.4000  2.58088e-11      965.248
       1002.5000  2.68472e-11      1002.74
       1002.6000  2.68472e-11      1001.13
       1002.7000  2.68472e-11      999.790
       1002.8000  2.68472e-11      998.448
       1002.9000  2.68472e-11      997.105
       1003.0000  2.68472e-11      995.763
       1003.1000  2.68472e-11      994.421
       1003.2000  2.68472e-11      993.078
       1003.3000  2.68472e-11      992.004
       1003.4000  2.68472e-11      990.662
       1003.5000  3.17070e-11      1168.72
       1003.6000  3.17070e-11      1167.45
       1003.7000  3.17070e-11      1165.87
       1003.8000  3.16985e-11      1164.29
       1003.9000  3.16985e-11      1163.02
       1004.0000  3.16985e-11      1161.75
       1004.1000  3.16985e-11      1159.85
       1004.2000  3.16985e-11      1157.63
       1004.3000  3.16985e-11      1156.05
       1004.4000  3.16985e-11      1154.14
       1004.5000  2.28038e-11      829.146
       1004.6000  2.28038e-11      828.006
       1004.7000  2.28038e-11      827.094
       1004.8000  2.28038e-11      826.182
       1004.9000  2.28038e-11      825.498
       1005.0000  2.28038e-11      824.814
       1005.1000  2.28038e-11      824.130
       1005.2000  2.28038e-11      823.673
       1005.3000  2.28038e-11      823.217
       1005.4000  2.28038e-11      822.989
       1005.5000  2.55496e-11      921.831
       1005.6000  2.55496e-11      921.576
       1005.7000  2.55496e-11      921.576
       1005.8000  2.55496e-11      921.831
       1005.9000  2.55496e-11      921.831
       1006.0000  2.55496e-11      922.087
       1006.1000  2.55496e-11      922.598
       1006.2000  2.55496e-11      923.109
       1006.3000  2.54966e-11      921.701
       1006.4000  2.54966e-11      922.466
       1006.5000  1.87056e-11      677.330
       1006.6000  1.87056e-11      678.078
       1006.7000  1.87056e-11      678.826
       1006.8000  1.87056e-11      679.575
       1006.9000  1.87056e-11      680.510
       1007.0000  1.87056e-11      681.445
       1007.1000  1.87056e-11      682.568
       1007.2000  1.87056e-11      683.690
       1007.3000  1.87056e-11      684.812
       1007.4000  1.87056e-11      686.122
       1007.5000  1.90074e-11      698.523
       1007.6000  1.90074e-11      700.043
       1007.7000  1.90074e-11      701.564
       1007.8000  1.90074e-11      703.085
       1007.9000  1.90074e-11      704.795
       1008.0000  1.90074e-11      706.506
       1008.1000  1.90074e-11      706.696
       1008.2000  1.90074e-11      706.696
       1008.3000  1.90074e-11      706.696
       1008.4000  1.90074e-11      706.696
       1008.5000  2.07573e-11      771.758
       1008.6000  2.07573e-11      771.758
       1008.7000  2.07573e-11      771.758
       1008.8000  2.07138e-11      770.138
       1008.9000  2.07138e-11      770.138
       1009.0000  2.07138e-11      769.931
       1009.1000  2.07138e-11      769.931
       1009.2000  2.07138e-11      769.931
       1009.3000  2.07138e-11      769.931
       1009.4000  2.07138e-11      769.723
       1009.5000  2.57527e-11      956.971
       1009.6000  2.57527e-11      956.971
       1009.7000  2.57527e-11      956.714
       1009.8000  2.57527e-11      956.714
       1009.9000  2.57527e-11      956.456
       1010.0000  2.57527e-11      956.456
       1010.1000  2.57527e-11      956.199
       1010.2000  2.57527e-11      955.941
       1010.3000  2.57527e-11      955.684
       1010.4000  2.57527e-11      955.426
       1010.5000  2.70580e-11      1003.58
       1010.6000  2.70580e-11      1003.31
       1010.7000  2.70580e-11      1003.04
       1010.8000  2.70580e-11      1002.77
       1010.9000  2.70580e-11      1002.50
       1011.0000  2.70580e-11      1002.23
       1011.1000  2.70580e-11      1002.23
       1011.2000  2.70580e-11      1001.96
       1011.3000  2.69855e-11      999.005
       1011.4000  2.69855e-11      998.735
       1011.5000  2.34257e-11      866.752
       1011.6000  2.34257e-11      866.517
       1011.7000  2.34257e-11      866.283
       1011.8000  2.34257e-11      866.049
       1011.9000  2.34257e-11      865.815
       1012.0000  2.34257e-11      865.580
       1012.1000  2.34257e-11      865.346
       1012.2000  2.34257e-11      865.112
       1012.3000  2.34257e-11      864.878
       1012.4000  2.34257e-11      864.643
       1012.5000  3.45150e-11      1273.60
       1012.6000  3.45150e-11      1273.26
       1012.7000  3.45150e-11      1272.91
       1012.8000  3.45150e-11      1272.57
       1012.9000  3.45150e-11      1272.57
       1013.0000  3.45150e-11      1272.22
       1013.1000  3.45150e-11      1271.88
       1013.2000  3.45150e-11      1271.53
       1013.3000  3.45150e-11      1271.19
       1013.4000  3.45150e-11      1270.84
       1013.5000  1.68686e-11      620.934
       1013.6000  1.68686e-11      620.765
       1013.7000  1.68686e-11      620.596
       1013.8000  1.68555e-11      619.945
       1013.9000  1.68555e-11      619.777
       1014.0000  1.68555e-11      619.608
       1014.1000  1.68555e-11      619.271
       1014.2000  1.68555e-11      618.934
       1014.3000  1.68555e-11      618.597
       1014.4000  1.68555e-11      618.260
       1014.5000  1.33839e-11      490.789
       1014.6000  1.33839e-11      490.521
       1014.7000  1.33839e-11      490.253
       1014.8000  1.33839e-11      490.119
       1014.9000  1.33839e-11      489.852
       1015.0000  1.33839e-11      489.718
       1015.1000  1.33839e-11      489.450
       1015.2000  1.33839e-11      489.316
       1015.3000  1.33839e-11      489.183
       1015.4000  1.33839e-11      488.915
       1015.5000  1.71748e-11      627.223
       1015.6000  1.71748e-11      627.051
       1015.7000  1.71748e-11      626.880
       1015.8000  1.71748e-11      626.708
       1015.9000  1.71748e-11      626.536
       1016.0000  1.71748e-11      626.365
       1016.1000  1.71748e-11      626.365
       1016.2000  1.71748e-11      626.365
       1016.3000  1.72026e-11      627.378
       1016.4000  1.72026e-11      627.206
       1016.5000  1.78078e-11      649.272
       1016.6000  1.78078e-11      649.272
       1016.7000  1.78078e-11      649.272
       1016.8000  1.78078e-11      649.094
       1016.9000  1.78078e-11      649.094
       1017.0000  1.78078e-11      648.916
       1017.1000  1.78078e-11      648.916
       1017.2000  1.78078e-11      648.737
       1017.3000  1.78078e-11      648.737
       1017.4000  1.78078e-11      648.559
       1017.5000  1.88940e-11      688.119
       1017.6000  1.88940e-11      687.930
       1017.7000  1.88940e-11      687.741
       1017.8000  1.88940e-11      687.552
       1017.9000  1.88940e-11      687.364
       1018.0000  1.88940e-11      687.364
       1018.1000  1.88940e-11      686.986
       1018.2000  1.88940e-11      686.608
       1018.3000  1.88940e-11      686.230
       1018.4000  1.88940e-11      685.852
       1018.5000  1.78638e-11      648.276
       1018.6000  1.78638e-11      647.919
       1018.7000  1.78638e-11      647.740
       1018.8000  1.78553e-11      647.077
       1018.9000  1.78553e-11      646.899
       1019.0000  1.78553e-11      646.542
       1019.1000  1.78553e-11      646.363
       1019.2000  1.78553e-11      646.185
       1019.3000  1.78553e-11      646.006
       1019.4000  1.78553e-11      645.649
       1019.5000  1.65358e-11      597.769
       1019.6000  1.65358e-11      597.604
       1019.7000  1.65358e-11      597.439
       1019.8000  1.65358e-11      597.439
       1019.9000  1.65358e-11      597.273
       1020.0000  1.65358e-11      597.108
       1020.1000  1.65358e-11      596.943
       1020.2000  1.65358e-11      596.777
       1020.3000  1.65358e-11      596.777
       1020.4000  1.65358e-11      596.612
       1020.5000  1.53366e-11      553.343
       1020.6000  1.53366e-11      553.190
       1020.7000  1.53366e-11      553.190
       1020.8000  1.53366e-11      553.037
       1020.9000  1.53366e-11      553.037
       1021.0000  1.53366e-11      553.037
       1021.1000  1.53366e-11      553.037
       1021.2000  1.53366e-11      553.037
       1021.3000  1.53040e-11      551.862
       1021.4000  1.53040e-11      551.862
       1021.5000  1.15718e-11      417.277
       1021.6000  1.15718e-11      417.277
       1021.7000  1.15718e-11      417.277
       1021.8000  1.15718e-11      417.393
       1021.9000  1.15718e-11      417.393
       1022.0000  1.15718e-11      417.509
       1022.1000  1.15718e-11      417.509
       1022.2000  1.15718e-11      417.625
       1022.3000  1.15718e-11      417.740
       1022.4000  1.15718e-11      417.740
       1022.5000  1.28619e-11      464.442
       1022.6000  1.28619e-11      464.570
       1022.7000  1.28619e-11      464.699
       1022.8000  1.28619e-11      464.828
       1022.9000  1.28619e-11      464.956
       1023.0000  1.28619e-11      465.085
       1023.1000  1.28619e-11      465.342
       1023.2000  1.28619e-11      465.471
       1023.3000  1.28619e-11      465.599
       1023.4000  1.28619e-11      465.857
       1023.5000  1.58307e-11      573.546
       1023.6000  1.58307e-11      573.862
       1023.7000  1.58307e-11      574.021
       1023.8000  1.57844e-11      572.657
       1023.9000  1.57844e-11      572.972
       1024.0000  1.57844e-11      573.288
       1024.1000  1.57844e-11      573.288
       1024.2000  1.57844e-11      573.130
       1024.3000  1.57844e-11      573.130
       1024.4000  1.57844e-11      573.130
       1024.5000  1.44408e-11      524.345
       1024.6000  1.44408e-11      524.200
       1024.7000  1.44408e-11      524.200
       1024.8000  1.44408e-11      524.200
       1024.9000  1.44408e-11      524.056
       1025.0000  1.44408e-11      524.056
       1025.1000  1.44408e-11      524.056
       1025.2000  1.44408e-11      523.912
       1025.3000  1.44408e-11      523.912
       1025.4000  1.44408e-11      523.912
       1025.5000  1.53410e-11      556.416
       1025.6000  1.53410e-11      556.416
       1025.7000  1.53410e-11      556.263
       1025.8000  1.53410e-11      556.263
       1025.9000  1.53410e-11      556.110
       1026.0000  1.53410e-11      556.110
       1026.1000  1.53410e-11      556.110
       1026.2000  1.53410e-11      555.956
       1026.3000  1.52862e-11      553.971
       1026.4000  1.52862e-11      553.818
       1026.5000  1.16353e-11      421.548
       1026.6000  1.16353e-11      421.432
       1026.7000  1.16353e-11      421.315
       1026.8000  1.16353e-11      421.315
       1026.9000  1.16353e-11      421.199
       1027.0000  1.16353e-11      421.199
       1027.1000  1.16353e-11      421.083
       1027.2000  1.16353e-11      420.966
       1027.3000  1.16353e-11      420.966
       1027.4000  1.16353e-11      420.850
       1027.5000  1.13321e-11      409.770
       1027.6000  1.13321e-11      409.770
       1027.7000  1.13321e-11      409.657
       1027.8000  1.13321e-11      409.544
       1027.9000  1.13321e-11      409.430
       1028.0000  1.13321e-11      409.317
       1028.1000  1.13321e-11      409.317
       1028.2000  1.13321e-11      409.204
       1028.3000  1.13321e-11      409.090
       1028.4000  1.13321e-11      408.977
       1028.5000  1.17901e-11      425.385
       1028.6000  1.17901e-11      425.267
       1028.7000  1.17901e-11      425.150
       1028.8000  1.17935e-11      425.156
       1028.9000  1.17935e-11      425.038
       1029.0000  1.17935e-11      424.920
       1029.1000  1.17935e-11      424.802
       1029.2000  1.17935e-11      424.684
       1029.3000  1.17935e-11      424.567
       1029.4000  1.17935e-11      424.449
       1029.5000  1.21522e-11      437.237
       1029.6000  1.21522e-11      437.116
       1029.7000  1.21522e-11      436.994
       1029.8000  1.21522e-11      436.873
       1029.9000  1.21522e-11      436.751
       1030.0000  1.21522e-11      436.508
       1030.1000  1.21522e-11      436.630
       1030.2000  1.21522e-11      436.630
       1030.3000  1.21522e-11      436.630
       1030.4000  1.21522e-11      436.630
       1030.5000  1.42935e-11      513.565
       1030.6000  1.42935e-11      513.565
       1030.7000  1.42935e-11      513.422
       1030.8000  1.42935e-11      513.422
       1030.9000  1.42935e-11      513.422
       1031.0000  1.42935e-11      513.279
       1031.1000  1.42935e-11      513.279
       1031.2000  1.42935e-11      513.136
       1031.3000  1.42976e-11      513.284
       1031.4000  1.42976e-11      513.141
       1031.5000  1.02819e-11      368.916
       1031.6000  1.02819e-11      368.813
       1031.7000  1.02819e-11      368.711
       1031.8000  1.02819e-11      368.608
       1031.9000  1.02819e-11      368.505
       1032.0000  1.02819e-11      368.402
       1032.1000  1.02819e-11      368.094
       1032.2000  1.02819e-11      367.682
       1032.3000  1.02819e-11      367.374
       1032.4000  1.02819e-11      367.168
       1032.5000  1.26487e-11      451.304
       1032.6000  1.26487e-11      450.925
       1032.7000  1.26487e-11      450.672
       1032.8000  1.26487e-11      450.292
       1032.9000  1.26487e-11      450.039
       1033.0000  1.26487e-11      449.786
       1033.1000  1.26487e-11      449.533
       1033.2000  1.26487e-11      449.407
       1033.3000  1.26487e-11      449.154
       1033.4000  1.26487e-11      449.027
       1033.5000  1.34072e-11      475.689
       1033.6000  1.34072e-11      475.555
       1033.7000  1.34072e-11      475.421
       1033.8000  1.34266e-11      475.971
       1033.9000  1.34266e-11      475.971
       1034.0000  1.34266e-11      475.837
       1034.1000  1.34266e-11      475.837
       1034.2000  1.34266e-11      475.703
       1034.3000  1.34266e-11      475.703
       1034.4000  1.34266e-11      475.703
       1034.5000  1.12302e-11      397.885
       1034.6000  1.12302e-11      397.997
       1034.7000  1.12302e-11      397.997
       1034.8000  1.12302e-11      398.109
       1034.9000  1.12302e-11      398.109
       1035.0000  1.12302e-11      398.222
       1035.1000  1.12302e-11      398.334
       1035.2000  1.12302e-11      398.446
       1035.3000  1.12302e-11      398.671
       1035.4000  1.12302e-11      398.783
       1035.5000  9.84013e-12      349.620
       1035.6000  9.84013e-12      349.817
       1035.7000  9.84013e-12      349.915
       1035.8000  9.84013e-12      350.112
       1035.9000  9.84013e-12      350.407
       1036.0000  9.84013e-12      350.604
       1036.1000  9.84013e-12      350.407
       1036.2000  9.84013e-12      350.210
       1036.3000  9.82386e-12      349.435
       1036.4000  9.82386e-12      349.238
       1036.5000  9.04550e-12      321.387
       1036.6000  9.04550e-12      321.206
       1036.7000  9.04550e-12      321.115
       1036.8000  9.04550e-12      320.934
       1036.9000  9.04550e-12      320.753
       1037.0000  9.04550e-12      320.663
       1037.1000  9.04550e-12      320.572
       1037.2000  9.04550e-12      320.392
       1037.3000  9.04550e-12      320.301
       1037.4000  9.04550e-12      320.211
       1037.5000  9.50126e-12      336.249
       1037.6000  9.50126e-12      336.154
       1037.7000  9.50126e-12      336.059
       1037.8000  9.50126e-12      335.964
       1037.9000  9.50126e-12      335.869
       1038.0000  9.50126e-12      335.774
       1038.1000  9.50126e-12      335.774
       1038.2000  9.50126e-12      335.774
       1038.3000  9.50126e-12      335.869
       1038.4000  9.50126e-12      335.869
       1038.5000  1.15712e-11      409.043
       1038.6000  1.15712e-11      409.043
       1038.7000  1.15712e-11      409.043
       1038.8000  1.15458e-11      408.144
       1038.9000  1.15458e-11      408.144
       1039.0000  1.15458e-11      408.144
       1039.1000  1.15458e-11      408.144
       1039.2000  1.15458e-11      408.144
       1039.3000  1.15458e-11      408.144
       1039.4000  1.15458e-11      408.144
       1039.5000  7.62336e-12      269.486
       1039.6000  7.62336e-12      269.486
       1039.7000  7.62336e-12      269.486
       1039.8000  7.62336e-12      269.486
       1039.9000  7.62336e-12      269.486
       1040.0000  7.62336e-12      269.486
       1040.1000  7.62336e-12      269.486
       1040.2000  7.62336e-12      269.486
       1040.3000  7.62336e-12      269.486
       1040.4000  7.62336e-12      269.486
       1040.5000  8.06110e-12      284.960
       1040.6000  8.06110e-12      284.960
       1040.7000  8.06110e-12      284.960
       1040.8000  8.06110e-12      284.960
       1040.9000  8.06110e-12      284.960
       1041.0000  8.06110e-12      284.960
       1041.1000  8.06110e-12      284.960
       1041.2000  8.06110e-12      284.960
       1041.3000  8.05813e-12      284.855
       1041.4000  8.05813e-12      284.855
       1041.5000  6.98553e-12      246.938
       1041.6000  6.98553e-12      246.938
       1041.7000  6.98553e-12      246.938
       1041.8000  6.98553e-12      246.869
       1041.9000  6.98553e-12      246.869
       1042.0000  6.98553e-12      246.869
       1042.1000  6.98553e-12      246.938
       1042.2000  6.98553e-12      246.938
       1042.3000  6.98553e-12      247.008
       1042.4000  6.98553e-12      247.008
       1042.5000  4.52343e-12      159.948
       1042.6000  4.52343e-12      159.948
       1042.7000  4.52343e-12      159.948
       1042.8000  4.52343e-12      159.903
       1042.9000  4.52343e-12      159.903
       1043.0000  4.52343e-12      159.903
       1043.1000  4.52343e-12      159.858
       1043.2000  4.52343e-12      159.813
       1043.3000  4.52343e-12      159.813
       1043.4000  4.52343e-12      159.767
       1043.5000  8.65994e-12      305.782
       1043.6000  8.65994e-12      305.696
       1043.7000  8.65994e-12      305.609
       1043.8000  8.68691e-12      306.387
       1043.9000  8.68691e-12      306.301
       1044.0000  8.68691e-12      306.127
       1044.1000  8.68691e-12      305.779
       1044.2000  8.68691e-12      305.345
       1044.3000  8.68691e-12      304.998
       1044.4000  8.68691e-12      304.650
       1044.5000  6.51045e-12      228.061
       1044.6000  6.51045e-12      227.866
       1044.7000  6.51045e-12      227.605
       1044.8000  6.51045e-12      227.410
       1044.9000  6.51045e-12      227.215
       1045.0000  6.51045e-12      227.019
       1045.1000  6.51045e-12      226.889
       1045.2000  6.51045e-12      226.694
       1045.3000  6.51045e-12      226.564
       1045.4000  6.51045e-12      226.433
       1045.5000  5.72949e-12      199.214
       1045.6000  5.72949e-12      199.100
       1045.7000  5.72949e-12      199.042
       1045.8000  5.72949e-12      198.985
       1045.9000  5.72949e-12      198.928
       1046.0000  5.72949e-12      198.871
       1046.1000  5.72949e-12      198.871
       1046.2000  5.72949e-12      198.813
       1046.3000  5.74371e-12      199.307
       1046.4000  5.74371e-12      199.307
       1046.5000  4.65870e-12      161.703
       1046.6000  4.65870e-12      161.703
       1046.7000  4.65870e-12      161.750
       1046.8000  4.65870e-12      161.797
       1046.9000  4.65870e-12      161.843
       1047.0000  4.65870e-12      161.936
       1047.1000  4.65870e-12      161.983
       1047.2000  4.65870e-12      162.076
       1047.3000  4.65870e-12      162.169
       1047.4000  4.65870e-12      162.262
       1047.5000  4.35712e-12      151.889
       1047.6000  4.35712e-12      151.976
       1047.7000  4.35712e-12      152.107
       1047.8000  4.35712e-12      152.238
       1047.9000  4.35712e-12      152.369
       1048.0000  4.35712e-12      152.543
       1048.1000  4.35712e-12      152.543
       1048.2000  4.35712e-12      152.543
       1048.3000  4.35712e-12      152.543
       1048.4000  4.35712e-12      152.499
       1048.5000  5.32713e-12      186.450
       1048.6000  5.32713e-12      186.450
       1048.7000  5.32713e-12      186.450
       1048.8000  5.32587e-12      186.405
       1048.9000  5.32587e-12      186.405
       1049.0000  5.32587e-12      186.352
       1049.1000  5.32587e-12      186.352
       1049.2000  5.32587e-12      186.352
       1049.3000  5.32587e-12      186.299
       1049.4000  5.32587e-12      186.299
       1049.5000  4.52823e-12      158.398
       1049.6000  4.52823e-12      158.352
       1049.7000  4.52823e-12      158.352
       1049.8000  4.52823e-12      158.352
       1049.9000  4.52823e-12      158.307
       1050.0000  4.52823e-12      158.307
       1050.1000  4.52823e-12      158.262
       1050.2000  4.52823e-12      158.262
       1050.3000  4.52823e-12      158.216
       1050.4000  4.52823e-12      158.171
       1050.5000  2.63475e-12      92.0320
       1050.6000  2.63475e-12      92.0056
       1050.7000  2.63475e-12      92.0056
       1050.8000  2.63475e-12      91.9793
       1050.9000  2.63475e-12      91.9529
       1051.0000  2.63475e-12      91.9529
       1051.1000  2.63475e-12      91.9266
       1051.2000  2.63475e-12      91.9266
       1051.3000  2.62495e-12      91.5583
       1051.4000  2.62495e-12      91.5321
       1051.5000  2.28476e-12      79.6696
       1051.6000  2.28476e-12      79.6467
       1051.7000  2.28476e-12      79.6239
       1051.8000  2.28476e-12      79.6239
       1051.9000  2.28476e-12      79.6011
       1052.0000  2.28476e-12      79.6011
       1052.1000  2.28476e-12      79.5782
       1052.2000  2.28476e-12      79.5554
       1052.3000  2.28476e-12      79.5554
       1052.4000  2.28476e-12      79.5325
       1052.5000  2.24336e-12      78.0689
       1052.6000  2.24336e-12      78.0689
       1052.7000  2.24336e-12      78.0465
       1052.8000  2.24336e-12      78.0240
       1052.9000  2.24336e-12      78.0240
       1053.0000  2.24336e-12      78.0016
       1053.1000  2.24336e-12      78.0016
       1053.2000  2.24336e-12      77.9792
       1053.3000  2.24336e-12      77.9567
       1053.4000  2.24336e-12      77.9567
       1053.5000  1.82738e-12      63.4833
       1053.6000  1.82738e-12      63.4650
       1053.7000  1.82738e-12      63.4650
       1053.8000  1.81500e-12      63.0169
       1053.9000  1.81500e-12      62.9988
       1054.0000  1.81500e-12      62.9988
       1054.1000  1.81500e-12      63.0351
       1054.2000  1.81500e-12      63.0532
       1054.3000  1.81500e-12      63.0895
       1054.4000  1.81500e-12      63.1258
       1054.5000  9.97540e-13      34.7044
       1054.6000  9.97540e-13      34.7144
       1054.7000  9.97540e-13      34.7244
       1054.8000  9.97540e-13      34.7343
       1054.9000  9.97540e-13      34.7443
       1055.0000  9.97540e-13      34.7543
       1055.1000  9.97540e-13      34.7543
       1055.2000  9.97540e-13      34.7543
       1055.3000  9.97540e-13      34.7643
       1055.4000  9.97540e-13      34.7643
       1055.5000  9.12848e-13      31.8036
       1055.6000  9.12848e-13      31.8036
       1055.7000  9.12848e-13      31.8036
       1055.8000  9.12848e-13      31.7945
       1055.9000  9.12848e-13      31.7854
       1056.0000  9.12848e-13      31.7762
       1056.1000  9.12848e-13      31.7488
       1056.2000  9.12848e-13      31.7215
       1056.3000  9.03594e-13      31.3728
       1056.4000  9.03594e-13      31.3366
       1056.5000  1.97756e-13      6.85225
       1056.6000  1.97756e-13      6.84830
       1056.7000  1.97756e-13      6.84237
       1056.8000  1.97756e-13      6.83643
       1056.9000  1.97756e-13      6.83050
       1057.0000  1.97756e-13      6.82655
