PDS_VERSION_ID         = PDS3
RECORD_TYPE            = STREAM
OBJECT                 = TEXT
  PUBLICATION_DATE     = 2014-04-25
  INTERCHANGE_FORMAT   = ASCII
  NOTE                 = "System transmission vs. wavelength."
END_OBJECT             = TEXT
END
    
The systrans directory contains the non-wavelength-integrated system 
transmission values (QE*optics*filter1*filter2) for each filter combination. 
The naming convention for these files is as follows:

<camera><filter 1><filter 2>_systrans.tab

where <camera> is "issna" or "isswa," and <filter 1> and <filter 2> represent
the filter names. For polarized filter combinations, values are given for the
parallel orientation of the filter (full transmission), with values for the 
perpendicular (blocking) orientation provided in files with subscript 
"_b_systrans.tab". 

Columns in systrans files are as follows:

 1st column: Wavelength (nm)  
 2nd column: Transmitted Flux
 3rd column: Transmitted Flux * Solar Flux (phot per cm^2-s-angstrom at 1 AU)

The solar spectrum used for this calculation is provided in solarflux.tab.

\begindata
       619.00000  1.89430e-15     0.100815
       619.10000  1.89430e-15     0.100739
       619.20000  1.89430e-15     0.100701
       619.30000  1.89430e-15     0.100682
       619.40000  1.89430e-15     0.100682
       619.50000  1.54794e-10      8230.39
       619.60000  1.54794e-10      8259.80
       619.70000  1.54794e-10      8286.12
       619.80000  1.54794e-10      8309.34
       619.90000  1.54794e-10      8329.46
       620.00000  1.54794e-10      8344.94
       620.10000  1.54794e-10      8357.32
       620.20000  1.54794e-10      8366.61
       620.30000  1.54794e-10      8372.80
       620.40000  1.54794e-10      8374.35
       620.50000  3.87296e-10      20952.7
       620.60000  3.87296e-10      20867.5
       620.70000  3.87296e-10      20786.2
       620.80000  3.87296e-10      20716.5
       620.90000  3.87296e-10      20654.5
       621.00000  3.87296e-10      20600.3
       621.10000  3.87296e-10      20553.8
       621.20000  3.87296e-10      20519.0
       621.30000  3.86799e-10      20461.7
       621.40000  3.86799e-10      20438.5
       621.50000  7.14174e-10      37715.5
       621.60000  7.14174e-10      37844.1
       621.70000  7.14174e-10      37958.3
       621.80000  7.14174e-10      38051.2
       621.90000  7.14174e-10      38136.9
       622.00000  7.14174e-10      38201.2
       622.10000  7.14174e-10      38251.2
       622.20000  7.14174e-10      38279.7
       622.30000  7.14174e-10      38301.1
       622.40000  7.14174e-10      38301.1
       622.50000  8.81163e-10      47239.1
       622.60000  8.81163e-10      47203.9
       622.70000  8.81163e-10      47151.0
       622.80000  8.81163e-10      47080.5
       622.90000  8.81163e-10      46983.6
       623.00000  8.81163e-10      46877.9
       623.10000  8.81163e-10      46745.7
       623.20000  8.81163e-10      46587.1
       623.30000  8.81163e-10      46419.7
       623.40000  8.81163e-10      46225.8
       623.50000  3.57899e-10      18693.1
       623.60000  3.57899e-10      18689.5
       623.70000  3.57899e-10      18689.5
       623.80000  3.57129e-10      18642.1
       623.90000  3.57129e-10      18638.6
       624.00000  3.57129e-10      18631.4
       624.10000  3.57129e-10      18620.7
       624.20000  3.57129e-10      18610.0
       624.30000  3.57129e-10      18599.3
       624.40000  3.57129e-10      18585.0
       624.50000  1.48801e-09      77376.7
       624.60000  1.48801e-09      77079.0
       624.70000  1.48801e-09      76841.0
       624.80000  1.48801e-09      76632.6
       624.90000  1.48801e-09      76469.0
       625.00000  1.48801e-09      76349.9
       625.10000  1.48801e-09      76275.5
       625.20000  1.48801e-09      76230.9
       625.30000  1.48801e-09      76245.8
       625.40000  1.48801e-09      76290.4
       625.50000  1.00245e-09      51455.6
       625.60000  1.00245e-09      51535.8
       625.70000  1.00245e-09      51656.1
       625.80000  1.00245e-09      51796.4
       625.90000  1.00245e-09      51966.8
       626.00000  1.00245e-09      52167.3
       626.10000  1.00245e-09      52397.9
       626.20000  1.00245e-09      52648.5
       626.30000  1.00087e-09      52855.7
       626.40000  1.00087e-09      53166.0
       626.50000  1.33478e-09      71344.2
       626.60000  1.33478e-09      71357.6
       626.70000  1.33478e-09      71370.9
       626.80000  1.33478e-09      71384.3
       626.90000  1.33478e-09      71397.6
       627.00000  1.33478e-09      71411.0
       627.10000  1.33478e-09      71424.3
       627.20000  1.33478e-09      71424.3
       627.30000  1.33478e-09      71437.7
       627.40000  1.33478e-09      71451.0
       627.50000  1.40831e-08      754007.
       627.60000  1.40831e-08      754570.
       627.70000  1.40831e-08      754993.
       627.80000  1.40831e-08      755274.
       627.90000  1.40831e-08      755556.
       628.00000  1.40831e-08      755697.
       628.10000  1.40831e-08      755838.
       628.20000  1.40831e-08      755838.
       628.30000  1.40831e-08      755697.
       628.40000  1.40831e-08      755556.
       628.50000  4.18058e-08  2.24204e+06
       628.60000  4.18058e-08  2.24079e+06
       628.70000  4.18058e-08  2.23954e+06
       628.80000  4.17174e-08  2.23313e+06
       628.90000  4.17174e-08  2.23105e+06
       629.00000  4.17174e-08  2.22896e+06
       629.10000  4.17174e-08  2.22646e+06
       629.20000  4.17174e-08  2.22396e+06
       629.30000  4.17174e-08  2.22104e+06
       629.40000  4.17174e-08  2.21770e+06
       629.50000  1.28098e-08      679946.
       629.60000  1.28098e-08      678537.
       629.70000  1.28098e-08      677128.
       629.80000  1.28098e-08      675847.
       629.90000  1.28098e-08      674694.
       630.00000  1.28098e-08      673541.
       630.10000  1.28098e-08      672388.
       630.20000  1.28098e-08      671491.
       630.30000  1.28098e-08      670467.
       630.40000  1.28098e-08      669698.
       630.50000  2.47945e-08  1.29477e+06
       630.60000  2.47945e-08  1.29328e+06
       630.70000  2.47945e-08  1.29204e+06
       630.80000  2.47945e-08  1.29105e+06
       630.90000  2.47945e-08  1.29006e+06
       631.00000  2.47945e-08  1.28931e+06
       631.10000  2.47945e-08  1.29006e+06
       631.20000  2.47945e-08  1.29080e+06
       631.30000  2.47933e-08  1.29173e+06
       631.40000  2.47933e-08  1.29247e+06
       631.50000  2.25189e-07  1.17459e+07
       631.60000  2.25189e-07  1.17526e+07
       631.70000  2.25189e-07  1.17594e+07
       631.80000  2.25189e-07  1.17639e+07
       631.90000  2.25189e-07  1.17706e+07
       632.00000  2.25189e-07  1.17774e+07
       632.10000  2.25189e-07  1.17842e+07
       632.20000  2.25189e-07  1.17887e+07
       632.30000  2.25189e-07  1.17954e+07
       632.40000  2.25189e-07  1.18022e+07
       632.50000  6.74872e-08  3.53835e+06
       632.60000  6.74872e-08  3.53970e+06
       632.70000  6.74872e-08  3.54173e+06
       632.80000  6.74872e-08  3.54308e+06
       632.90000  6.74872e-08  3.54443e+06
       633.00000  6.74872e-08  3.54645e+06
       633.10000  6.74872e-08  3.54780e+06
       633.20000  6.74872e-08  3.54915e+06
       633.30000  6.74872e-08  3.55050e+06
       633.40000  6.74872e-08  3.55185e+06
       633.50000  1.14690e-07  6.03844e+06
       633.60000  1.14690e-07  6.04073e+06
       633.70000  1.14690e-07  6.04303e+06
       633.80000  1.14673e-07  6.04325e+06
       633.90000  1.14673e-07  6.04554e+06
       634.00000  1.14673e-07  6.04783e+06
       634.10000  1.14673e-07  6.04898e+06
       634.20000  1.14673e-07  6.05127e+06
       634.30000  1.14673e-07  6.05242e+06
       634.40000  1.14673e-07  6.05471e+06
       634.50000  4.87726e-08  2.57568e+06
       634.60000  4.87726e-08  2.57617e+06
       634.70000  4.87726e-08  2.57714e+06
       634.80000  4.87726e-08  2.57763e+06
       634.90000  4.87726e-08  2.57812e+06
       635.00000  4.87726e-08  2.57861e+06
       635.10000  4.87726e-08  2.57909e+06
       635.20000  4.87726e-08  2.57909e+06
       635.30000  4.87726e-08  2.57958e+06
       635.40000  4.87726e-08  2.57958e+06
       635.50000  1.48285e-07  7.84428e+06
       635.60000  1.48285e-07  7.84576e+06
       635.70000  1.48285e-07  7.84576e+06
       635.80000  1.48285e-07  7.84724e+06
       635.90000  1.48285e-07  7.84724e+06
       636.00000  1.48285e-07  7.84872e+06
       636.10000  1.48285e-07  7.84872e+06
       636.20000  1.48285e-07  7.85021e+06
       636.30000  1.47406e-07  7.80368e+06
       636.40000  1.47406e-07  7.80515e+06
       636.50000  1.28094e-07  6.78260e+06
       636.60000  1.28094e-07  6.78388e+06
       636.70000  1.28094e-07  6.78388e+06
       636.80000  1.28094e-07  6.78516e+06
       636.90000  1.28094e-07  6.78516e+06
       637.00000  1.28094e-07  6.78516e+06
       637.10000  1.28094e-07  6.78644e+06
       637.20000  1.28094e-07  6.78644e+06
       637.30000  1.28094e-07  6.78772e+06
       637.40000  1.28094e-07  6.78772e+06
       637.50000  9.38704e-08  4.97419e+06
       637.60000  9.38704e-08  4.97513e+06
       637.70000  9.38704e-08  4.97513e+06
       637.80000  9.38704e-08  4.97607e+06
       637.90000  9.38704e-08  4.97607e+06
       638.00000  9.38704e-08  4.97607e+06
       638.10000  9.38704e-08  4.97701e+06
       638.20000  9.38704e-08  4.97701e+06
       638.30000  9.38704e-08  4.97701e+06
       638.40000  9.38704e-08  4.97794e+06
       638.50000  4.82169e-08  2.55694e+06
       638.60000  4.82169e-08  2.55694e+06
       638.70000  4.82169e-08  2.55742e+06
       638.80000  4.79007e-08  2.54065e+06
       638.90000  4.79007e-08  2.54065e+06
       639.00000  4.79007e-08  2.54065e+06
       639.10000  4.79007e-08  2.53682e+06
       639.20000  4.79007e-08  2.53299e+06
       639.30000  4.79007e-08  2.52916e+06
       639.40000  4.79007e-08  2.52581e+06
       639.50000  2.50141e-08  1.31699e+06
       639.60000  2.50141e-08  1.31549e+06
       639.70000  2.50141e-08  1.31374e+06
       639.80000  2.50141e-08  1.31224e+06
       639.90000  2.50141e-08  1.31099e+06
       640.00000  2.50141e-08  1.30949e+06
       640.10000  2.50141e-08  1.30824e+06
       640.20000  2.50141e-08  1.30724e+06
       640.30000  2.50141e-08  1.30624e+06
       640.40000  2.50141e-08  1.30523e+06
       640.50000  6.67463e-08  3.48015e+06
       640.60000  6.67463e-08  3.47815e+06
       640.70000  6.67463e-08  3.47615e+06
       640.80000  6.67463e-08  3.47481e+06
       640.90000  6.67463e-08  3.47281e+06
       641.00000  6.67463e-08  3.47214e+06
       641.10000  6.67463e-08  3.47348e+06
       641.20000  6.67463e-08  3.47481e+06
       641.30000  6.62948e-08  3.45263e+06
       641.40000  6.62948e-08  3.45396e+06
       641.50000  3.78804e-09      197433.
       641.60000  3.78804e-09      197508.
       641.70000  3.78804e-09      197584.
       641.80000  3.78804e-09      197660.
       641.90000  3.78804e-09      197736.
       642.00000  3.78804e-09      197811.
       642.10000  3.78804e-09      197849.
       642.20000  3.78804e-09      197925.
       642.30000  3.78804e-09      198001.
       642.40000  3.78804e-09      198077.
       642.50000  2.02014e-08  1.05673e+06
       642.60000  2.02014e-08  1.05714e+06
       642.70000  2.02014e-08  1.05754e+06
       642.80000  2.02014e-08  1.05795e+06
       642.90000  2.02014e-08  1.05835e+06
       643.00000  2.02014e-08  1.05875e+06
       643.10000  2.02014e-08  1.05896e+06
       643.20000  2.02014e-08  1.05936e+06
       643.30000  2.02014e-08  1.05976e+06
       643.40000  2.02014e-08  1.06017e+06
       643.50000  1.55591e-08      816855.
       643.60000  1.55591e-08      817166.
       643.70000  1.55591e-08      817321.
       643.80000  1.55384e-08      816544.
       643.90000  1.55384e-08      816854.
       644.00000  1.55384e-08      817165.
       644.10000  1.55384e-08      817476.
       644.20000  1.55384e-08      817631.
       644.30000  1.55384e-08      817942.
       644.40000  1.55384e-08      818253.
       644.50000  7.19999e-09      379295.
       644.60000  7.19999e-09      379367.
       644.70000  7.19999e-09      379511.
       644.80000  7.19999e-09      379655.
       644.90000  7.19999e-09      379799.
       645.00000  7.19999e-09      379871.
       645.10000  7.19999e-09      379799.
       645.20000  7.19999e-09      379655.
       645.30000  7.19999e-09      379583.
       645.40000  7.19999e-09      379439.
       645.50000  7.07080e-09      372419.
       645.60000  7.07080e-09      372278.
       645.70000  7.07080e-09      372136.
       645.80000  7.07080e-09      371924.
       645.90000  7.07080e-09      371712.
       646.00000  7.07080e-09      371500.
       646.10000  7.07080e-09      371288.
       646.20000  7.07080e-09      371076.
       646.30000  7.06647e-09      370565.
       646.40000  7.06647e-09      370283.
       646.50000  3.65572e-09      191450.
       646.60000  3.65572e-09      191267.
       646.70000  3.65572e-09      191121.
       646.80000  3.65572e-09      190975.
       646.90000  3.65572e-09      190792.
       647.00000  3.65572e-09      190646.
       647.10000  3.65572e-09      190134.
       647.20000  3.65572e-09      189659.
       647.30000  3.65572e-09      189220.
       647.40000  3.65572e-09      188781.
       647.50000  1.65656e-09      85362.5
       647.60000  1.65656e-09      85213.5
       647.70000  1.65656e-09      85047.8
       647.80000  1.65656e-09      84915.3
       647.90000  1.65656e-09      84782.8
       648.00000  1.65656e-09      84666.8
       648.10000  1.65656e-09      84567.4
       648.20000  1.65656e-09      84484.6
       648.30000  1.65656e-09      84401.7
       648.40000  1.65656e-09      84335.5
       648.50000  1.81577e-09      92386.5
       648.60000  1.81577e-09      92350.2
       648.70000  1.81577e-09      92313.9
       648.80000  1.81765e-09      92391.2
       648.90000  1.81765e-09      92391.2
       649.00000  1.81765e-09      92409.4
       649.10000  1.81765e-09      92427.6
       649.20000  1.81765e-09      92482.1
       649.30000  1.81765e-09      92518.5
       649.40000  1.81765e-09      92591.2
       649.50000  1.03790e-09      52922.4
       649.60000  1.03790e-09      52974.3
       649.70000  1.03790e-09      53036.6
       649.80000  1.03790e-09      53109.3
       649.90000  1.03790e-09      53181.9
       650.00000  1.03790e-09      53264.9
       650.10000  1.03790e-09      53358.4
       650.20000  1.03790e-09      53462.1
       650.30000  1.03790e-09      53576.3
       650.40000  1.03790e-09      53690.5
       650.50000  1.53915e-10      7980.51
       650.60000  1.53915e-10      8000.52
       650.70000  1.53915e-10      8020.53
       650.80000  1.53915e-10      8043.62
       650.90000  1.53915e-10      8066.70
       651.00000  1.53915e-10      8091.33
       651.10000  1.53915e-10      8097.49
       651.20000  1.53915e-10      8103.64
       651.30000  1.53722e-10      8098.09
       651.40000  1.53722e-10      8102.71
       651.50000  1.25975e-11      664.390
       651.60000  1.25975e-11      664.516
       651.70000  1.25975e-11      664.768
       651.80000  1.25975e-11      664.894
       651.90000  1.25975e-11      664.894
       652.00000  1.25975e-11      664.894
       652.10000  1.25975e-11      664.768
       652.20000  1.25975e-11      664.642
       652.30000  1.25975e-11      664.516
       652.40000  1.25975e-11      664.264
       652.50000  1.85111e-10      9755.34
       652.60000  1.85111e-10      9749.79
       652.70000  1.85111e-10      9744.23
       652.80000  1.85111e-10      9734.98
       652.90000  1.85111e-10      9727.57
       653.00000  1.85111e-10      9718.32
       653.10000  1.85111e-10      9710.92
       653.20000  1.85111e-10      9703.51
       653.30000  1.85111e-10      9692.40
       653.40000  1.85111e-10      9681.30
       653.50000  9.99616e-11      5221.99
       653.60000  9.99616e-11      5215.00
       653.70000  9.99616e-11      5207.00
       653.80000  9.98398e-11      5191.67
       653.90000  9.98398e-11      5182.68
       654.00000  9.98398e-11      5172.70
       654.10000  9.98398e-11      5162.72
       654.20000  9.98398e-11      5150.74
       654.30000  9.98398e-11      5138.76
       654.40000  9.98398e-11      5126.77
       654.50000  2.66048e-11      1362.70
       654.60000  2.66048e-11      1358.97
       654.70000  2.66048e-11      1354.98
       654.80000  2.66048e-11      1350.99
       654.90000  2.66048e-11      1346.73
       655.00000  2.66048e-11      1342.21
       655.10000  2.66048e-11      1329.44
       655.20000  2.66048e-11      1317.20
       655.30000  2.66048e-11      1305.76
       655.40000  2.66048e-11      1295.12
       655.50000  1.93549e-11      934.842
       655.60000  1.93549e-11      928.068
       655.70000  1.93549e-11      921.681
       655.80000  1.93549e-11      915.874
       655.90000  1.93549e-11      910.455
       656.00000  1.93549e-11      905.616
       656.10000  1.93549e-11      901.358
       656.20000  1.93549e-11      897.487
       656.30000  1.93402e-11      893.517
       656.40000  1.93402e-11      890.616
       656.50000  3.57509e-11      1642.04
       656.60000  3.57509e-11      1638.82
       656.70000  3.57509e-11      1636.32
       656.80000  3.57509e-11      1634.89
       656.90000  3.57509e-11      1634.17
       657.00000  3.57509e-11      1634.53
       657.10000  3.57509e-11      1648.47
       657.20000  3.57509e-11      1662.06
       657.30000  3.57509e-11      1675.29
       657.40000  3.57509e-11      1688.16
       657.50000  3.69828e-11      1758.90
       657.60000  3.69828e-11      1771.48
       657.70000  3.69828e-11      1783.31
       657.80000  3.69828e-11      1794.78
       657.90000  3.69828e-11      1805.50
       658.00000  3.69828e-11      1816.23
       658.10000  3.69828e-11      1826.58
       658.20000  3.69828e-11      1836.20
       658.30000  3.69828e-11      1845.44
       658.40000  3.69828e-11      1854.32
       658.50000  1.73238e-11      872.429
       658.60000  1.73238e-11      876.240
       658.70000  1.73238e-11      879.705
       658.80000  1.73059e-11      882.252
       658.90000  1.73059e-11      885.367
       659.00000  1.73059e-11      888.136
       659.10000  1.73059e-11      890.905
       659.20000  1.73059e-11      893.501
       659.30000  1.73059e-11      895.751
       659.40000  1.73059e-11      897.828
       659.50000  3.30626e-12      171.893
       659.60000  3.30626e-12      172.223
       659.70000  3.30626e-12      172.488
       659.80000  3.30626e-12      172.752
       659.90000  3.30626e-12      172.951
       660.00000  3.30626e-12      173.116
       660.10000  3.30626e-12      173.248
       660.20000  3.30626e-12      173.314
       660.30000  3.30626e-12      173.381
       660.40000  3.30626e-12      173.381
       660.50000  4.76192e-12      249.667
       660.60000  4.76192e-12      249.572
       660.70000  4.76192e-12      249.429
       660.80000  4.76192e-12      249.191
       660.90000  4.76192e-12      248.953
       661.00000  4.76192e-12      248.620
       661.10000  4.76192e-12      248.477
       661.20000  4.76192e-12      248.286
       661.30000  4.75009e-12      247.527
       661.40000  4.75009e-12      247.385
       661.50000  7.77938e-12      404.917
       661.60000  7.77938e-12      404.761
       661.70000  7.77938e-12      404.528
       661.80000  7.77938e-12      404.372
       661.90000  7.77938e-12      404.217
       662.00000  7.77938e-12      404.061
       662.10000  7.77938e-12      403.906
       662.20000  7.77938e-12      403.750
       662.30000  7.77938e-12      403.672
       662.40000  7.77938e-12      403.594
       662.50000  6.85196e-12      355.342
       662.60000  6.85196e-12      355.342
       662.70000  6.85196e-12      355.274
       662.80000  6.85196e-12      355.205
       662.90000  6.85196e-12      355.205
       663.00000  6.85196e-12      355.205
       663.10000  6.85196e-12      355.479
       663.20000  6.85196e-12      355.685
       663.30000  6.85196e-12      355.959
       663.40000  6.85196e-12      356.165
       663.50000  2.27616e-12      118.383
       663.60000  2.27616e-12      118.451
       663.70000  2.27616e-12      118.497
       663.80000  2.27130e-12      118.312
       663.90000  2.27130e-12      118.358
       664.00000  2.27130e-12      118.380
       664.10000  2.27130e-12      118.426
       664.20000  2.27130e-12      118.448
       664.30000  2.27130e-12      118.471
       664.40000  2.27130e-12      118.494
       664.50000  3.89077e-12      202.982
       664.60000  3.89077e-12      202.982
       664.70000  3.89077e-12      202.982
       664.80000  3.89077e-12      202.982
       664.90000  3.89077e-12      202.982
       665.00000  3.89077e-12      202.943
       665.10000  3.89077e-12      202.904
       665.20000  3.89077e-12      202.865
       665.30000  3.89077e-12      202.787
       665.40000  3.89077e-12      202.709
       665.50000  7.46057e-12      388.546
       665.60000  7.46057e-12      388.397
       665.70000  7.46057e-12      388.173
       665.80000  7.46057e-12      388.024
       665.90000  7.46057e-12      387.800
       666.00000  7.46057e-12      387.502
       666.10000  7.46057e-12      387.278
       666.20000  7.46057e-12      386.980
       666.30000  7.44183e-12      385.710
       666.40000  7.44183e-12      385.412
       666.50000  2.29196e-12      118.586
       666.60000  2.29196e-12      118.472
       666.70000  2.29196e-12      118.357
       666.80000  2.29196e-12      118.242
       666.90000  2.29196e-12      118.128
       667.00000  2.29196e-12      117.990
       667.10000  2.29196e-12      118.128
       667.20000  2.29196e-12      118.242
       667.30000  2.29196e-12      118.357
       667.40000  2.29196e-12      118.472
       667.50000  3.20653e-12      165.906
       667.60000  3.20653e-12      166.034
       667.70000  3.20653e-12      166.162
       667.80000  3.20653e-12      166.258
       667.90000  3.20653e-12      166.355
       668.00000  3.20653e-12      166.451
       668.10000  3.20653e-12      166.547
       668.20000  3.20653e-12      166.611
       668.30000  3.20653e-12      166.675
       668.40000  3.20653e-12      166.707
       668.50000  7.56959e-13      39.3619
       668.60000  7.56959e-13      39.3694
       668.70000  7.56959e-13      39.3694
       668.80000  7.55721e-13      39.3050
       668.90000  7.55721e-13      39.3050
       669.00000  7.55721e-13      39.2975
       669.10000  7.55721e-13      39.2446
       669.20000  7.55721e-13      39.1917
       669.30000  7.55721e-13      39.1463
       669.40000  7.55721e-13      39.1010
       669.50000  3.09749e-12      160.078
       669.60000  3.09749e-12      159.892
       669.70000  3.09749e-12      159.737
       669.80000  3.09749e-12      159.582
       669.90000  3.09749e-12      159.428
       670.00000  3.09749e-12      159.304
       670.10000  3.09749e-12      159.180
       670.20000  3.09749e-12      159.056
       670.30000  3.09749e-12      158.932
       670.40000  3.09749e-12      158.839
       670.50000  1.42236e-12      72.8960
       670.60000  1.42236e-12      72.8534
       670.70000  1.42236e-12      72.8249
       670.80000  1.42236e-12      72.7965
       670.90000  1.42236e-12      72.7680
       671.00000  1.42236e-12      72.7538
       671.10000  1.42236e-12      72.7254
       671.20000  1.42236e-12      72.7254
       671.30000  1.42242e-12      72.7139
       671.40000  1.42242e-12      72.7139
       671.50000  1.76124e-12      90.0346
       671.60000  1.76124e-12      90.0346
       671.70000  1.76124e-12      90.0346
       671.80000  1.76124e-12      90.0522
       671.90000  1.76124e-12      90.0698
       672.00000  1.76124e-12      90.1051
       672.10000  1.76124e-12      90.1403
       672.20000  1.76124e-12      90.1755
       672.30000  1.76124e-12      90.2107
       672.40000  1.76124e-12      90.2636
       672.50000  6.32004e-13      32.4092
       672.60000  6.32004e-13      32.4281
       672.70000  6.32004e-13      32.4471
       672.80000  6.32004e-13      32.4724
       672.90000  6.32004e-13      32.4977
       673.00000  6.32004e-13      32.5293
       673.10000  6.32004e-13      32.5166
       673.20000  6.32004e-13      32.5040
       673.30000  6.32004e-13      32.4913
       673.40000  6.32004e-13      32.4850
       673.50000  1.31462e-12      67.5452
       673.60000  1.31462e-12      67.5320
       673.70000  1.31462e-12      67.5189
       673.80000  1.31515e-12      67.5196
       673.90000  1.31515e-12      67.5064
       674.00000  1.31515e-12      67.4933
       674.10000  1.31515e-12      67.4801
       674.20000  1.31515e-12      67.4669
       674.30000  1.31515e-12      67.4538
       674.40000  1.31515e-12      67.4407
       674.50000  3.59827e-13      18.4483
       674.60000  3.59827e-13      18.4483
       674.70000  3.59827e-13      18.4447
       674.80000  3.59827e-13      18.4447
       674.90000  3.59827e-13      18.4411
       675.00000  3.59827e-13      18.4411
       675.10000  3.59827e-13      18.4447
       675.20000  3.59827e-13      18.4483
       675.30000  3.59827e-13      18.4519
       675.40000  3.59827e-13      18.4555
       675.50000  1.85188e-12      94.9827
       675.60000  1.85188e-12      95.0013
       675.70000  1.85188e-12      95.0198
       675.80000  1.85188e-12      95.0198
       675.90000  1.85188e-12      95.0383
       676.00000  1.85188e-12      95.0383
       676.10000  1.85188e-12      95.0568
       676.20000  1.85188e-12      95.0568
       676.30000  1.84999e-12      94.9599
       676.40000  1.84999e-12      94.9599
       676.50000  1.95056e-13      10.0142
       676.60000  1.95056e-13      10.0142
       676.70000  1.95056e-13      10.0142
       676.80000  1.95056e-13      10.0122
       676.90000  1.95056e-13      10.0122
       677.00000  1.95056e-13      10.0122
       677.10000  1.95056e-13      10.0122
       677.20000  1.95056e-13      10.0103
       677.30000  1.95056e-13      10.0103
       677.40000  1.95056e-13      10.0083
       677.50000  1.08924e-12      55.8890
       677.60000  1.08924e-12      55.8781
       677.70000  1.08924e-12      55.8781
       677.80000  1.08924e-12      55.8672
       677.90000  1.08924e-12      55.8563
       678.00000  1.08924e-12      55.8455
       678.10000  1.08924e-12      55.8346
       678.20000  1.08924e-12      55.8237
       678.30000  1.08924e-12      55.8128
       678.40000  1.08924e-12      55.8019
       678.50000  1.76693e-12      90.4844
       678.60000  1.76693e-12      90.4668
       678.70000  1.76693e-12      90.4491
       678.80000  1.76680e-12      90.4069
       678.90000  1.76680e-12      90.3893
       679.00000  1.76680e-12      90.3539
       679.10000  1.76680e-12      90.3539
       679.20000  1.76680e-12      90.3716
       679.30000  1.76680e-12      90.3716
       679.40000  1.76680e-12      90.3716
       679.50000  1.79705e-12      91.9191
       679.60000  1.79705e-12      91.9191
       679.70000  1.79705e-12      91.9191
       679.80000  1.79705e-12      91.9191
       679.90000  1.79705e-12      91.9191
       680.00000  1.79705e-12      91.9011
       680.10000  1.79705e-12      91.9011
       680.20000  1.79705e-12      91.9011
       680.30000  1.79705e-12      91.8831
       680.40000  1.79705e-12      91.8831
       680.50000  3.67158e-13      18.7691
       680.60000  3.67158e-13      18.7691
       680.70000  3.67158e-13      18.7654
       680.80000  3.67158e-13      18.7618
       680.90000  3.67158e-13      18.7581
       681.00000  3.67158e-13      18.7581
       681.10000  3.67158e-13      18.7544
       681.20000  3.67158e-13      18.7507
       681.30000  3.67123e-13      18.7490
       681.40000  3.67123e-13      18.7453
       681.50000  4.76094e-13      24.3046
       681.60000  4.76094e-13      24.2999
       681.70000  4.76094e-13      24.2951
       681.80000  4.76094e-13      24.2856
       681.90000  4.76094e-13      24.2808
       682.00000  4.76094e-13      24.2761
       682.10000  4.76094e-13      24.2665
       682.20000  4.76094e-13      24.2570
       682.30000  4.76094e-13      24.2522
       682.40000  4.76094e-13      24.2427
       682.50000  1.69837e-12      86.4472
       682.60000  1.69837e-12      86.4132
       682.70000  1.69837e-12      86.3793
       682.80000  1.69837e-12      86.3453
       682.90000  1.69837e-12      86.2943
       683.00000  1.69837e-12      86.2604
       683.10000  1.69837e-12      86.2264
       683.20000  1.69837e-12      86.1755
       683.30000  1.69837e-12      86.1245
       683.40000  1.69837e-12      86.0736
       683.50000  1.65376e-12      83.7794
       683.60000  1.65376e-12      83.7298
       683.70000  1.65376e-12      83.6802
       683.80000  1.65249e-12      83.5499
       683.90000  1.65249e-12      83.5004
       684.00000  1.65249e-12      83.4508
       684.10000  1.65249e-12      83.3847
       684.20000  1.65249e-12      83.3351
       684.30000  1.65249e-12      83.2690
       684.40000  1.65249e-12      83.2194
       684.50000  6.59771e-13      33.1997
       684.60000  6.59771e-13      33.1733
       684.70000  6.59771e-13      33.1469
       684.80000  6.59771e-13      33.1205
       684.90000  6.59771e-13      33.0875
       685.00000  6.59771e-13      33.0611
       685.10000  6.59771e-13      33.0875
       685.20000  6.59771e-13      33.1205
       685.30000  6.59771e-13      33.1469
       685.40000  6.59771e-13      33.1667
       685.50000  1.09093e-12      54.8849
       685.60000  1.09093e-12      54.9286
       685.70000  1.09093e-12      54.9613
       685.80000  1.09093e-12      54.9940
       685.90000  1.09093e-12      55.0268
       686.00000  1.09093e-12      55.0595
       686.10000  1.09093e-12      55.0922
       686.20000  1.09093e-12      55.1140
       686.30000  1.08979e-12      55.0888
       686.40000  1.08979e-12      55.1106
       686.50000  1.15725e-12      58.5451
       686.60000  1.15725e-12      58.5682
       686.70000  1.15725e-12      58.5914
       686.80000  1.15725e-12      58.6029
       686.90000  1.15725e-12      58.6261
       687.00000  1.15725e-12      58.6376
       687.10000  1.15725e-12      58.6492
       687.20000  1.15725e-12      58.6492
       687.30000  1.15725e-12      58.6492
       687.40000  1.15725e-12      58.6492
       687.50000  1.16281e-12      58.9313
       687.60000  1.16281e-12      58.9313
       687.70000  1.16281e-12      58.9313
       687.80000  1.16281e-12      58.9313
       687.90000  1.16281e-12      58.9313
       688.00000  1.16281e-12      58.9197
       688.10000  1.16281e-12      58.9197
       688.20000  1.16281e-12      58.9197
       688.30000  1.16281e-12      58.9081
       688.40000  1.16281e-12      58.9081
       688.50000  8.01735e-14      4.06079
       688.60000  8.01735e-14      4.05999
       688.70000  8.01735e-14      4.05999
       688.80000  8.00712e-14      4.05401
       688.90000  8.00712e-14      4.05321
       689.00000  8.00712e-14      4.05240
       689.10000  8.00712e-14      4.05160
       689.20000  8.00712e-14      4.05080
       689.30000  8.00712e-14      4.05000
       689.40000  8.00712e-14      4.04920
       689.50000  1.04771e-12      52.9720
       689.60000  1.04771e-12      52.9615
       689.70000  1.04771e-12      52.9406
       689.80000  1.04771e-12      52.9301
       689.90000  1.04771e-12      52.9196
       690.00000  1.04771e-12      52.8987
       690.10000  1.04771e-12      52.8777
       690.20000  1.04771e-12      52.8672
       690.30000  1.04771e-12      52.8463
       690.40000  1.04771e-12      52.8253
       690.50000  6.18483e-13      31.1777
       690.60000  6.18483e-13      31.1653
       690.70000  6.18483e-13      31.1530
       690.80000  6.18483e-13      31.1406
       690.90000  6.18483e-13      31.1282
       691.00000  6.18483e-13      31.1159
       691.10000  6.18483e-13      31.1282
       691.20000  6.18483e-13      31.1344
       691.30000  6.17892e-13      31.1170
       691.40000  6.17892e-13      31.1232
       691.50000  4.72521e-13      23.8056
       691.60000  4.72521e-13      23.8151
       691.70000  4.72521e-13      23.8198
       691.80000  4.72521e-13      23.8245
       691.90000  4.72521e-13      23.8292
       692.00000  4.72521e-13      23.8292
       692.10000  4.72521e-13      23.8340
       692.20000  4.72521e-13      23.8387
       692.30000  4.72521e-13      23.8387
       692.40000  4.72521e-13      23.8387
       692.50000  8.50569e-14      4.29197
       692.60000  8.50569e-14      4.29197
       692.70000  8.50569e-14      4.29197
       692.80000  8.50569e-14      4.29197
       692.90000  8.50569e-14      4.29197
       693.00000  8.50569e-14      4.29112
       693.10000  8.50569e-14      4.29112
       693.20000  8.50569e-14      4.29027
       693.30000  8.50569e-14      4.28942
       693.40000  8.50569e-14      4.28857
       693.50000  7.12029e-13      35.8934
       693.60000  7.12029e-13      35.8862
       693.70000  7.12029e-13      35.8791
       693.80000  7.09204e-13      35.7297
       693.90000  7.09204e-13      35.7155
       694.00000  7.09204e-13      35.7084
       694.10000  7.09204e-13      35.7013
       694.20000  7.09204e-13      35.6871
       694.30000  7.09204e-13      35.6800
       694.40000  7.09204e-13      35.6659
       694.50000  1.72848e-13      8.68907
       694.60000  1.72848e-13      8.68734
       694.70000  1.72848e-13      8.68389
       694.80000  1.72848e-13      8.68043
       694.90000  1.72848e-13      8.67697
       695.00000  1.72848e-13      8.67352
       695.10000  1.72848e-13      8.67006
       695.20000  1.72848e-13      8.66660
       695.30000  1.72848e-13      8.66142
       695.40000  1.72848e-13      8.65796
       695.50000  1.09477e-13      5.48154
       695.60000  1.09477e-13      5.47825
       695.70000  1.09477e-13      5.47606
       695.80000  1.09477e-13      5.47278
       695.90000  1.09477e-13      5.46949
       696.00000  1.09477e-13      5.46731
       696.10000  1.09477e-13      5.46402
       696.20000  1.09477e-13      5.46074
       696.30000  1.09370e-13      5.45209
       696.40000  1.09370e-13      5.44881
       696.50000  1.30385e-13      6.49187
       696.60000  1.30385e-13      6.48796
       696.70000  1.30385e-13      6.48274
       696.80000  1.30385e-13      6.47883
       696.90000  1.30385e-13      6.47492
       697.00000  1.30385e-13      6.46970
       697.10000  1.30385e-13      6.47883
       697.20000  1.30385e-13      6.48535
       697.30000  1.30385e-13      6.49317
       697.40000  1.30385e-13      6.49969
       697.50000  4.82851e-13      24.0943
       697.60000  4.82851e-13      24.1136
       697.70000  4.82851e-13      24.1329
       697.80000  4.82851e-13      24.1474
       697.90000  4.82851e-13      24.1619
       698.00000  4.82851e-13      24.1715
       698.10000  4.82851e-13      24.1812
       698.20000  4.82851e-13      24.1908
       698.30000  4.82851e-13      24.1957
       698.40000  4.82851e-13      24.2005
       698.50000  2.29646e-13      11.5121
       698.60000  2.29646e-13      11.5121
       698.70000  2.29646e-13      11.5098
       698.80000  2.29254e-13      11.4879
       698.90000  2.29254e-13      11.4856
       699.00000  2.29254e-13      11.4810
       699.10000  2.29254e-13      11.4604
       699.20000  2.29254e-13      11.4375
       699.30000  2.29254e-13      11.4191
       699.40000  2.29254e-13      11.3985
       699.50000  4.52548e-13      22.4645
       699.60000  4.52548e-13      22.4283
       699.70000  4.52548e-13      22.3966
       699.80000  4.52548e-13      22.3649
       699.90000  4.52548e-13      22.3333
       700.00000  4.52548e-13      22.3061
       700.10000  4.52548e-13      22.2790
       700.20000  4.52548e-13      22.2518
       700.30000  4.52548e-13      22.2292
       700.40000  4.52548e-13      22.2065
       700.50000  3.51506e-14      1.72308
       700.60000  3.51506e-14      1.72168
       700.70000  3.51506e-14      1.72027
       700.80000  3.51506e-14      1.71922
       700.90000  3.51506e-14      1.71816
       701.00000  3.51506e-14      1.71711
       701.10000  3.51506e-14      1.71676
       701.20000  3.51506e-14      1.71640
       701.30000  3.51266e-14      1.71488
       701.40000  3.51266e-14      1.71488
       701.50000  6.33315e-13      30.9184
       701.60000  6.33315e-13      30.9184
       701.70000  6.33315e-13      30.9184
       701.80000  6.33315e-13      30.9248
       701.90000  6.33315e-13      30.9248
       702.00000  6.33315e-13      30.9311
       702.10000  6.33315e-13      30.9438
       702.20000  6.33315e-13      30.9501
       702.30000  6.33315e-13      30.9628
       702.40000  6.33315e-13      30.9691
       702.50000  4.99937e-13      24.4569
       702.60000  4.99937e-13      24.4719
       702.70000  4.99937e-13      24.4819
       702.80000  4.99937e-13      24.4969
       702.90000  4.99937e-13      24.5119
       703.00000  4.99937e-13      24.5269
       703.10000  4.99937e-13      24.5719
       703.20000  4.99937e-13      24.6169
       703.30000  4.99937e-13      24.6569
       703.40000  4.99937e-13      24.6969
       703.50000  2.73702e-13      13.5400
       703.60000  2.73702e-13      13.5619
       703.70000  2.73702e-13      13.5784
       703.80000  2.72966e-13      13.5609
       703.90000  2.72966e-13      13.5773
       704.00000  2.72966e-13      13.5910
       704.10000  2.72966e-13      13.6073
       704.20000  2.72966e-13      13.6210
       704.30000  2.72966e-13      13.6319
       704.40000  2.72966e-13      13.6428
       704.50000  3.36185e-13      16.8160
       704.60000  3.36185e-13      16.8294
       704.70000  3.36185e-13      16.8395
       704.80000  3.36185e-13      16.8462
       704.90000  3.36185e-13      16.8563
       705.00000  3.36185e-13      16.8631
       705.10000  3.36185e-13      16.8664
       705.20000  3.36185e-13      16.8698
       705.30000  3.36185e-13      16.8731
       705.40000  3.36185e-13      16.8765
       705.50000  3.83065e-13      19.2298
       705.60000  3.83065e-13      19.2298
       705.70000  3.83065e-13      19.2260
       705.80000  3.83065e-13      19.2222
       705.90000  3.83065e-13      19.2184
       706.00000  3.83065e-13      19.2107
       706.10000  3.83065e-13      19.2030
       706.20000  3.83065e-13      19.1915
       706.30000  3.83353e-13      19.1945
       706.40000  3.83353e-13      19.1830
       706.50000  3.06313e-13      15.3157
       706.60000  3.06313e-13      15.3034
       706.70000  3.06313e-13      15.2912
       706.80000  3.06313e-13      15.2758
       706.90000  3.06313e-13      15.2605
       707.00000  3.06313e-13      15.2452
       707.10000  3.06313e-13      15.2330
       707.20000  3.06313e-13      15.2238
       707.30000  3.06313e-13      15.2115
       707.40000  3.06313e-13      15.2023
       707.50000  1.28532e-13      6.37517
       707.60000  1.28532e-13      6.37131
       707.70000  1.28532e-13      6.36874
       707.80000  1.28532e-13      6.36488
       707.90000  1.28532e-13      6.36231
       708.00000  1.28532e-13      6.35974
       708.10000  1.28532e-13      6.35717
       708.20000  1.28532e-13      6.35460
       708.30000  1.28532e-13      6.35203
       708.40000  1.28532e-13      6.34946
       708.50000  3.83277e-13      18.9300
       708.60000  3.83277e-13      18.9224
       708.70000  3.83277e-13      18.9185
       708.80000  3.81972e-13      18.8503
       708.90000  3.81972e-13      18.8465
       709.00000  3.81972e-13      18.8465
       709.10000  3.81972e-13      18.8541
       709.20000  3.81972e-13      18.8618
       709.30000  3.81972e-13      18.8656
       709.40000  3.81972e-13      18.8732
       709.50000  1.92112e-13      9.49420
       709.60000  1.92112e-13      9.49804
       709.70000  1.92112e-13      9.49996
       709.80000  1.92112e-13      9.50188
       709.90000  1.92112e-13      9.50380
       710.00000  1.92112e-13      9.50572
       710.10000  1.92112e-13      9.50765
       710.20000  1.92112e-13      9.50957
       710.30000  1.92112e-13      9.50957
       710.40000  1.92112e-13      9.51149
       710.50000  3.88777e-13      19.2483
       710.60000  3.88777e-13      19.2483
       710.70000  3.88777e-13      19.2483
       710.80000  3.88777e-13      19.2483
       710.90000  3.88777e-13      19.2483
       711.00000  3.88777e-13      19.2483
       711.10000  3.88777e-13      19.2483
       711.20000  3.88777e-13      19.2445
       711.30000  3.88861e-13      19.2486
       711.40000  3.88861e-13      19.2447
       711.50000  1.53760e-13      7.60804
       711.60000  1.53760e-13      7.60650
       711.70000  1.53760e-13      7.60496
       711.80000  1.53760e-13      7.60342
       711.90000  1.53760e-13      7.60189
       712.00000  1.53760e-13      7.59881
       712.10000  1.53760e-13      7.59727
       712.20000  1.53760e-13      7.59420
       712.30000  1.53760e-13      7.59266
       712.40000  1.53760e-13      7.58959
       712.50000  7.02785e-13      34.6754
       712.60000  7.02785e-13      34.6614
       712.70000  7.02785e-13      34.6403
       712.80000  7.02785e-13      34.6262
       712.90000  7.02785e-13      34.6122
       713.00000  7.02785e-13      34.5911
       713.10000  7.02785e-13      34.5911
       713.20000  7.02785e-13      34.5911
       713.30000  7.02785e-13      34.5911
       713.40000  7.02785e-13      34.5840
       713.50000  6.04876e-13      29.7660
       713.60000  6.04876e-13      29.7660
       713.70000  6.04876e-13      29.7599
       713.80000  6.04735e-13      29.7530
       713.90000  6.04735e-13      29.7469
       714.00000  6.04735e-13      29.7469
       714.10000  6.04735e-13      29.7409
       714.20000  6.04735e-13      29.7348
       714.30000  6.04735e-13      29.7348
       714.40000  6.04735e-13      29.7288
       714.50000  1.51412e-13      7.44192
       714.60000  1.51412e-13      7.44041
       714.70000  1.51412e-13      7.44041
       714.80000  1.51412e-13      7.43889
       714.90000  1.51412e-13      7.43738
       715.00000  1.51412e-13      7.43587
       715.10000  1.51412e-13      7.43435
       715.20000  1.51412e-13      7.43435
       715.30000  1.51412e-13      7.43435
       715.40000  1.51412e-13      7.43284
       715.50000  6.08244e-13      29.8526
       715.60000  6.08244e-13      29.8466
       715.70000  6.08244e-13      29.8405
       715.80000  6.08244e-13      29.8344
       715.90000  6.08244e-13      29.8283
       716.00000  6.08244e-13      29.8161
       716.10000  6.08244e-13      29.8101
       716.20000  6.08244e-13      29.7979
       716.30000  6.07368e-13      29.7428
       716.40000  6.07368e-13      29.7306
       716.50000  2.96699e-13      14.5175
       716.60000  2.96699e-13      14.5116
       716.70000  2.96699e-13      14.5056
       716.80000  2.96699e-13      14.4967
       716.90000  2.96699e-13      14.4908
       717.00000  2.96699e-13      14.4819
       717.10000  2.96699e-13      14.4730
       717.20000  2.96699e-13      14.4641
       717.30000  2.96699e-13      14.4552
       717.40000  2.96699e-13      14.4463
       717.50000  2.62685e-13      12.7823
       717.60000  2.62685e-13      12.7718
       717.70000  2.62685e-13      12.7639
       717.80000  2.62685e-13      12.7534
       717.90000  2.62685e-13      12.7429
       718.00000  2.62685e-13      12.7324
       718.10000  2.62685e-13      12.7219
       718.20000  2.62685e-13      12.7113
       718.30000  2.62685e-13      12.7008
       718.40000  2.62685e-13      12.6877
       718.50000  2.92813e-13      14.1312
       718.60000  2.92813e-13      14.1165
       718.70000  2.92813e-13      14.1019
       718.80000  2.91611e-13      14.0294
       718.90000  2.91611e-13      14.0148
       719.00000  2.91611e-13      14.0002
       719.10000  2.91611e-13      14.0002
       719.20000  2.91611e-13      14.0002
       719.30000  2.91611e-13      14.0002
       719.40000  2.91611e-13      14.0031
       719.50000  3.71927e-13      17.8599
       719.60000  3.71927e-13      17.8636
       719.70000  3.71927e-13      17.8636
       719.80000  3.71927e-13      17.8674
       719.90000  3.71927e-13      17.8711
       720.00000  3.71927e-13      17.8785
       720.10000  3.71927e-13      17.8822
       720.20000  3.71927e-13      17.8860
       720.30000  3.71927e-13      17.8934
       720.40000  3.71927e-13      17.8971
       720.50000  8.87360e-13      42.7175
       720.60000  8.87360e-13      42.7353
       720.70000  8.87360e-13      42.7530
       720.80000  8.87360e-13      42.7708
       720.90000  8.87360e-13      42.7974
       721.00000  8.87360e-13      42.8151
       721.10000  8.87360e-13      42.8595
       721.20000  8.87360e-13      42.9039
       721.30000  8.85554e-13      42.8608
       721.40000  8.85554e-13      42.8962
       721.50000  6.24648e-13      30.2892
       721.60000  6.24648e-13      30.3142
       721.70000  6.24648e-13      30.3391
       721.80000  6.24648e-13      30.3704
       721.90000  6.24648e-13      30.3954
       722.00000  6.24648e-13      30.4141
       722.10000  6.24648e-13      30.4391
       722.20000  6.24648e-13      30.4641
       722.30000  6.24648e-13      30.4828
       722.40000  6.24648e-13      30.5016
       722.50000  1.02809e-12      50.2324
       722.60000  1.02809e-12      50.2735
       722.70000  1.02809e-12      50.2941
       722.80000  1.02809e-12      50.3249
       722.90000  1.02809e-12      50.3558
       723.00000  1.02809e-12      50.3763
       723.10000  1.02809e-12      50.4072
       723.20000  1.02809e-12      50.4277
       723.30000  1.02809e-12      50.4483
       723.40000  1.02809e-12      50.4689
       723.50000  1.22568e-12      60.1931
       723.60000  1.22568e-12      60.2054
       723.70000  1.22568e-12      60.2299
       723.80000  1.22192e-12      60.0573
       723.90000  1.22192e-12      60.0695
       724.00000  1.22192e-12      60.0818
       724.10000  1.22192e-12      60.0940
       724.20000  1.22192e-12      60.1062
       724.30000  1.22192e-12      60.1184
       724.40000  1.22192e-12      60.1306
       724.50000  5.11892e-12      251.902
       724.60000  5.11892e-12      251.902
       724.70000  5.11892e-12      251.902
       724.80000  5.11892e-12      251.902
       724.90000  5.11892e-12      251.902
       725.00000  5.11892e-12      251.902
       725.10000  5.11892e-12      252.004
       725.20000  5.11892e-12      252.107
       725.30000  5.11892e-12      252.158
       725.40000  5.11892e-12      252.260
       725.50000  2.71625e-12      133.884
       725.60000  2.71625e-12      133.911
       725.70000  2.71625e-12      133.911
       725.80000  2.71625e-12      133.938
       725.90000  2.71625e-12      133.938
       726.00000  2.71625e-12      133.938
       726.10000  2.71625e-12      133.938
       726.20000  2.71625e-12      133.938
       726.30000  2.70919e-12      133.563
       726.40000  2.70919e-12      133.536
       726.50000  5.18869e-12      255.698
       726.60000  5.18869e-12      255.647
       726.70000  5.18869e-12      255.595
       726.80000  5.18869e-12      255.491
       726.90000  5.18869e-12      255.387
       727.00000  5.18869e-12      255.283
       727.10000  5.18869e-12      254.920
       727.20000  5.18869e-12      254.557
       727.30000  5.18869e-12      254.194
       727.40000  5.18869e-12      253.882
       727.50000  5.60227e-12      273.783
       727.60000  5.60227e-12      273.447
       727.70000  5.60227e-12      273.167
       727.80000  5.60227e-12      272.887
       727.90000  5.60227e-12      272.606
       728.00000  5.60227e-12      272.382
       728.10000  5.60227e-12      272.158
       728.20000  5.60227e-12      271.934
       728.30000  5.60227e-12      271.710
       728.40000  5.60227e-12      271.542
       728.50000  3.23205e-12      156.561
       728.60000  3.23205e-12      156.496
       728.70000  3.23205e-12      156.399
       728.80000  3.23274e-12      156.400
       728.90000  3.23274e-12      156.335
       729.00000  3.23274e-12      156.303
       729.10000  3.23274e-12      156.270
       729.20000  3.23274e-12      156.238
       729.30000  3.23274e-12      156.238
       729.40000  3.23274e-12      156.206
       729.50000  7.24743e-13      35.0268
       729.60000  7.24743e-13      35.0268
       729.70000  7.24743e-13      35.0341
       729.80000  7.24743e-13      35.0413
       729.90000  7.24743e-13      35.0558
       730.00000  7.24743e-13      35.0703
       730.10000  7.24743e-13      35.0848
       730.20000  7.24743e-13      35.0993
       730.30000  7.24743e-13      35.1210
       730.40000  7.24743e-13      35.1428
       730.50000  2.43856e-12      118.319
       730.60000  2.43856e-12      118.416
       730.70000  2.43856e-12      118.514
       730.80000  2.43856e-12      118.611
       730.90000  2.43856e-12      118.733
       731.00000  2.43856e-12      118.855
       731.10000  2.43856e-12      118.831
       731.20000  2.43856e-12      118.807
       731.30000  2.43676e-12      118.695
       731.40000  2.43676e-12      118.695
       731.50000  8.65584e-13      42.1539
       731.60000  8.65584e-13      42.1453
       731.70000  8.65584e-13      42.1366
       731.80000  8.65584e-13      42.1366
       731.90000  8.65584e-13      42.1280
       732.00000  8.65584e-13      42.1193
       732.10000  8.65584e-13      42.1106
       732.20000  8.65584e-13      42.1020
       732.30000  8.65584e-13      42.1020
       732.40000  8.65584e-13      42.0933
       732.50000  2.38643e-12      116.028
       732.60000  2.38643e-12      116.004
       732.70000  2.38643e-12      115.980
       732.80000  2.38643e-12      115.956
       732.90000  2.38643e-12      115.933
       733.00000  2.38643e-12      115.909
       733.10000  2.38643e-12      115.885
       733.20000  2.38643e-12      115.837
       733.30000  2.38643e-12      115.813
       733.40000  2.38643e-12      115.766
       733.50000  1.05364e-12      51.1014
       733.60000  1.05364e-12      51.0909
       733.70000  1.05364e-12      51.0698
       733.80000  1.05190e-12      50.9750
       733.90000  1.05190e-12      50.9645
       734.00000  1.05190e-12      50.9539
       734.10000  1.05190e-12      50.9434
       734.20000  1.05190e-12      50.9329
       734.30000  1.05190e-12      50.9224
       734.40000  1.05190e-12      50.9224
       734.50000  1.00196e-12      48.4950
       734.60000  1.00196e-12      48.4850
       734.70000  1.00196e-12      48.4850
       734.80000  1.00196e-12      48.4749
       734.90000  1.00196e-12      48.4749
       735.00000  1.00196e-12      48.4649
       735.10000  1.00196e-12      48.4649
       735.20000  1.00196e-12      48.4649
       735.30000  1.00196e-12      48.4649
       735.40000  1.00196e-12      48.4549
       735.50000  1.84494e-12      89.2212
       735.60000  1.84494e-12      89.2212
       735.70000  1.84494e-12      89.2212
       735.80000  1.84494e-12      89.2396
       735.90000  1.84494e-12      89.2396
       736.00000  1.84494e-12      89.2396
       736.10000  1.84494e-12      89.2396
       736.20000  1.84494e-12      89.2581
       736.30000  1.84141e-12      89.0876
       736.40000  1.84141e-12      89.1060
       736.50000  3.97612e-12      192.405
       736.60000  3.97612e-12      192.444
       736.70000  3.97612e-12      192.484
       736.80000  3.97612e-12      192.484
       736.90000  3.97612e-12      192.524
       737.00000  3.97612e-12      192.564
       737.10000  3.97612e-12      192.365
       737.20000  3.97612e-12      192.126
       737.30000  3.97612e-12      191.927
       737.40000  3.97612e-12      191.729
       737.50000  2.33393e-12      112.402
       737.60000  2.33393e-12      112.285
       737.70000  2.33393e-12      112.169
       737.80000  2.33393e-12      112.052
       737.90000  2.33393e-12      111.959
       738.00000  2.33393e-12      111.842
       738.10000  2.33393e-12      111.725
       738.20000  2.33393e-12      111.609
       738.30000  2.33393e-12      111.515
       738.40000  2.33393e-12      111.422
       738.50000  5.56739e-12      265.509
       738.60000  5.56739e-12      265.286
       738.70000  5.56739e-12      265.063
       738.80000  5.54400e-12      263.728
       738.90000  5.54400e-12      263.506
       739.00000  5.54400e-12      263.285
       739.10000  5.54400e-12      262.841
       739.20000  5.54400e-12      262.453
       739.30000  5.54400e-12      262.120
       739.40000  5.54400e-12      261.788
       739.50000  4.90447e-12      231.295
       739.60000  4.90447e-12      231.050
       739.70000  4.90447e-12      230.854
       739.80000  4.90447e-12      230.608
       739.90000  4.90447e-12      230.461
       740.00000  4.90447e-12      230.265
       740.10000  4.90447e-12      230.167
       740.20000  4.90447e-12      230.020
       740.30000  4.90447e-12      229.922
       740.40000  4.90447e-12      229.873
       740.50000  7.08007e-12      331.772
       740.60000  7.08007e-12      331.701
       740.70000  7.08007e-12      331.701
       740.80000  7.08007e-12      331.701
       740.90000  7.08007e-12      331.772
       741.00000  7.08007e-12      331.843
       741.10000  7.08007e-12      331.985
       741.20000  7.08007e-12      332.126
       741.30000  7.07526e-12      332.042
       741.40000  7.07526e-12      332.254
       741.50000  2.89198e-12      135.894
       741.60000  2.89198e-12      136.010
       741.70000  2.89198e-12      136.155
       741.80000  2.89198e-12      136.270
       741.90000  2.89198e-12      136.444
       742.00000  2.89198e-12      136.588
       742.10000  2.89198e-12      136.762
       742.20000  2.89198e-12      136.964
       742.30000  2.89198e-12      137.167
       742.40000  2.89198e-12      137.369
       742.50000  5.58487e-12      265.728
       742.60000  5.58487e-12      266.175
       742.70000  5.58487e-12      266.677
       742.80000  5.58487e-12      267.180
       742.90000  5.58487e-12      267.739
       743.00000  5.58487e-12      268.297
       743.10000  5.58487e-12      268.185
       743.20000  5.58487e-12      268.129
       743.30000  5.58487e-12      268.074
       743.40000  5.58487e-12      267.962
       743.50000  3.41174e-12      163.661
       743.60000  3.41174e-12      163.627
       743.70000  3.41174e-12      163.593
       743.80000  3.41022e-12      163.486
       743.90000  3.41022e-12      163.452
       744.00000  3.41022e-12      163.418
       744.10000  3.41022e-12      163.418
       744.20000  3.41022e-12      163.384
       744.30000  3.41022e-12      163.384
       744.40000  3.41022e-12      163.384
       744.50000  2.34869e-12      112.502
       744.60000  2.34869e-12      112.502
       744.70000  2.34869e-12      112.502
       744.80000  2.34869e-12      112.502
       744.90000  2.34869e-12      112.526
       745.00000  2.34869e-12      112.526
       745.10000  2.34869e-12      112.596
       745.20000  2.34869e-12      112.667
       745.30000  2.34869e-12      112.714
       745.40000  2.34869e-12      112.784
       745.50000  2.25669e-12      108.411
       745.60000  2.25669e-12      108.456
       745.70000  2.25669e-12      108.502
       745.80000  2.25669e-12      108.547
       745.90000  2.25669e-12      108.569
       746.00000  2.25669e-12      108.614
       746.10000  2.25669e-12      108.637
       746.20000  2.25669e-12      108.660
       746.30000  2.24640e-12      108.186
       746.40000  2.24640e-12      108.209
       746.50000  1.79601e-12      86.5318
       746.60000  1.79601e-12      86.5318
       746.70000  1.79601e-12      86.5498
       746.80000  1.79601e-12      86.5498
       746.90000  1.79601e-12      86.5498
       747.00000  1.79601e-12      86.5498
       747.10000  1.79601e-12      86.4959
       747.20000  1.79601e-12      86.4600
       747.30000  1.79601e-12      86.4241
       747.40000  1.79601e-12      86.3882
       747.50000  1.38444e-12      66.5639
       747.60000  1.38444e-12      66.5362
       747.70000  1.38444e-12      66.5085
       747.80000  1.38444e-12      66.4808
       747.90000  1.38444e-12      66.4531
       748.00000  1.38444e-12      66.4254
       748.10000  1.38444e-12      66.4116
       748.20000  1.38444e-12      66.3839
       748.30000  1.38444e-12      66.3562
       748.40000  1.38444e-12      66.3424
       748.50000  1.11987e-12      53.6416
       748.60000  1.11987e-12      53.6192
       748.70000  1.11987e-12      53.6080
       748.80000  1.11592e-12      53.3967
       748.90000  1.11592e-12      53.3855
       749.00000  1.11592e-12      53.3744
       749.10000  1.11592e-12      53.3521
       749.20000  1.11592e-12      53.3409
       749.30000  1.11592e-12      53.3297
       749.40000  1.11592e-12      53.3186
       749.50000  8.67407e-13      41.4360
       749.60000  8.67407e-13      41.4274
       749.70000  8.67407e-13      41.4100
       749.80000  8.67407e-13      41.4013
       749.90000  8.67407e-13      41.4013
       750.00000  8.67407e-13      41.3927
       750.10000  8.67407e-13      41.3840
       750.20000  8.67407e-13      41.3753
       750.30000  8.67407e-13      41.3666
       750.40000  8.67407e-13      41.3666
       750.50000  1.30227e-12      62.0921
       750.60000  1.30227e-12      62.0790
       750.70000  1.30227e-12      62.0790
       750.80000  1.30227e-12      62.0660
       750.90000  1.30227e-12      62.0660
       751.00000  1.30227e-12      62.0530
       751.10000  1.30227e-12      62.0530
       751.20000  1.30227e-12      62.0530
       751.30000  1.29935e-12      61.9011
       751.40000  1.29935e-12      61.9011
       751.50000  1.02195e-12      48.6856
       751.60000  1.02195e-12      48.6856
       751.70000  1.02195e-12      48.6856
       751.80000  1.02195e-12      48.6856
       751.90000  1.02195e-12      48.6856
       752.00000  1.02195e-12      48.6856
       752.10000  1.02195e-12      48.6856
       752.20000  1.02195e-12      48.6856
       752.30000  1.02195e-12      48.6856
       752.40000  1.02195e-12      48.6856
       752.50000  3.63821e-13      17.3361
       752.60000  3.63821e-13      17.3361
       752.70000  3.63821e-13      17.3361
       752.80000  3.63821e-13      17.3397
       752.90000  3.63821e-13      17.3397
       753.00000  3.63821e-13      17.3433
       753.10000  3.63821e-13      17.3433
       753.20000  3.63821e-13      17.3433
       753.30000  3.63821e-13      17.3433
       753.40000  3.63821e-13      17.3433
       753.50000  1.01723e-12      48.4912
       753.60000  1.01723e-12      48.4912
       753.70000  1.01723e-12      48.4912
       753.80000  1.01671e-12      48.4667
       753.90000  1.01671e-12      48.4667
       754.00000  1.01671e-12      48.4667
       754.10000  1.01671e-12      48.4667
       754.20000  1.01671e-12      48.4566
       754.30000  1.01671e-12      48.4566
       754.40000  1.01671e-12      48.4566
       754.50000  1.21116e-12      57.7240
       754.60000  1.21116e-12      57.7240
       754.70000  1.21116e-12      57.7119
       754.80000  1.21116e-12      57.7119
       754.90000  1.21116e-12      57.6998
       755.00000  1.21116e-12      57.6998
       755.10000  1.21116e-12      57.6877
       755.20000  1.21116e-12      57.6877
       755.30000  1.21116e-12      57.6755
       755.40000  1.21116e-12      57.6755
       755.50000  6.82001e-13      32.4701
       755.60000  6.82001e-13      32.4632
       755.70000  6.82001e-13      32.4632
       755.80000  6.82001e-13      32.4564
       755.90000  6.82001e-13      32.4496
       756.00000  6.82001e-13      32.4496
       756.10000  6.82001e-13      32.4428
       756.20000  6.82001e-13      32.4360
       756.30000  6.80914e-13      32.3775
       756.40000  6.80914e-13      32.3775
       756.50000  4.13658e-13      19.6653
       756.60000  4.13658e-13      19.6612
       756.70000  4.13658e-13      19.6570
       756.80000  4.13658e-13      19.6570
       756.90000  4.13658e-13      19.6529
       757.00000  4.13658e-13      19.6488
       757.10000  4.13658e-13      19.6446
       757.20000  4.13658e-13      19.6405
       757.30000  4.13658e-13      19.6405
       757.40000  4.13658e-13      19.6363
       757.50000  1.09572e-12      52.0029
       757.60000  1.09572e-12      51.9919
       757.70000  1.09572e-12      51.9809
       757.80000  1.09572e-12      51.9700
       757.90000  1.09572e-12      51.9590
       758.00000  1.09572e-12      51.9590
       758.10000  1.09572e-12      51.9481
       758.20000  1.09572e-12      51.9371
       758.30000  1.09572e-12      51.9262
       758.40000  1.09572e-12      51.9152
       758.50000  6.53314e-13      30.9475
       758.60000  6.53314e-13      30.9409
       758.70000  6.53314e-13      30.9344
       758.80000  6.51551e-13      30.8444
       758.90000  6.51551e-13      30.8379
       759.00000  6.51551e-13      30.8314
       759.10000  6.51551e-13      30.8314
       759.20000  6.51551e-13      30.8249
       759.30000  6.51551e-13      30.8249
       759.40000  6.51551e-13      30.8184
       759.50000  6.75737e-13      31.9623
       759.60000  6.75737e-13      31.9623
       759.70000  6.75737e-13      31.9556
       759.80000  6.75737e-13      31.9556
       759.90000  6.75737e-13      31.9556
       760.00000  6.75737e-13      31.9556
       760.10000  6.75737e-13      31.9556
       760.20000  6.75737e-13      31.9556
       760.30000  6.75737e-13      31.9623
       760.40000  6.75737e-13      31.9623
       760.50000  8.89808e-13      42.0879
       760.60000  8.89808e-13      42.0968
       760.70000  8.89808e-13      42.0968
       760.80000  8.89808e-13      42.1057
       760.90000  8.89808e-13      42.1057
       761.00000  8.89808e-13      42.1146
       761.10000  8.89808e-13      42.1502
       761.20000  8.89808e-13      42.1769
       761.30000  8.87958e-13      42.1158
       761.40000  8.87958e-13      42.1425
       761.50000  1.14802e-12      54.5197
       761.60000  1.14802e-12      54.5427
       761.70000  1.14802e-12      54.5656
       761.80000  1.14802e-12      54.5886
       761.90000  1.14802e-12      54.6115
       762.00000  1.14802e-12      54.6230
       762.10000  1.14802e-12      54.6460
       762.20000  1.14802e-12      54.6575
       762.30000  1.14802e-12      54.6689
       762.40000  1.14802e-12      54.6689
       762.50000  3.48957e-13      16.6173
       762.60000  3.48957e-13      16.6208
       762.70000  3.48957e-13      16.6208
       762.80000  3.48957e-13      16.6173
       762.90000  3.48957e-13      16.6173
       763.00000  3.48957e-13      16.6139
       763.10000  3.48957e-13      16.6104
       763.20000  3.48957e-13      16.6069
       763.30000  3.48957e-13      16.5999
       763.40000  3.48957e-13      16.5929
       763.50000  1.03555e-12      49.2195
       763.60000  1.03555e-12      49.1988
       763.70000  1.03555e-12      49.1781
       763.80000  1.03289e-12      49.0212
       763.90000  1.03289e-12      48.9902
       764.00000  1.03289e-12      48.9592
       764.10000  1.03289e-12      48.9282
       764.20000  1.03289e-12      48.8869
       764.30000  1.03289e-12      48.8456
       764.40000  1.03289e-12      48.8043
       764.50000  7.84192e-13      37.0217
       764.60000  7.84192e-13      36.9903
       764.70000  7.84192e-13      36.9511
       764.80000  7.84192e-13      36.9119
       764.90000  7.84192e-13      36.8727
       765.00000  7.84192e-13      36.8256
       765.10000  7.84192e-13      36.7394
       765.20000  7.84192e-13      36.6531
       765.30000  7.84192e-13      36.5747
       765.40000  7.84192e-13      36.4963
       765.50000  4.07431e-13      18.9252
       765.60000  4.07431e-13      18.8926
       765.70000  4.07431e-13      18.8559
       765.80000  4.07431e-13      18.8274
       765.90000  4.07431e-13      18.7989
       766.00000  4.07431e-13      18.7703
       766.10000  4.07431e-13      18.7459
       766.20000  4.07431e-13      18.7215
       766.30000  4.07420e-13      18.7006
       766.40000  4.07420e-13      18.6843
       766.50000  1.05875e-12      48.5118
       766.60000  1.05875e-12      48.4695
       766.70000  1.05875e-12      48.4483
       766.80000  1.05875e-12      48.4165
       766.90000  1.05875e-12      48.3954
       767.00000  1.05875e-12      48.3848
       767.10000  1.05875e-12      48.4377
       767.20000  1.05875e-12      48.5012
       767.30000  1.05875e-12      48.5542
       767.40000  1.05875e-12      48.6071
       767.50000  1.08855e-12      50.0297
       767.60000  1.08855e-12      50.0842
       767.70000  1.08855e-12      50.1386
       767.80000  1.08855e-12      50.1821
       767.90000  1.08855e-12      50.2366
       768.00000  1.08855e-12      50.2801
       768.10000  1.08855e-12      50.3236
       768.20000  1.08855e-12      50.3672
       768.30000  1.08855e-12      50.3998
       768.40000  1.08855e-12      50.4434
       768.50000  1.44349e-12      66.9346
       768.60000  1.44349e-12      66.9779
       768.70000  1.44349e-12      67.0212
       768.80000  1.44272e-12      67.0289
       768.90000  1.44272e-12      67.0722
       769.00000  1.44272e-12      67.1010
       769.10000  1.44272e-12      67.1443
       769.20000  1.44272e-12      67.1731
       769.30000  1.44272e-12      67.2020
       769.40000  1.44272e-12      67.2309
       769.50000  1.30930e-12      61.0265
       769.60000  1.30930e-12      61.0527
       769.70000  1.30930e-12      61.0658
       769.80000  1.30930e-12      61.0920
       769.90000  1.30930e-12      61.1051
       770.00000  1.30930e-12      61.1051
       770.10000  1.30930e-12      61.1182
       770.20000  1.30930e-12      61.1313
       770.30000  1.30930e-12      61.1313
       770.40000  1.30930e-12      61.1313
       770.50000  1.31148e-12      61.2330
       770.60000  1.31148e-12      61.2330
       770.70000  1.31148e-12      61.2330
       770.80000  1.31148e-12      61.2330
       770.90000  1.31148e-12      61.2199
       771.00000  1.31148e-12      61.2068
       771.10000  1.31148e-12      61.2593
       771.20000  1.31148e-12      61.2986
       771.30000  1.30747e-12      61.1502
       771.40000  1.30747e-12      61.1895
       771.50000  2.13983e-12      100.208
       771.60000  2.13983e-12      100.251
       771.70000  2.13983e-12      100.315
       771.80000  2.13983e-12      100.358
       771.90000  2.13983e-12      100.380
       772.00000  2.13983e-12      100.422
       772.10000  2.13983e-12      100.444
       772.20000  2.13983e-12      100.465
       772.30000  2.13983e-12      100.486
       772.40000  2.13983e-12      100.508
       772.50000  3.18682e-12      149.685
       772.60000  3.18682e-12      149.685
       772.70000  3.18682e-12      149.685
       772.80000  3.18682e-12      149.653
       772.90000  3.18682e-12      149.653
       773.00000  3.18682e-12      149.621
       773.10000  3.18682e-12      149.430
       773.20000  3.18682e-12      149.271
       773.30000  3.18682e-12      149.080
       773.40000  3.18682e-12      148.920
       773.50000  2.30180e-12      107.448
       773.60000  2.30180e-12      107.356
       773.70000  2.30180e-12      107.264
       773.80000  2.29269e-12      106.748
       773.90000  2.29269e-12      106.656
       774.00000  2.29269e-12      106.564
       774.10000  2.29269e-12      106.496
       774.20000  2.29269e-12      106.427
       774.30000  2.29269e-12      106.381
       774.40000  2.29269e-12      106.312
       774.50000  1.57136e-12      72.8323
       774.60000  1.57136e-12      72.8166
       774.70000  1.57136e-12      72.7852
       774.80000  1.57136e-12      72.7695
       774.90000  1.57136e-12      72.7538
       775.00000  1.57136e-12      72.7380
       775.10000  1.57136e-12      72.7380
       775.20000  1.57136e-12      72.7380
       775.30000  1.57136e-12      72.7380
       775.40000  1.57136e-12      72.7380
       775.50000  4.43189e-12      205.196
       775.60000  4.43189e-12      205.241
       775.70000  4.43189e-12      205.285
       775.80000  4.43189e-12      205.329
       775.90000  4.43189e-12      205.418
       776.00000  4.43189e-12      205.507
       776.10000  4.43189e-12      205.595
       776.20000  4.43189e-12      205.728
       776.30000  4.42065e-12      205.339
       776.40000  4.42065e-12      205.472
       776.50000  5.75789e-12      267.800
       776.60000  5.75789e-12      268.030
       776.70000  5.75789e-12      268.260
       776.80000  5.75789e-12      268.491
       776.90000  5.75789e-12      268.778
       777.00000  5.75789e-12      269.009
       777.10000  5.75789e-12      268.894
       777.20000  5.75789e-12      268.836
       777.30000  5.75789e-12      268.721
       777.40000  5.75789e-12      268.606
       777.50000  4.19930e-12      195.813
       777.60000  4.19930e-12      195.771
       777.70000  4.19930e-12      195.687
       777.80000  4.19930e-12      195.645
       777.90000  4.19930e-12      195.603
       778.00000  4.19930e-12      195.519
       778.10000  4.19930e-12      195.477
       778.20000  4.19930e-12      195.435
       778.30000  4.19930e-12      195.393
       778.40000  4.19930e-12      195.351
       778.50000  2.61229e-12      121.524
       778.60000  2.61229e-12      121.497
       778.70000  2.61229e-12      121.471
       778.80000  2.60567e-12      121.164
       778.90000  2.60567e-12      121.164
       779.00000  2.60567e-12      121.138
       779.10000  2.60567e-12      121.190
       779.20000  2.60567e-12      121.216
       779.30000  2.60567e-12      121.268
       779.40000  2.60567e-12      121.294
       779.50000  3.65760e-12      170.298
       779.60000  3.65760e-12      170.335
       779.70000  3.65760e-12      170.371
       779.80000  3.65760e-12      170.408
       779.90000  3.65760e-12      170.444
       780.00000  3.65760e-12      170.481
       780.10000  3.65760e-12      170.481
       780.20000  3.65760e-12      170.517
       780.30000  3.65760e-12      170.517
       780.40000  3.65760e-12      170.517
       780.50000  4.48414e-12      209.051
       780.60000  4.48414e-12      209.051
       780.70000  4.48414e-12      209.051
       780.80000  4.48414e-12      209.051
       780.90000  4.48414e-12      209.051
       781.00000  4.48414e-12      209.006
       781.10000  4.48414e-12      209.006
       781.20000  4.48414e-12      208.961
       781.30000  4.45921e-12      207.755
       781.40000  4.45921e-12      207.710
       781.50000  4.32452e-12      201.393
       781.60000  4.32452e-12      201.350
       781.70000  4.32452e-12      201.306
       781.80000  4.32452e-12      201.263
       781.90000  4.32452e-12      201.177
       782.00000  4.32452e-12      201.133
       782.10000  4.32452e-12      201.047
       782.20000  4.32452e-12      200.960
       782.30000  4.32452e-12      200.917
       782.40000  4.32452e-12      200.831
       782.50000  3.35225e-12      155.611
       782.60000  3.35225e-12      155.511
       782.70000  3.35225e-12      155.444
       782.80000  3.35225e-12      155.377
       782.90000  3.35225e-12      155.276
       783.00000  3.35225e-12      155.209
       783.10000  3.35225e-12      155.276
       783.20000  3.35225e-12      155.343
       783.30000  3.35225e-12      155.410
       783.40000  3.35225e-12      155.444
       783.50000  5.11464e-12      237.268
       783.60000  5.11464e-12      237.370
       783.70000  5.11464e-12      237.421
       783.80000  5.08857e-12      236.313
       783.90000  5.08857e-12      236.415
       784.00000  5.08857e-12      236.466
       784.10000  5.08857e-12      236.517
       784.20000  5.08857e-12      236.618
       784.30000  5.08857e-12      236.669
       784.40000  5.08857e-12      236.720
       784.50000  2.45158e-12      114.072
       784.60000  2.45158e-12      114.096
       784.70000  2.45158e-12      114.121
       784.80000  2.45158e-12      114.146
       784.90000  2.45158e-12      114.170
       785.00000  2.45158e-12      114.170
       785.10000  2.45158e-12      114.170
       785.20000  2.45158e-12      114.170
       785.30000  2.45158e-12      114.170
       785.40000  2.45158e-12      114.170
       785.50000  1.71924e-12      80.0651
       785.60000  1.71924e-12      80.0651
       785.70000  1.71924e-12      80.0651
       785.80000  1.71924e-12      80.0651
       785.90000  1.71924e-12      80.0651
       786.00000  1.71924e-12      80.0651
       786.10000  1.71924e-12      80.0651
       786.20000  1.71924e-12      80.0651
       786.30000  1.71636e-12      79.9309
       786.40000  1.71636e-12      79.9309
       786.50000  1.36222e-12      63.4385
       786.60000  1.36222e-12      63.4385
       786.70000  1.36222e-12      63.4385
       786.80000  1.36222e-12      63.4385
       786.90000  1.36222e-12      63.4385
       787.00000  1.36222e-12      63.4385
       787.10000  1.36222e-12      63.4385
       787.20000  1.36222e-12      63.4385
       787.30000  1.36222e-12      63.4385
       787.40000  1.36222e-12      63.4385
       787.50000  1.29113e-12      60.1278
       787.60000  1.29113e-12      60.1278
       787.70000  1.29113e-12      60.1278
       787.80000  1.29113e-12      60.1278
       787.90000  1.29113e-12      60.1278
       788.00000  1.29113e-12      60.1278
       788.10000  1.29113e-12      60.1278
       788.20000  1.29113e-12      60.1278
       788.30000  1.29113e-12      60.1278
       788.40000  1.29113e-12      60.1278
       788.50000  1.31018e-12      61.0150
       788.60000  1.31018e-12      61.0150
       788.70000  1.31018e-12      61.0150
       788.80000  1.31041e-12      61.0257
       788.90000  1.31041e-12      61.0257
       789.00000  1.31041e-12      61.0257
       789.10000  1.31041e-12      60.9995
       789.20000  1.31041e-12      60.9602
       789.30000  1.31041e-12      60.9209
       789.40000  1.31041e-12      60.8946
       789.50000  5.43993e-13      25.2631
       789.60000  5.43993e-13      25.2467
       789.70000  5.43993e-13      25.2359
       789.80000  5.43993e-13      25.2195
       789.90000  5.43993e-13      25.2032
       790.00000  5.43993e-13      25.1923
       790.10000  5.43993e-13      25.1760
       790.20000  5.43993e-13      25.1651
       790.30000  5.43993e-13      25.1488
       790.40000  5.43993e-13      25.1379
       790.50000  3.62155e-13      16.7243
       790.60000  3.62155e-13      16.7135
       790.70000  3.62155e-13      16.7062
       790.80000  3.62155e-13      16.6954
       790.90000  3.62155e-13      16.6881
       791.00000  3.62155e-13      16.6773
       791.10000  3.62155e-13      16.6664
       791.20000  3.62155e-13      16.6592
       791.30000  3.61100e-13      16.5998
       791.40000  3.61100e-13      16.5889
       791.50000  8.86526e-13      40.7004
       791.60000  8.86526e-13      40.6738
       791.70000  8.86526e-13      40.6561
       791.80000  8.86526e-13      40.6295
       791.90000  8.86526e-13      40.6118
       792.00000  8.86526e-13      40.5852
       792.10000  8.86526e-13      40.5674
       792.20000  8.86526e-13      40.5497
       792.30000  8.86526e-13      40.5231
       792.40000  8.86526e-13      40.5054
       792.50000  4.00328e-13      18.2830
       792.60000  4.00328e-13      18.2750
       792.70000  4.00328e-13      18.2670
       792.80000  4.00328e-13      18.2590
       792.90000  4.00328e-13      18.2510
       793.00000  4.00328e-13      18.2430
       793.10000  4.00328e-13      18.2309
       793.20000  4.00328e-13      18.2149
       793.30000  4.00328e-13      18.2029
       793.40000  4.00328e-13      18.1909
       793.50000  4.13301e-13      18.7680
       793.60000  4.13301e-13      18.7597
       793.70000  4.13301e-13      18.7473
       793.80000  4.12122e-13      18.6897
       793.90000  4.12122e-13      18.6815
       794.00000  4.12122e-13      18.6774
       794.10000  4.12122e-13      18.6691
       794.20000  4.12122e-13      18.6691
       794.30000  4.12122e-13      18.6650
       794.40000  4.12122e-13      18.6650
       794.50000  7.69206e-13      34.8373
       794.60000  7.69206e-13      34.8373
       794.70000  7.69206e-13      34.8450
       794.80000  7.69206e-13      34.8450
       794.90000  7.69206e-13      34.8527
       795.00000  7.69206e-13      34.8681
       795.10000  7.69206e-13      34.9220
       795.20000  7.69206e-13      34.9758
       795.30000  7.69206e-13      35.0296
       795.40000  7.69206e-13      35.0835
       795.50000  3.37505e-13      15.4139
       795.60000  3.37505e-13      15.4341
       795.70000  3.37505e-13      15.4510
       795.80000  3.37505e-13      15.4679
       795.90000  3.37505e-13      15.4847
       796.00000  3.37505e-13      15.4982
       796.10000  3.37505e-13      15.5117
       796.20000  3.37505e-13      15.5252
       796.30000  3.37056e-13      15.5147
       796.40000  3.37056e-13      15.5248
       796.50000  5.11819e-13      23.5897
       796.60000  5.11819e-13      23.6000
       796.70000  5.11819e-13      23.6102
       796.80000  5.11819e-13      23.6153
       796.90000  5.11819e-13      23.6204
       797.00000  5.11819e-13      23.6256
       797.10000  5.11819e-13      23.6307
       797.20000  5.11819e-13      23.6307
       797.30000  5.11819e-13      23.6307
       797.40000  5.11819e-13      23.6256
       797.50000  3.90375e-13      18.0158
       797.60000  3.90375e-13      18.0119
       797.70000  3.90375e-13      18.0041
       797.80000  3.90375e-13      17.9963
       797.90000  3.90375e-13      17.9885
       798.00000  3.90375e-13      17.9768
       798.10000  3.90375e-13      17.9651
       798.20000  3.90375e-13      17.9534
       798.30000  3.90375e-13      17.9377
       798.40000  3.90375e-13      17.9221
       798.50000  2.56391e-13      11.7607
       798.60000  2.56391e-13      11.7478
       798.70000  2.56391e-13      11.7350
       798.80000  2.55805e-13      11.6954
       798.90000  2.55805e-13      11.6800
       799.00000  2.55805e-13      11.6647
       799.10000  2.55805e-13      11.6724
       799.20000  2.55805e-13      11.6826
       799.30000  2.55805e-13      11.6928
       799.40000  2.55805e-13      11.7005
       799.50000  2.32146e-13      10.6253
       799.60000  2.32146e-13      10.6323
       799.70000  2.32146e-13      10.6392
       799.80000  2.32146e-13      10.6439
       799.90000  2.32146e-13      10.6485
       800.00000  2.32146e-13      10.6532
       800.10000  2.32146e-13      10.6578
       800.20000  2.32146e-13      10.6625
       800.30000  2.32146e-13      10.6671
       800.40000  2.32146e-13      10.6694
       800.50000  3.04843e-13      14.0137
       800.60000  3.04843e-13      14.0167
       800.70000  3.04843e-13      14.0167
       800.80000  3.04843e-13      14.0197
       800.90000  3.04843e-13      14.0197
       801.00000  3.04843e-13      14.0197
       801.10000  3.04843e-13      14.0137
       801.20000  3.04843e-13      14.0076
       801.30000  3.03949e-13      13.9604
       801.40000  3.03949e-13      13.9543
       801.50000  1.45947e-13      6.69753
       801.60000  1.45947e-13      6.69461
       801.70000  1.45947e-13      6.69169
       801.80000  1.45947e-13      6.68877
       801.90000  1.45947e-13      6.68585
       802.00000  1.45947e-13      6.68293
       802.10000  1.45947e-13      6.68001
       802.20000  1.45947e-13      6.67710
       802.30000  1.45947e-13      6.67418
       802.40000  1.45947e-13      6.67126
       802.50000  3.68220e-14      1.68240
       802.60000  3.68220e-14      1.68166
       802.70000  3.68220e-14      1.68093
       802.80000  3.68220e-14      1.67982
       802.90000  3.68220e-14      1.67908
       803.00000  3.68220e-14      1.67835
       803.10000  3.68220e-14      1.67761
       803.20000  3.68220e-14      1.67687
       803.30000  3.68220e-14      1.67614
       803.40000  3.68220e-14      1.67503
       803.50000  3.64287e-13      16.5641
       803.60000  3.64287e-13      16.5569
       803.70000  3.64287e-13      16.5496
       803.80000  3.63156e-13      16.4909
       803.90000  3.63156e-13      16.4800
       804.00000  3.63156e-13      16.4727
       804.10000  3.63156e-13      16.4655
       804.20000  3.63156e-13      16.4582
       804.30000  3.63156e-13      16.4473
       804.40000  3.63156e-13      16.4401
       804.50000  2.51213e-13      11.3674
       804.60000  2.51213e-13      11.3599
       804.70000  2.51213e-13      11.3548
       804.80000  2.51213e-13      11.3498
       804.90000  2.51213e-13      11.3423
       805.00000  2.51213e-13      11.3372
       805.10000  2.51213e-13      11.3473
       805.20000  2.51213e-13      11.3599
       805.30000  2.51213e-13      11.3674
       805.40000  2.51213e-13      11.3774
       805.50000  2.76791e-13      12.5442
       805.60000  2.76791e-13      12.5525
       805.70000  2.76791e-13      12.5608
       805.80000  2.76791e-13      12.5663
       805.90000  2.76791e-13      12.5718
       806.00000  2.76791e-13      12.5774
       806.10000  2.76791e-13      12.5801
       806.20000  2.76791e-13      12.5829
       806.30000  2.76249e-13      12.5611
       806.40000  2.76249e-13      12.5638
       806.50000  1.49136e-13      6.78272
       806.60000  1.49136e-13      6.78272
       806.70000  1.49136e-13      6.78123
       806.80000  1.49136e-13      6.78123
       806.90000  1.49136e-13      6.77974
       807.00000  1.49136e-13      6.77675
       807.10000  1.49136e-13      6.76482
       807.20000  1.49136e-13      6.75140
       807.30000  1.49136e-13      6.73947
       807.40000  1.49136e-13      6.72903
       807.50000  3.28225e-13      14.7865
       807.60000  3.28225e-13      14.7636
       807.70000  3.28225e-13      14.7439
       807.80000  3.28225e-13      14.7275
       807.90000  3.28225e-13      14.7111
       808.00000  3.28225e-13      14.6946
       808.10000  3.28225e-13      14.6815
       808.20000  3.28225e-13      14.6684
       808.30000  3.28225e-13      14.6553
       808.40000  3.28225e-13      14.6454
       808.50000  1.81622e-13      8.10032
       808.60000  1.81622e-13      8.09669
       808.70000  1.81622e-13      8.09306
       808.80000  1.81450e-13      8.08359
       808.90000  1.81450e-13      8.08177
       809.00000  1.81450e-13      8.08177
       809.10000  1.81450e-13      8.08177
       809.20000  1.81450e-13      8.08359
       809.30000  1.81450e-13      8.08540
       809.40000  1.81450e-13      8.08722
       809.50000  1.56182e-13      6.96414
       809.60000  1.56182e-13      6.96882
       809.70000  1.56182e-13      6.97351
       809.80000  1.56182e-13      6.97820
       809.90000  1.56182e-13      6.98444
       810.00000  1.56182e-13      6.99069
       810.10000  1.56182e-13      6.99850
       810.20000  1.56182e-13      7.00631
       810.30000  1.56182e-13      7.01412
       810.40000  1.56182e-13      7.02349
       810.50000  9.20466e-14      4.14578
       810.60000  9.20466e-14      4.15130
       810.70000  9.20466e-14      4.15867
       810.80000  9.20466e-14      4.16603
       810.90000  9.20466e-14      4.17339
       811.00000  9.20466e-14      4.18168
       811.10000  9.20466e-14      4.18260
       811.20000  9.20466e-14      4.18444
       811.30000  9.19860e-14      4.18260
       811.40000  9.19860e-14      4.18444
       811.50000  7.61022e-14      3.46265
       811.60000  7.61022e-14      3.46341
       811.70000  7.61022e-14      3.46417
       811.80000  7.61022e-14      3.46493
       811.90000  7.61022e-14      3.46570
       812.00000  7.61022e-14      3.46646
       812.10000  7.61022e-14      3.46646
       812.20000  7.61022e-14      3.46722
       812.30000  7.61022e-14      3.46798
       812.40000  7.61022e-14      3.46798
       812.50000  2.09449e-13      9.54460
       812.60000  2.09449e-13      9.54669
       812.70000  2.09449e-13      9.54669
       812.80000  2.09449e-13      9.54669
       812.90000  2.09449e-13      9.54669
       813.00000  2.09449e-13      9.54669
       813.10000  2.09449e-13      9.54250
       813.20000  2.09449e-13      9.54041
       813.30000  2.09449e-13      9.53622
       813.40000  2.09449e-13      9.53413
       813.50000  2.98221e-13      13.5691
       813.60000  2.98221e-13      13.5661
       813.70000  2.98221e-13      13.5631
       813.80000  2.98188e-13      13.5586
       813.90000  2.98188e-13      13.5556
       814.00000  2.98188e-13      13.5497
       814.10000  2.98188e-13      13.5467
       814.20000  2.98188e-13      13.5437
       814.30000  2.98188e-13      13.5407
       814.40000  2.98188e-13      13.5407
       814.50000  5.77791e-14      2.62317
       814.60000  5.77791e-14      2.62259
       814.70000  5.77791e-14      2.62201
       814.80000  5.77791e-14      2.62144
       814.90000  5.77791e-14      2.62144
       815.00000  5.77791e-14      2.62086
       815.10000  5.77791e-14      2.62317
       815.20000  5.77791e-14      2.62490
       815.30000  5.77791e-14      2.62664
       815.40000  5.77791e-14      2.62779
       815.50000  3.21772e-13      14.6439
       815.60000  3.21772e-13      14.6471
       815.70000  3.21772e-13      14.6535
       815.80000  3.21772e-13      14.6535
       815.90000  3.21772e-13      14.6567
       816.00000  3.21772e-13      14.6567
       816.10000  3.21772e-13      14.6567
       816.20000  3.21772e-13      14.6535
       816.30000  3.21763e-13      14.6499
       816.40000  3.21763e-13      14.6467
       816.50000  4.50787e-13      20.5108
       816.60000  4.50787e-13      20.5018
       816.70000  4.50787e-13      20.4883
       816.80000  4.50787e-13      20.4748
       816.90000  4.50787e-13      20.4612
       817.00000  4.50787e-13      20.4432
       817.10000  4.50787e-13      20.3801
       817.20000  4.50787e-13      20.3215
       817.30000  4.50787e-13      20.2674
       817.40000  4.50787e-13      20.2133
       817.50000  1.72634e-13      7.72190
       817.60000  1.72634e-13      7.70464
       817.70000  1.72634e-13      7.68737
       817.80000  1.72634e-13      7.67011
       817.90000  1.72634e-13      7.65630
       818.00000  1.72634e-13      7.64076
       818.10000  1.72634e-13      7.62868
       818.20000  1.72634e-13      7.61659
       818.30000  1.72634e-13      7.60451
       818.40000  1.72634e-13      7.59588
       818.50000  1.47935e-13      6.50027
       818.60000  1.47935e-13      6.49435
       818.70000  1.47935e-13      6.48843
       818.80000  1.47913e-13      6.48153
       818.90000  1.47913e-13      6.47857
       819.00000  1.47913e-13      6.47414
       819.10000  1.47913e-13      6.47266
       819.20000  1.47913e-13      6.47118
       819.30000  1.47913e-13      6.46970
       819.40000  1.47913e-13      6.46970
       819.50000  1.62798e-13      7.12243
       819.60000  1.62798e-13      7.12406
       819.70000  1.62798e-13      7.12732
       819.80000  1.62798e-13      7.13220
       819.90000  1.62798e-13      7.13708
       820.00000  1.62798e-13      7.14360
       820.10000  1.62798e-13      7.15011
       820.20000  1.62798e-13      7.15825
       820.30000  1.62798e-13      7.16802
       820.40000  1.62798e-13      7.17778
       820.50000  1.20635e-13      5.32722
       820.60000  1.20635e-13      5.33567
       820.70000  1.20635e-13      5.34532
       820.80000  1.20635e-13      5.35497
       820.90000  1.20635e-13      5.36582
       821.00000  1.20635e-13      5.37789
       821.10000  1.20635e-13      5.37547
       821.20000  1.20635e-13      5.37427
       821.30000  1.20980e-13      5.38726
       821.40000  1.20980e-13      5.38605
       821.50000  2.19565e-13      9.77066
       821.60000  2.19565e-13      9.76846
       821.70000  2.19565e-13      9.76627
       821.80000  2.19565e-13      9.76187
       821.90000  2.19565e-13      9.75968
       822.00000  2.19565e-13      9.75748
       822.10000  2.19565e-13      9.75748
       822.20000  2.19565e-13      9.75529
       822.30000  2.19565e-13      9.75309
       822.40000  2.19565e-13      9.75309
       822.50000  1.96624e-13      8.73207
       822.60000  1.96624e-13      8.73207
       822.70000  1.96624e-13      8.73011
       822.80000  1.96624e-13      8.73011
       822.90000  1.96624e-13      8.73011
       823.00000  1.96624e-13      8.73011
       823.10000  1.96624e-13      8.73011
       823.20000  1.96624e-13      8.73011
       823.30000  1.96624e-13      8.73011
       823.40000  1.96624e-13      8.73011
       823.50000  1.55684e-13      6.91392
       823.60000  1.55684e-13      6.91392
       823.70000  1.55684e-13      6.91547
       823.80000  1.56109e-13      6.93434
       823.90000  1.56109e-13      6.93590
       824.00000  1.56109e-13      6.93747
       824.10000  1.56109e-13      6.93903
       824.20000  1.56109e-13      6.94059
       824.30000  1.56109e-13      6.94215
       824.40000  1.56109e-13      6.94527
       824.50000  5.78630e-14      2.57490
       824.60000  5.78630e-14      2.57606
       824.70000  5.78630e-14      2.57664
       824.80000  5.78630e-14      2.57779
       824.90000  5.78630e-14      2.57895
       825.00000  5.78630e-14      2.58011
       825.10000  5.78630e-14      2.58127
       825.20000  5.78630e-14      2.58242
       825.30000  5.78630e-14      2.58416
       825.40000  5.78630e-14      2.58532
       825.50000  7.03575e-14      3.14568
       825.60000  7.03575e-14      3.14709
       825.70000  7.03575e-14      3.14920
       825.80000  7.03575e-14      3.15131
       825.90000  7.03575e-14      3.15342
       826.00000  7.03575e-14      3.15553
       826.10000  7.03575e-14      3.15765
       826.20000  7.03575e-14      3.15905
       826.30000  7.04043e-14      3.16326
       826.40000  7.04043e-14      3.16467
       826.50000  9.76302e-14      4.38945
       826.60000  9.76302e-14      4.39140
       826.70000  9.76302e-14      4.39336
       826.80000  9.76302e-14      4.39433
       826.90000  9.76302e-14      4.39531
       827.00000  9.76302e-14      4.39629
       827.10000  9.76302e-14      4.39629
       827.20000  9.76302e-14      4.39726
       827.30000  9.76302e-14      4.39726
       827.40000  9.76302e-14      4.39726
       827.50000  3.86034e-14      1.73870
       827.60000  3.86034e-14      1.73870
       827.70000  3.86034e-14      1.73831
       827.80000  3.86034e-14      1.73792
       827.90000  3.86034e-14      1.73754
       828.00000  3.86034e-14      1.73715
       828.10000  3.86034e-14      1.73599
       828.20000  3.86034e-14      1.73445
       828.30000  3.86034e-14      1.73291
       828.40000  3.86034e-14      1.73136
       828.50000  1.63036e-13      7.30729
       828.60000  1.63036e-13      7.30077
       828.70000  1.63036e-13      7.29588
       828.80000  1.62904e-13      7.28507
       828.90000  1.62904e-13      7.27855
       829.00000  1.62904e-13      7.27367
       829.10000  1.62904e-13      7.26878
       829.20000  1.62904e-13      7.26389
       829.30000  1.62904e-13      7.25900
       829.40000  1.62904e-13      7.25412
       829.50000  1.69063e-13      7.52331
       829.60000  1.69063e-13      7.51824
       829.70000  1.69063e-13      7.51316
       829.80000  1.69063e-13      7.50809
       829.90000  1.69063e-13      7.50471
       830.00000  1.69063e-13      7.49964
       830.10000  1.69063e-13      7.49626
       830.20000  1.69063e-13      7.49119
       830.30000  1.69063e-13      7.48780
       830.40000  1.69063e-13      7.48273
       830.50000  6.83748e-15     0.302490
       830.60000  6.83748e-15     0.302353
       830.70000  6.83748e-15     0.302148
       830.80000  6.83748e-15     0.302011
       830.90000  6.83748e-15     0.301875
       831.00000  6.83748e-15     0.301738
       831.10000  6.83748e-15     0.301601
       831.20000  6.83748e-15     0.301464
       831.30000  6.85601e-15     0.302213
       831.40000  6.85601e-15     0.302076
       831.50000  8.80214e-14      3.87646
       831.60000  8.80214e-14      3.87558
       831.70000  8.80214e-14      3.87382
       831.80000  8.80214e-14      3.87206
       831.90000  8.80214e-14      3.87118
       832.00000  8.80214e-14      3.87030
       832.10000  8.80214e-14      3.86678
       832.20000  8.80214e-14      3.86326
       832.30000  8.80214e-14      3.86062
       832.40000  8.80214e-14      3.85798
       832.50000  1.22728e-13      5.37551
       832.60000  1.22728e-13      5.37305
       832.70000  1.22728e-13      5.37060
       832.80000  1.22728e-13      5.36692
       832.90000  1.22728e-13      5.36569
       833.00000  1.22728e-13      5.36323
       833.10000  1.22728e-13      5.36078
       833.20000  1.22728e-13      5.35955
       833.30000  1.22728e-13      5.35833
       833.40000  1.22728e-13      5.35710
       833.50000  1.01103e-13      4.41317
       833.60000  1.01103e-13      4.41215
       833.70000  1.01103e-13      4.41215
       833.80000  1.01209e-13      4.41676
       833.90000  1.01209e-13      4.41777
       834.00000  1.01209e-13      4.41777
       834.10000  1.01209e-13      4.42283
       834.20000  1.01209e-13      4.42688
       834.30000  1.01209e-13      4.43194
       834.40000  1.01209e-13      4.43599
       834.50000  3.03462e-14      1.33129
       834.60000  3.03462e-14      1.33250
       834.70000  3.03462e-14      1.33341
       834.80000  3.03462e-14      1.33432
       834.90000  3.03462e-14      1.33554
       835.00000  3.03462e-14      1.33645
       835.10000  3.03462e-14      1.33706
       835.20000  3.03462e-14      1.33797
       835.30000  3.03462e-14      1.33857
       835.40000  3.03462e-14      1.33918
       835.50000  8.03419e-14      3.54709
       835.60000  8.03419e-14      3.54870
       835.70000  8.03419e-14      3.54950
       835.80000  8.03419e-14      3.55111
       835.90000  8.03419e-14      3.55191
       836.00000  8.03419e-14      3.55272
       836.10000  8.03419e-14      3.55111
       836.20000  8.03419e-14      3.55031
       836.30000  8.03055e-14      3.54709
       836.40000  8.03055e-14      3.54629
       836.50000  1.04045e-13      4.59358
       836.60000  1.04045e-13      4.59150
       836.70000  1.04045e-13      4.59046
       836.80000  1.04045e-13      4.58942
       836.90000  1.04045e-13      4.58734
       837.00000  1.04045e-13      4.58630
       837.10000  1.04045e-13      4.58526
       837.20000  1.04045e-13      4.58422
       837.30000  1.04045e-13      4.58318
       837.40000  1.04045e-13      4.58214
       837.50000  2.59488e-13      11.4252
       837.60000  2.59488e-13      11.4226
       837.70000  2.59488e-13      11.4200
       837.80000  2.59488e-13      11.4175
       837.90000  2.59488e-13      11.4175
       838.00000  2.59488e-13      11.4149
       838.10000  2.59488e-13      11.4123
       838.20000  2.59488e-13      11.4123
       838.30000  2.59488e-13      11.4123
       838.40000  2.59488e-13      11.4123
       838.50000  6.78341e-14      2.98266
       838.60000  6.78341e-14      2.98266
       838.70000  6.78341e-14      2.98266
       838.80000  6.76289e-14      2.97297
       838.90000  6.76289e-14      2.97297
       839.00000  6.76289e-14      2.97297
       839.10000  6.76289e-14      2.97229
       839.20000  6.76289e-14      2.97229
       839.30000  6.76289e-14      2.97229
       839.40000  6.76289e-14      2.97162
       839.50000  7.32751e-14      3.21971
       839.60000  7.32751e-14      3.21971
       839.70000  7.32751e-14      3.21897
       839.80000  7.32751e-14      3.21897
       839.90000  7.32751e-14      3.21897
       840.00000  7.32751e-14      3.21824
       840.10000  7.32751e-14      3.21824
       840.20000  7.32751e-14      3.21824
       840.30000  7.32751e-14      3.21751
       840.40000  7.32751e-14      3.21751
       840.50000  7.88359e-14      3.46168
       840.60000  7.88359e-14      3.46089
       840.70000  7.88359e-14      3.46089
       840.80000  7.88359e-14      3.46089
       840.90000  7.88359e-14      3.46011
       841.00000  7.88359e-14      3.46011
       841.10000  7.88359e-14      3.46011
       841.20000  7.88359e-14      3.46011
       841.30000  7.88316e-14      3.45913
       841.40000  7.88316e-14      3.45913
       841.50000  2.27945e-14      1.00022
       841.60000  2.27945e-14     0.999995
       841.70000  2.27945e-14     0.999995
       841.80000  2.27945e-14     0.999995
       841.90000  2.27945e-14     0.999767
       842.00000  2.27945e-14     0.999767
       842.10000  2.27945e-14     0.998856
       842.20000  2.27945e-14     0.998172
       842.30000  2.27945e-14     0.997488
       842.40000  2.27945e-14     0.996576
       842.50000  2.33326e-14      1.01940
       842.60000  2.33326e-14      1.01893
       842.70000  2.33326e-14      1.01823
       842.80000  2.33326e-14      1.01777
       842.90000  2.33326e-14      1.01707
       843.00000  2.33326e-14      1.01660
       843.10000  2.33326e-14      1.01613
       843.20000  2.33326e-14      1.01567
       843.30000  2.33326e-14      1.01543
       843.40000  2.33326e-14      1.01497
       843.50000  1.34594e-13      5.85349
       843.60000  1.34594e-13      5.85214
       843.70000  1.34594e-13      5.85080
       843.80000  1.34788e-13      5.85788
       843.90000  1.34788e-13      5.85788
       844.00000  1.34788e-13      5.85654
       844.10000  1.34788e-13      5.86058
       844.20000  1.34788e-13      5.86328
       844.30000  1.34788e-13      5.86597
       844.40000  1.34788e-13      5.86867
       844.50000  7.77971e-14      3.38884
       844.60000  7.77971e-14      3.39040
       844.70000  7.77971e-14      3.39118
       844.80000  7.77971e-14      3.39273
       844.90000  7.77971e-14      3.39351
       845.00000  7.77971e-14      3.39507
       845.10000  7.77971e-14      3.39584
       845.20000  7.77971e-14      3.39662
       845.30000  7.77971e-14      3.39818
       845.40000  7.77971e-14      3.39896
       845.50000  6.60337e-14      2.88501
       845.60000  6.60337e-14      2.88567
       845.70000  6.60337e-14      2.88633
       845.80000  6.60337e-14      2.88699
       845.90000  6.60337e-14      2.88699
       846.00000  6.60337e-14      2.88765
       846.10000  6.60337e-14      2.88765
       846.20000  6.60337e-14      2.88765
       846.30000  6.62074e-14      2.89525
       846.40000  6.62074e-14      2.89591
       846.50000  8.76019e-14      3.83171
       846.60000  8.76019e-14      3.83083
       846.70000  8.76019e-14      3.83083
       846.80000  8.76019e-14      3.83083
       846.90000  8.76019e-14      3.82995
       847.00000  8.76019e-14      3.82995
       847.10000  8.76019e-14      3.82908
       847.20000  8.76019e-14      3.82908
       847.30000  8.76019e-14      3.82820
       847.40000  8.76019e-14      3.82733
       847.50000  9.06392e-14      3.95912
       847.60000  9.06392e-14      3.95821
       847.70000  9.06392e-14      3.95731
       847.80000  9.06392e-14      3.95640
       847.90000  9.06392e-14      3.95459
       848.00000  9.06392e-14      3.95368
       848.10000  9.06392e-14      3.93465
       848.20000  9.06392e-14      3.91743
       848.30000  9.06392e-14      3.90021
       848.40000  9.06392e-14      3.88389
       848.50000  1.76214e-14     0.752082
       848.60000  1.76214e-14     0.749439
       848.70000  1.76214e-14     0.746795
       848.80000  1.76887e-14     0.747170
       848.90000  1.76887e-14     0.744870
       849.00000  1.76887e-14     0.742747
