PDS_VERSION_ID         = PDS3
RECORD_TYPE            = STREAM
OBJECT                 = TEXT
  PUBLICATION_DATE     = 2014-04-25
  INTERCHANGE_FORMAT   = ASCII
  NOTE                 = "System transmission vs. wavelength."
END_OBJECT             = TEXT
END
    
The systrans directory contains the non-wavelength-integrated system 
transmission values (QE*optics*filter1*filter2) for each filter combination. 
The naming convention for these files is as follows:

<camera><filter 1><filter 2>_systrans.tab

where <camera> is "issna" or "isswa," and <filter 1> and <filter 2> represent
the filter names. For polarized filter combinations, values are given for the
parallel orientation of the filter (full transmission), with values for the 
perpendicular (blocking) orientation provided in files with subscript 
"_b_systrans.tab". 

Columns in systrans files are as follows:

 1st column: Wavelength (nm)  
 2nd column: Transmitted Flux
 3rd column: Transmitted Flux * Solar Flux (phot per cm^2-s-angstrom at 1 AU)

The solar spectrum used for this calculation is provided in solarflux.tab.

\begindata
       600.00000  2.31735e-10      12342.2
       600.10000  2.31735e-10      12323.7
       600.20000  2.31735e-10      12302.8
       600.30000  2.31735e-10      12277.3
       600.40000  2.31735e-10      12247.2
       600.50000  1.77606e-10      9363.39
       600.60000  1.77606e-10      9375.83
       600.70000  1.77606e-10      9386.48
       600.80000  1.77606e-10      9397.14
       600.90000  1.77606e-10      9404.24
       601.00000  1.77606e-10      9409.57
       601.10000  1.77606e-10      9411.35
       601.20000  1.77606e-10      9413.12
       601.30000  1.77583e-10      9411.89
       601.40000  1.77583e-10      9408.34
       601.50000  7.33848e-11      3886.46
       601.60000  7.33848e-11      3869.58
       601.70000  7.33848e-11      3855.64
       601.80000  7.33848e-11      3843.16
       601.90000  7.33848e-11      3833.62
       602.00000  7.33848e-11      3826.28
       602.10000  7.33848e-11      3820.41
       602.20000  7.33848e-11      3817.48
       602.30000  7.33848e-11      3816.74
       602.40000  7.33848e-11      3818.21
       602.50000  1.83589e-10      9559.47
       602.60000  1.83589e-10      9574.16
       602.70000  1.83589e-10      9594.35
       602.80000  1.83589e-10      9620.05
       602.90000  1.83589e-10      9651.26
       603.00000  1.83589e-10      9687.98
       603.10000  1.83589e-10      9730.21
       603.20000  1.83589e-10      9777.94
       603.30000  1.83589e-10      9831.18
       603.40000  1.83589e-10      9889.93
       603.50000  4.54786e-10      24658.5
       603.60000  4.54786e-10      24649.4
       603.70000  4.54786e-10      24640.3
       603.80000  4.54593e-10      24620.7
       603.90000  4.54593e-10      24607.1
       604.00000  4.54593e-10      24598.0
       604.10000  4.54593e-10      24584.4
       604.20000  4.54593e-10      24575.3
       604.30000  4.54593e-10      24561.6
       604.40000  4.54593e-10      24552.6
       604.50000  2.08936e-10      11278.4
       604.60000  2.08936e-10      11270.0
       604.70000  2.08936e-10      11261.6
       604.80000  2.08936e-10      11253.3
       604.90000  2.08936e-10      11244.9
       605.00000  2.08936e-10      11238.7
       605.10000  2.08936e-10      11232.4
       605.20000  2.08936e-10      11228.2
       605.30000  2.08936e-10      11222.0
       605.40000  2.08936e-10      11217.8
       605.50000  1.22644e-10      6582.32
       605.60000  1.22644e-10      6581.09
       605.70000  1.22644e-10      6578.64
       605.80000  1.22644e-10      6577.41
       605.90000  1.22644e-10      6577.41
       606.00000  1.22644e-10      6576.18
       606.10000  1.22644e-10      6576.18
       606.20000  1.22644e-10      6576.18
       606.30000  1.22648e-10      6576.36
       606.40000  1.22648e-10      6577.59
       606.50000  1.15908e-10      6217.32
       606.60000  1.15908e-10      6219.64
       606.70000  1.15908e-10      6220.80
       606.80000  1.15908e-10      6223.12
       606.90000  1.15908e-10      6223.12
       607.00000  1.15908e-10      6224.28
       607.10000  1.15908e-10      6224.28
       607.20000  1.15908e-10      6224.28
       607.30000  1.15908e-10      6223.12
       607.40000  1.15908e-10      6221.96
       607.50000  2.91260e-10      15631.9
       607.60000  2.91260e-10      15614.4
       607.70000  2.91260e-10      15599.9
       607.80000  2.91260e-10      15588.2
       607.90000  2.91260e-10      15576.6
       608.00000  2.91260e-10      15564.9
       608.10000  2.91260e-10      15556.2
       608.20000  2.91260e-10      15547.5
       608.30000  2.91260e-10      15541.6
       608.40000  2.91260e-10      15535.8
       608.50000  3.07457e-10      16396.7
       608.60000  3.07457e-10      16393.6
       608.70000  3.07457e-10      16390.5
       608.80000  3.07391e-10      16387.0
       608.90000  3.07391e-10      16390.1
       609.00000  3.07391e-10      16393.1
       609.10000  3.07391e-10      16396.2
       609.20000  3.07391e-10      16402.4
       609.30000  3.07391e-10      16408.5
       609.40000  3.07391e-10      16417.7
       609.50000  6.80578e-11      3637.69
       609.60000  6.80578e-11      3621.35
       609.70000  6.80578e-11      3607.06
       609.80000  6.80578e-11      3594.81
       609.90000  6.80578e-11      3584.60
       610.00000  6.80578e-11      3575.75
       610.10000  6.80578e-11      3568.27
       610.20000  6.80578e-11      3562.82
       610.30000  6.80578e-11      3559.42
       610.40000  6.80578e-11      3558.06
       610.50000  1.32406e-10      6920.87
       610.60000  1.32406e-10      6955.29
       610.70000  1.32406e-10      6985.75
       610.80000  1.32406e-10      7013.55
       610.90000  1.32406e-10      7037.39
       611.00000  1.32406e-10      7057.25
       611.10000  1.32406e-10      7074.46
       611.20000  1.32406e-10      7087.70
       611.30000  1.32407e-10      7098.31
       611.40000  1.32407e-10      7104.93
       611.50000  9.84988e-11      5287.42
       611.60000  9.84988e-11      5287.42
       611.70000  9.84988e-11      5284.46
       611.80000  9.84988e-11      5279.54
       611.90000  9.84988e-11      5271.66
       612.00000  9.84988e-11      5261.81
       612.10000  9.84988e-11      5249.00
       612.20000  9.84988e-11      5233.24
       612.30000  9.84988e-11      5215.51
       612.40000  9.84988e-11      5194.83
       612.50000  2.93425e-10      15407.7
       612.60000  2.93425e-10      15369.6
       612.70000  2.93425e-10      15334.4
       612.80000  2.93425e-10      15305.0
       612.90000  2.93425e-10      15281.6
       613.00000  2.93425e-10      15261.0
       613.10000  2.93425e-10      15246.4
       613.20000  2.93425e-10      15234.6
       613.30000  2.93425e-10      15228.7
       613.40000  2.93425e-10      15228.7
       613.50000  9.02219e-11      4683.42
       613.60000  9.02219e-11      4696.95
       613.70000  9.02219e-11      4708.68
       613.80000  9.01233e-11      4714.35
       613.90000  9.01233e-11      4725.17
       614.00000  9.01233e-11      4735.08
       614.10000  9.01233e-11      4743.19
       614.20000  9.01233e-11      4751.30
       614.30000  9.01233e-11      4758.51
       614.40000  9.01233e-11      4764.82
       614.50000  6.94269e-11      3674.77
       614.60000  6.94269e-11      3678.24
       614.70000  6.94269e-11      3681.02
       614.80000  6.94269e-11      3683.10
       614.90000  6.94269e-11      3684.49
       615.00000  6.94269e-11      3685.18
       615.10000  6.94269e-11      3685.88
       615.20000  6.94269e-11      3685.18
       615.30000  6.94269e-11      3684.49
       615.40000  6.94269e-11      3683.10
       615.50000  5.83608e-11      3093.71
       615.60000  5.83608e-11      3059.27
       615.70000  5.83608e-11      3027.76
       615.80000  5.83608e-11      3000.33
       615.90000  5.83608e-11      2976.98
       616.00000  5.83608e-11      2956.56
       616.10000  5.83608e-11      2940.22
       616.20000  5.83608e-11      2927.38
       616.30000  5.83691e-11      2918.45
       616.40000  5.83691e-11      2913.20
       616.50000  2.53227e-10      12628.5
       616.60000  2.53227e-10      12737.3
       616.70000  2.53227e-10      12838.6
       616.80000  2.53227e-10      12932.3
       616.90000  2.53227e-10      13021.0
       617.00000  2.53227e-10      13104.5
       617.10000  2.53227e-10      13180.5
       617.20000  2.53227e-10      13248.9
       617.30000  2.53227e-10      13312.2
       617.40000  2.53227e-10      13370.4
       617.50000  3.82426e-10      20268.6
       617.60000  3.82426e-10      20333.6
       617.70000  3.82426e-10      20391.0
       617.80000  3.82426e-10      20440.7
       617.90000  3.82426e-10      20475.1
       618.00000  3.82426e-10      20505.7
       618.10000  3.82426e-10      20524.8
       618.20000  3.82426e-10      20532.5
       618.30000  3.82426e-10      20532.5
       618.40000  3.82426e-10      20521.0
       618.50000  6.70694e-12      359.559
       618.60000  6.70694e-12      358.888
       618.70000  6.70694e-12      358.217
       618.80000  6.70019e-12      357.388
       618.90000  6.70019e-12      356.919
       619.00000  6.70019e-12      356.584
       619.10000  6.70019e-12      356.316
       619.20000  6.70019e-12      356.182
       619.30000  6.70019e-12      356.115
       619.40000  6.70019e-12      356.115
       619.50000  2.63177e-10      13993.1
       619.60000  2.63177e-10      14043.1
       619.70000  2.63177e-10      14087.9
       619.80000  2.63177e-10      14127.3
       619.90000  2.63177e-10      14161.6
       620.00000  2.63177e-10      14187.9
       620.10000  2.63177e-10      14208.9
       620.20000  2.63177e-10      14224.7
       620.30000  2.63177e-10      14235.2
       620.40000  2.63177e-10      14237.9
       620.50000  1.98903e-10      10760.6
       620.60000  1.98903e-10      10716.9
       620.70000  1.98903e-10      10675.1
       620.80000  1.98903e-10      10639.3
       620.90000  1.98903e-10      10607.5
       621.00000  1.98903e-10      10579.6
       621.10000  1.98903e-10      10555.8
       621.20000  1.98903e-10      10537.9
       621.30000  1.98648e-10      10508.5
       621.40000  1.98648e-10      10496.5
       621.50000  6.33182e-12      334.383
       621.60000  6.33182e-12      335.523
       621.70000  6.33182e-12      336.536
       621.80000  6.33182e-12      337.359
       621.90000  6.33182e-12      338.119
       622.00000  6.33182e-12      338.689
       622.10000  6.33182e-12      339.132
       622.20000  6.33182e-12      339.385
       622.30000  6.33182e-12      339.575
       622.40000  6.33182e-12      339.575
       622.50000  3.03162e-11      1625.25
       622.60000  3.03162e-11      1624.04
       622.70000  3.03162e-11      1622.22
       622.80000  3.03162e-11      1619.79
       622.90000  3.03162e-11      1616.46
       623.00000  3.03162e-11      1612.82
       623.10000  3.03162e-11      1608.27
       623.20000  3.03162e-11      1602.82
       623.30000  3.03162e-11      1597.06
       623.40000  3.03162e-11      1590.39
       623.50000  5.24667e-11      2740.34
       623.60000  5.24667e-11      2739.81
       623.70000  5.24667e-11      2739.81
       623.80000  5.23538e-11      2732.87
       623.90000  5.23538e-11      2732.34
       624.00000  5.23538e-11      2731.30
       624.10000  5.23538e-11      2729.72
       624.20000  5.23538e-11      2728.15
       624.30000  5.23538e-11      2726.58
       624.40000  5.23538e-11      2724.49
       624.50000  1.22419e-10      6365.80
       624.60000  1.22419e-10      6341.31
       624.70000  1.22419e-10      6321.72
       624.80000  1.22419e-10      6304.59
       624.90000  1.22419e-10      6291.12
       625.00000  1.22419e-10      6281.33
       625.10000  1.22419e-10      6275.21
       625.20000  1.22419e-10      6271.53
       625.30000  1.22419e-10      6272.76
       625.40000  1.22419e-10      6276.43
       625.50000  3.75698e-11      1928.46
       625.60000  3.75698e-11      1931.47
       625.70000  3.75698e-11      1935.97
       625.80000  3.75698e-11      1941.23
       625.90000  3.75698e-11      1947.62
       626.00000  3.75698e-11      1955.13
       626.10000  3.75698e-11      1963.78
       626.20000  3.75698e-11      1973.17
       626.30000  3.75106e-11      1980.93
       626.40000  3.75106e-11      1992.56
       626.50000  6.23053e-11      3330.22
       626.60000  6.23053e-11      3330.84
       626.70000  6.23053e-11      3331.46
       626.80000  6.23053e-11      3332.09
       626.90000  6.23053e-11      3332.71
       627.00000  6.23053e-11      3333.33
       627.10000  6.23053e-11      3333.96
       627.20000  6.23053e-11      3333.96
       627.30000  6.23053e-11      3334.58
       627.40000  6.23053e-11      3335.20
       627.50000  1.00568e-11      538.443
       627.60000  1.00568e-11      538.846
       627.70000  1.00568e-11      539.147
       627.80000  1.00568e-11      539.348
       627.90000  1.00568e-11      539.550
       628.00000  1.00568e-11      539.650
       628.10000  1.00568e-11      539.751
       628.20000  1.00568e-11      539.751
       628.30000  1.00568e-11      539.650
       628.40000  1.00568e-11      539.550
       628.50000  4.46317e-12      239.360
       628.60000  4.46317e-12      239.226
       628.70000  4.46317e-12      239.092
       628.80000  4.45373e-12      238.408
       628.90000  4.45373e-12      238.186
       629.00000  4.45373e-12      237.963
       629.10000  4.45373e-12      237.696
       629.20000  4.45373e-12      237.428
       629.30000  4.45373e-12      237.117
       629.40000  4.45373e-12      236.760
       629.50000  9.53578e-11      5061.59
       629.60000  9.53578e-11      5051.10
       629.70000  9.53578e-11      5040.62
       629.80000  9.53578e-11      5031.08
       629.90000  9.53578e-11      5022.50
       630.00000  9.53578e-11      5013.92
       630.10000  9.53578e-11      5005.33
       630.20000  9.53578e-11      4998.66
       630.30000  9.53578e-11      4991.03
       630.40000  9.53578e-11      4985.31
       630.50000  1.68728e-11      881.099
       630.60000  1.68728e-11      880.086
       630.70000  1.68728e-11      879.243
       630.80000  1.68728e-11      878.568
       630.90000  1.68728e-11      877.893
       631.00000  1.68728e-11      877.387
       631.10000  1.68728e-11      877.893
       631.20000  1.68728e-11      878.399
       631.30000  1.68720e-11      879.031
       631.40000  1.68720e-11      879.537
       631.50000  6.95817e-11      3629.38
       631.60000  6.95817e-11      3631.47
       631.70000  6.95817e-11      3633.55
       631.80000  6.95817e-11      3634.95
       631.90000  6.95817e-11      3637.03
       632.00000  6.95817e-11      3639.12
       632.10000  6.95817e-11      3641.21
       632.20000  6.95817e-11      3642.60
       632.30000  6.95817e-11      3644.69
       632.40000  6.95817e-11      3646.78
       632.50000  1.64022e-10      8599.69
       632.60000  1.64022e-10      8602.97
       632.70000  1.64022e-10      8607.89
       632.80000  1.64022e-10      8611.17
       632.90000  1.64022e-10      8614.45
       633.00000  1.64022e-10      8619.37
       633.10000  1.64022e-10      8622.65
       633.20000  1.64022e-10      8625.93
       633.30000  1.64022e-10      8629.21
       633.40000  1.64022e-10      8632.49
       633.50000  1.14698e-10      6038.82
       633.60000  1.14698e-10      6041.12
       633.70000  1.14698e-10      6043.41
       633.80000  1.14680e-10      6043.63
       633.90000  1.14680e-10      6045.93
       634.00000  1.14680e-10      6048.22
       634.10000  1.14680e-10      6049.37
       634.20000  1.14680e-10      6051.66
       634.30000  1.14680e-10      6052.81
       634.40000  1.14680e-10      6055.10
       634.50000  1.19746e-10      6323.79
       634.60000  1.19746e-10      6324.99
       634.70000  1.19746e-10      6327.38
       634.80000  1.19746e-10      6328.58
       634.90000  1.19746e-10      6329.78
       635.00000  1.19746e-10      6330.98
       635.10000  1.19746e-10      6332.17
       635.20000  1.19746e-10      6332.17
       635.30000  1.19746e-10      6333.37
       635.40000  1.19746e-10      6333.37
       635.50000  3.11940e-10      16501.6
       635.60000  3.11940e-10      16504.8
       635.70000  3.11940e-10      16504.8
       635.80000  3.11940e-10      16507.9
       635.90000  3.11940e-10      16507.9
       636.00000  3.11940e-10      16511.0
       636.10000  3.11940e-10      16511.0
       636.20000  3.11940e-10      16514.1
       636.30000  3.10091e-10      16416.2
       636.40000  3.10091e-10      16419.3
       636.50000  2.79306e-10      14789.3
       636.60000  2.79306e-10      14792.1
       636.70000  2.79306e-10      14792.1
       636.80000  2.79306e-10      14794.9
       636.90000  2.79306e-10      14794.9
       637.00000  2.79306e-10      14794.9
       637.10000  2.79306e-10      14797.6
       637.20000  2.79306e-10      14797.6
       637.30000  2.79306e-10      14800.4
       637.40000  2.79306e-10      14800.4
       637.50000  1.54770e-10      8201.25
       637.60000  1.54770e-10      8202.80
       637.70000  1.54770e-10      8202.80
       637.80000  1.54770e-10      8204.35
       637.90000  1.54770e-10      8204.35
       638.00000  1.54770e-10      8204.35
       638.10000  1.54770e-10      8205.90
       638.20000  1.54770e-10      8205.90
       638.30000  1.54770e-10      8205.90
       638.40000  1.54770e-10      8207.44
       638.50000  1.48016e-11      784.931
       638.60000  1.48016e-11      784.931
       638.70000  1.48016e-11      785.079
       638.80000  1.47046e-11      779.930
       638.90000  1.47046e-11      779.930
       639.00000  1.47046e-11      779.930
       639.10000  1.47046e-11      778.754
       639.20000  1.47046e-11      777.578
       639.30000  1.47046e-11      776.401
       639.40000  1.47046e-11      775.372
       639.50000  4.02732e-11      2120.39
       639.60000  4.02732e-11      2117.97
       639.70000  4.02732e-11      2115.15
       639.80000  4.02732e-11      2112.73
       639.90000  4.02732e-11      2110.72
       640.00000  4.02732e-11      2108.30
       640.10000  4.02732e-11      2106.29
       640.20000  4.02732e-11      2104.68
       640.30000  4.02732e-11      2103.07
       640.40000  4.02732e-11      2101.46
       640.50000  2.21978e-11      1157.39
       640.60000  2.21978e-11      1156.73
       640.70000  2.21978e-11      1156.06
       640.80000  2.21978e-11      1155.62
       640.90000  2.21978e-11      1154.95
       641.00000  2.21978e-11      1154.73
       641.10000  2.21978e-11      1155.17
       641.20000  2.21978e-11      1155.62
       641.30000  2.20476e-11      1148.24
       641.40000  2.20476e-11      1148.68
       641.50000  1.08008e-10      5629.40
       641.60000  1.08008e-10      5631.56
       641.70000  1.08008e-10      5633.72
       641.80000  1.08008e-10      5635.88
       641.90000  1.08008e-10      5638.04
       642.00000  1.08008e-10      5640.20
       642.10000  1.08008e-10      5641.28
       642.20000  1.08008e-10      5643.44
       642.30000  1.08008e-10      5645.60
       642.40000  1.08008e-10      5647.76
       642.50000  1.05214e-11      550.376
       642.60000  1.05214e-11      550.586
       642.70000  1.05214e-11      550.797
       642.80000  1.05214e-11      551.007
       642.90000  1.05214e-11      551.218
       643.00000  1.05214e-11      551.428
       643.10000  1.05214e-11      551.533
       643.20000  1.05214e-11      551.744
       643.30000  1.05214e-11      551.954
       643.40000  1.05214e-11      552.165
       643.50000  3.29045e-11      1727.48
       643.60000  3.29045e-11      1728.14
       643.70000  3.29045e-11      1728.47
       643.80000  3.28606e-11      1726.83
       643.90000  3.28606e-11      1727.48
       644.00000  3.28606e-11      1728.14
       644.10000  3.28606e-11      1728.80
       644.20000  3.28606e-11      1729.13
       644.30000  3.28606e-11      1729.78
       644.40000  3.28606e-11      1730.44
       644.50000  4.94024e-11      2602.52
       644.60000  4.94024e-11      2603.01
       644.70000  4.94024e-11      2604.00
       644.80000  4.94024e-11      2604.99
       644.90000  4.94024e-11      2605.97
       645.00000  4.94024e-11      2606.47
       645.10000  4.94024e-11      2605.97
       645.20000  4.94024e-11      2604.99
       645.30000  4.94024e-11      2604.49
       645.40000  4.94024e-11      2603.50
       645.50000  3.11665e-11      1641.54
       645.60000  3.11665e-11      1640.92
       645.70000  3.11665e-11      1640.29
       645.80000  3.11665e-11      1639.36
       645.90000  3.11665e-11      1638.42
       646.00000  3.11665e-11      1637.49
       646.10000  3.11665e-11      1636.55
       646.20000  3.11665e-11      1635.62
       646.30000  3.11474e-11      1633.37
       646.40000  3.11474e-11      1632.12
       646.50000  1.60279e-10      8393.81
       646.60000  1.60279e-10      8385.80
       646.70000  1.60279e-10      8379.39
       646.80000  1.60279e-10      8372.98
       646.90000  1.60279e-10      8364.96
       647.00000  1.60279e-10      8358.55
       647.10000  1.60279e-10      8336.11
       647.20000  1.60279e-10      8315.28
       647.30000  1.60279e-10      8296.04
       647.40000  1.60279e-10      8276.81
       647.50000  1.16999e-10      6028.94
       647.60000  1.16999e-10      6018.41
       647.70000  1.16999e-10      6006.71
       647.80000  1.16999e-10      5997.35
       647.90000  1.16999e-10      5987.99
       648.00000  1.16999e-10      5979.80
       648.10000  1.16999e-10      5972.78
       648.20000  1.16999e-10      5966.93
       648.30000  1.16999e-10      5961.08
       648.40000  1.16999e-10      5956.40
       648.50000  1.17788e-10      5993.05
       648.60000  1.17788e-10      5990.69
       648.70000  1.17788e-10      5988.33
       648.80000  1.17910e-10      5993.35
       648.90000  1.17910e-10      5993.35
       649.00000  1.17910e-10      5994.53
       649.10000  1.17910e-10      5995.71
       649.20000  1.17910e-10      5999.25
       649.30000  1.17910e-10      6001.60
       649.40000  1.17910e-10      6006.32
       649.50000  1.88345e-10      9603.71
       649.60000  1.88345e-10      9613.13
       649.70000  1.88345e-10      9624.43
       649.80000  1.88345e-10      9637.62
       649.90000  1.88345e-10      9650.80
       650.00000  1.88345e-10      9665.87
       650.10000  1.88345e-10      9682.82
       650.20000  1.88345e-10      9701.65
       650.30000  1.88345e-10      9722.37
       650.40000  1.88345e-10      9743.09
       650.50000  8.85391e-11      4590.75
       650.60000  8.85391e-11      4602.26
       650.70000  8.85391e-11      4613.77
       650.80000  8.85391e-11      4627.05
       650.90000  8.85391e-11      4640.33
       651.00000  8.85391e-11      4654.50
       651.10000  8.85391e-11      4658.04
       651.20000  8.85391e-11      4661.58
       651.30000  8.84281e-11      4658.39
       651.40000  8.84281e-11      4661.04
       651.50000  2.46572e-11      1300.42
       651.60000  2.46572e-11      1300.67
       651.70000  2.46572e-11      1301.16
       651.80000  2.46572e-11      1301.41
       651.90000  2.46572e-11      1301.41
       652.00000  2.46572e-11      1301.41
       652.10000  2.46572e-11      1301.16
       652.20000  2.46572e-11      1300.91
       652.30000  2.46572e-11      1300.67
       652.40000  2.46572e-11      1300.17
       652.50000  5.19132e-11      2735.83
       652.60000  5.19132e-11      2734.27
       652.70000  5.19132e-11      2732.71
       652.80000  5.19132e-11      2730.12
       652.90000  5.19132e-11      2728.04
       653.00000  5.19132e-11      2725.44
       653.10000  5.19132e-11      2723.37
       653.20000  5.19132e-11      2721.29
       653.30000  5.19132e-11      2718.18
       653.40000  5.19132e-11      2715.06
       653.50000  3.84173e-11      2006.92
       653.60000  3.84173e-11      2004.23
       653.70000  3.84173e-11      2001.16
       653.80000  3.83705e-11      1995.27
       653.90000  3.83705e-11      1991.81
       654.00000  3.83705e-11      1987.98
       654.10000  3.83705e-11      1984.14
       654.20000  3.83705e-11      1979.53
       654.30000  3.83705e-11      1974.93
       654.40000  3.83705e-11      1970.33
       654.50000  2.03558e-11      1042.62
       654.60000  2.03558e-11      1039.77
       654.70000  2.03558e-11      1036.72
       654.80000  2.03558e-11      1033.67
       654.90000  2.03558e-11      1030.41
       655.00000  2.03558e-11      1026.95
       655.10000  2.03558e-11      1017.18
       655.20000  2.03558e-11      1007.81
       655.30000  2.03558e-11      999.062
       655.40000  2.03558e-11      990.920
       655.50000  8.85363e-12      427.630
       655.60000  8.85363e-12      424.531
       655.70000  8.85363e-12      421.610
       655.80000  8.85363e-12      418.954
       655.90000  8.85363e-12      416.475
       656.00000  8.85363e-12      414.261
       656.10000  8.85363e-12      412.313
       656.20000  8.85363e-12      410.543
       656.30000  8.84689e-12      408.726
       656.40000  8.84689e-12      407.399
       656.50000  4.93294e-11      2265.70
       656.60000  4.93294e-11      2261.26
       656.70000  4.93294e-11      2257.81
       656.80000  4.93294e-11      2255.83
       656.90000  4.93294e-11      2254.85
       657.00000  4.93294e-11      2255.34
       657.10000  4.93294e-11      2274.58
       657.20000  4.93294e-11      2293.32
       657.30000  4.93294e-11      2311.57
       657.40000  4.93294e-11      2329.33
       657.50000  3.40180e-11      1617.90
       657.60000  3.40180e-11      1629.46
       657.70000  3.40180e-11      1640.35
       657.80000  3.40180e-11      1650.89
       657.90000  3.40180e-11      1660.76
       658.00000  3.40180e-11      1670.62
       658.10000  3.40180e-11      1680.15
       658.20000  3.40180e-11      1688.99
       658.30000  3.40180e-11      1697.50
       658.40000  3.40180e-11      1705.66
       658.50000  6.21603e-11      3130.39
       658.60000  6.21603e-11      3144.07
       658.70000  6.21603e-11      3156.50
       658.80000  6.20958e-11      3165.64
       658.90000  6.20958e-11      3176.82
       659.00000  6.20958e-11      3186.76
       659.10000  6.20958e-11      3196.69
       659.20000  6.20958e-11      3206.01
       659.30000  6.20958e-11      3214.08
       659.40000  6.20958e-11      3221.53
       659.50000  3.17837e-12      165.244
       659.60000  3.17837e-12      165.561
       659.70000  3.17837e-12      165.816
       659.80000  3.17837e-12      166.070
       659.90000  3.17837e-12      166.261
       660.00000  3.17837e-12      166.420
       660.10000  3.17837e-12      166.547
       660.20000  3.17837e-12      166.610
       660.30000  3.17837e-12      166.674
       660.40000  3.17837e-12      166.674
       660.50000  3.14010e-12      164.636
       660.60000  3.14010e-12      164.573
       660.70000  3.14010e-12      164.479
       660.80000  3.14010e-12      164.321
       660.90000  3.14010e-12      164.164
       661.00000  3.14010e-12      163.945
       661.10000  3.14010e-12      163.850
       661.20000  3.14010e-12      163.725
       661.30000  3.13230e-12      163.224
       661.40000  3.13230e-12      163.130
       661.50000  3.47708e-11      1809.82
       661.60000  3.47708e-11      1809.12
       661.70000  3.47708e-11      1808.08
       661.80000  3.47708e-11      1807.39
       661.90000  3.47708e-11      1806.69
       662.00000  3.47708e-11      1805.99
       662.10000  3.47708e-11      1805.30
       662.20000  3.47708e-11      1804.60
       662.30000  3.47708e-11      1804.26
       662.40000  3.47708e-11      1803.91
       662.50000  2.37297e-11      1230.62
       662.60000  2.37297e-11      1230.62
       662.70000  2.37297e-11      1230.38
       662.80000  2.37297e-11      1230.15
       662.90000  2.37297e-11      1230.15
       663.00000  2.37297e-11      1230.15
       663.10000  2.37297e-11      1231.10
       663.20000  2.37297e-11      1231.81
       663.30000  2.37297e-11      1232.76
       663.40000  2.37297e-11      1233.47
       663.50000  1.13162e-11      588.554
       663.60000  1.13162e-11      588.894
       663.70000  1.13162e-11      589.120
       663.80000  1.12920e-11      588.202
       663.90000  1.12920e-11      588.428
       664.00000  1.12920e-11      588.541
       664.10000  1.12920e-11      588.767
       664.20000  1.12920e-11      588.880
       664.30000  1.12920e-11      588.993
       664.40000  1.12920e-11      589.106
       664.50000  5.47135e-12      285.441
       664.60000  5.47135e-12      285.441
       664.70000  5.47135e-12      285.441
       664.80000  5.47135e-12      285.441
       664.90000  5.47135e-12      285.441
       665.00000  5.47135e-12      285.386
       665.10000  5.47135e-12      285.331
       665.20000  5.47135e-12      285.276
       665.30000  5.47135e-12      285.167
       665.40000  5.47135e-12      285.058
       665.50000  5.02346e-11      2616.22
       665.60000  5.02346e-11      2615.21
       665.70000  5.02346e-11      2613.71
       665.80000  5.02346e-11      2612.70
       665.90000  5.02346e-11      2611.20
       666.00000  5.02346e-11      2609.19
       666.10000  5.02346e-11      2607.68
       666.20000  5.02346e-11      2605.67
       666.30000  5.01084e-11      2597.12
       666.40000  5.01084e-11      2595.12
       666.50000  1.14680e-11      593.354
       666.60000  1.14680e-11      592.781
       666.70000  1.14680e-11      592.208
       666.80000  1.14680e-11      591.634
       666.90000  1.14680e-11      591.061
       667.00000  1.14680e-11      590.373
       667.10000  1.14680e-11      591.061
       667.20000  1.14680e-11      591.634
       667.30000  1.14680e-11      592.208
       667.40000  1.14680e-11      592.781
       667.50000  2.45307e-11      1269.22
       667.60000  2.45307e-11      1270.20
       667.70000  2.45307e-11      1271.18
       667.80000  2.45307e-11      1271.92
       667.90000  2.45307e-11      1272.65
       668.00000  2.45307e-11      1273.39
       668.10000  2.45307e-11      1274.12
       668.20000  2.45307e-11      1274.61
       668.30000  2.45307e-11      1275.10
       668.40000  2.45307e-11      1275.35
       668.50000  2.49588e-11      1297.86
       668.60000  2.49588e-11      1298.11
       668.70000  2.49588e-11      1298.11
       668.80000  2.49180e-11      1295.98
       668.90000  2.49180e-11      1295.98
       669.00000  2.49180e-11      1295.73
       669.10000  2.49180e-11      1293.99
       669.20000  2.49180e-11      1292.25
       669.30000  2.49180e-11      1290.75
       669.40000  2.49180e-11      1289.26
       669.50000  2.77072e-11      1431.91
       669.60000  2.77072e-11      1430.24
       669.70000  2.77072e-11      1428.86
       669.80000  2.77072e-11      1427.47
       669.90000  2.77072e-11      1426.09
       670.00000  2.77072e-11      1424.98
       670.10000  2.77072e-11      1423.87
       670.20000  2.77072e-11      1422.76
       670.30000  2.77072e-11      1421.65
       670.40000  2.77072e-11      1420.82
       670.50000  1.24138e-11      636.208
       670.60000  1.24138e-11      635.836
       670.70000  1.24138e-11      635.587
       670.80000  1.24138e-11      635.339
       670.90000  1.24138e-11      635.091
       671.00000  1.24138e-11      634.967
       671.10000  1.24138e-11      634.718
       671.20000  1.24138e-11      634.718
       671.30000  1.24143e-11      634.618
       671.40000  1.24143e-11      634.618
       671.50000  1.21311e-11      620.142
       671.60000  1.21311e-11      620.142
       671.70000  1.21311e-11      620.142
       671.80000  1.21311e-11      620.263
       671.90000  1.21311e-11      620.384
       672.00000  1.21311e-11      620.627
       672.10000  1.21311e-11      620.869
       672.20000  1.21311e-11      621.112
       672.30000  1.21311e-11      621.355
       672.40000  1.21311e-11      621.719
       672.50000  9.94858e-13      51.0163
       672.60000  9.94858e-13      51.0462
       672.70000  9.94858e-13      51.0760
       672.80000  9.94858e-13      51.1158
       672.90000  9.94858e-13      51.1556
       673.00000  9.94858e-13      51.2053
       673.10000  9.94858e-13      51.1854
       673.20000  9.94858e-13      51.1655
       673.30000  9.94858e-13      51.1456
       673.40000  9.94858e-13      51.1357
       673.50000  1.53368e-11      788.005
       673.60000  1.53368e-11      787.851
       673.70000  1.53368e-11      787.698
       673.80000  1.53429e-11      787.705
       673.90000  1.53429e-11      787.552
       674.00000  1.53429e-11      787.398
       674.10000  1.53429e-11      787.245
       674.20000  1.53429e-11      787.092
       674.30000  1.53429e-11      786.938
       674.40000  1.53429e-11      786.785
       674.50000  1.22277e-11      626.913
       674.60000  1.22277e-11      626.913
       674.70000  1.22277e-11      626.791
       674.80000  1.22277e-11      626.791
       674.90000  1.22277e-11      626.669
       675.00000  1.22277e-11      626.669
       675.10000  1.22277e-11      626.791
       675.20000  1.22277e-11      626.913
       675.30000  1.22277e-11      627.035
       675.40000  1.22277e-11      627.158
       675.50000  1.38433e-11      710.021
       675.60000  1.38433e-11      710.159
       675.70000  1.38433e-11      710.298
       675.80000  1.38433e-11      710.298
       675.90000  1.38433e-11      710.436
       676.00000  1.38433e-11      710.436
       676.10000  1.38433e-11      710.575
       676.20000  1.38433e-11      710.575
       676.30000  1.38291e-11      709.850
       676.40000  1.38291e-11      709.850
       676.50000  4.46671e-11      2293.21
       676.60000  4.46671e-11      2293.21
       676.70000  4.46671e-11      2293.21
       676.80000  4.46671e-11      2292.76
       676.90000  4.46671e-11      2292.76
       677.00000  4.46671e-11      2292.76
       677.10000  4.46671e-11      2292.76
       677.20000  4.46671e-11      2292.32
       677.30000  4.46671e-11      2292.32
       677.40000  4.46671e-11      2291.87
       677.50000  4.37159e-12      224.306
       677.60000  4.37159e-12      224.263
       677.70000  4.37159e-12      224.263
       677.80000  4.37159e-12      224.219
       677.90000  4.37159e-12      224.175
       678.00000  4.37159e-12      224.131
       678.10000  4.37159e-12      224.088
       678.20000  4.37159e-12      224.044
       678.30000  4.37159e-12      224.000
       678.40000  4.37159e-12      223.957
       678.50000  1.12521e-11      576.222
       678.60000  1.12521e-11      576.109
       678.70000  1.12521e-11      575.997
       678.80000  1.12513e-11      575.728
       678.90000  1.12513e-11      575.616
       679.00000  1.12513e-11      575.391
       679.10000  1.12513e-11      575.391
       679.20000  1.12513e-11      575.503
       679.30000  1.12513e-11      575.503
       679.40000  1.12513e-11      575.503
       679.50000  1.09394e-11      559.551
       679.60000  1.09394e-11      559.551
       679.70000  1.09394e-11      559.551
       679.80000  1.09394e-11      559.551
       679.90000  1.09394e-11      559.551
       680.00000  1.09394e-11      559.442
       680.10000  1.09394e-11      559.442
       680.20000  1.09394e-11      559.442
       680.30000  1.09394e-11      559.333
       680.40000  1.09394e-11      559.333
       680.50000  2.34259e-12      119.753
       680.60000  2.34259e-12      119.753
       680.70000  2.34259e-12      119.730
       680.80000  2.34259e-12      119.706
       680.90000  2.34259e-12      119.683
       681.00000  2.34259e-12      119.683
       681.10000  2.34259e-12      119.659
       681.20000  2.34259e-12      119.636
       681.30000  2.34237e-12      119.625
       681.40000  2.34237e-12      119.601
       681.50000  2.05058e-11      1046.82
       681.60000  2.05058e-11      1046.62
       681.70000  2.05058e-11      1046.41
       681.80000  2.05058e-11      1046.00
       681.90000  2.05058e-11      1045.80
       682.00000  2.05058e-11      1045.59
       682.10000  2.05058e-11      1045.18
       682.20000  2.05058e-11      1044.77
       682.30000  2.05058e-11      1044.57
       682.40000  2.05058e-11      1044.16
       682.50000  1.36636e-11      695.476
       682.60000  1.36636e-11      695.202
       682.70000  1.36636e-11      694.929
       682.80000  1.36636e-11      694.656
       682.90000  1.36636e-11      694.246
       683.00000  1.36636e-11      693.973
       683.10000  1.36636e-11      693.699
       683.20000  1.36636e-11      693.290
       683.30000  1.36636e-11      692.880
       683.40000  1.36636e-11      692.470
       683.50000  2.02285e-11      1024.78
       683.60000  2.02285e-11      1024.17
       683.70000  2.02285e-11      1023.56
       683.80000  2.02130e-11      1021.97
       683.90000  2.02130e-11      1021.36
       684.00000  2.02130e-11      1020.76
       684.10000  2.02130e-11      1019.95
       684.20000  2.02130e-11      1019.34
       684.30000  2.02130e-11      1018.53
       684.40000  2.02130e-11      1017.93
       684.50000  2.99362e-11      1506.39
       684.60000  2.99362e-11      1505.19
       684.70000  2.99362e-11      1504.00
       684.80000  2.99362e-11      1502.80
       684.90000  2.99362e-11      1501.30
       685.00000  2.99362e-11      1500.10
       685.10000  2.99362e-11      1501.30
       685.20000  2.99362e-11      1502.80
       685.30000  2.99362e-11      1504.00
       685.40000  2.99362e-11      1504.89
       685.50000  1.90246e-12      95.7128
       685.60000  1.90246e-12      95.7889
       685.70000  1.90246e-12      95.8460
       685.80000  1.90246e-12      95.9031
       685.90000  1.90246e-12      95.9601
       686.00000  1.90246e-12      96.0172
       686.10000  1.90246e-12      96.0743
       686.20000  1.90246e-12      96.1123
       686.30000  1.90046e-12      96.0684
       686.40000  1.90046e-12      96.1064
       686.50000  6.49604e-12      328.635
       686.60000  6.49604e-12      328.765
       686.70000  6.49604e-12      328.894
       686.80000  6.49604e-12      328.959
       686.90000  6.49604e-12      329.089
       687.00000  6.49604e-12      329.154
       687.10000  6.49604e-12      329.219
       687.20000  6.49604e-12      329.219
       687.30000  6.49604e-12      329.219
       687.40000  6.49604e-12      329.219
       687.50000  2.49457e-11      1264.25
       687.60000  2.49457e-11      1264.25
       687.70000  2.49457e-11      1264.25
       687.80000  2.49457e-11      1264.25
       687.90000  2.49457e-11      1264.25
       688.00000  2.49457e-11      1264.00
       688.10000  2.49457e-11      1264.00
       688.20000  2.49457e-11      1264.00
       688.30000  2.49457e-11      1263.75
       688.40000  2.49457e-11      1263.75
       688.50000  2.17016e-12      109.918
       688.60000  2.17016e-12      109.897
       688.70000  2.17016e-12      109.897
       688.80000  2.16739e-12      109.735
       688.90000  2.16739e-12      109.713
       689.00000  2.16739e-12      109.692
       689.10000  2.16739e-12      109.670
       689.20000  2.16739e-12      109.648
       689.30000  2.16739e-12      109.627
       689.40000  2.16739e-12      109.605
       689.50000  1.61210e-11      815.080
       689.60000  1.61210e-11      814.918
       689.70000  1.61210e-11      814.596
       689.80000  1.61210e-11      814.435
       689.90000  1.61210e-11      814.273
       690.00000  1.61210e-11      813.951
       690.10000  1.61210e-11      813.629
       690.20000  1.61210e-11      813.467
       690.30000  1.61210e-11      813.145
       690.40000  1.61210e-11      812.823
       690.50000  1.41304e-11      712.315
       690.60000  1.41304e-11      712.033
       690.70000  1.41304e-11      711.750
       690.80000  1.41304e-11      711.467
       690.90000  1.41304e-11      711.185
       691.00000  1.41304e-11      710.902
       691.10000  1.41304e-11      711.185
       691.20000  1.41304e-11      711.326
       691.30000  1.41169e-11      710.929
       691.40000  1.41169e-11      711.070
       691.50000  6.02751e-12      303.666
       691.60000  6.02751e-12      303.786
       691.70000  6.02751e-12      303.847
       691.80000  6.02751e-12      303.907
       691.90000  6.02751e-12      303.967
       692.00000  6.02751e-12      303.967
       692.10000  6.02751e-12      304.027
       692.20000  6.02751e-12      304.088
       692.30000  6.02751e-12      304.088
       692.40000  6.02751e-12      304.088
       692.50000  4.88549e-13      24.6522
       692.60000  4.88549e-13      24.6522
       692.70000  4.88549e-13      24.6522
       692.80000  4.88549e-13      24.6522
       692.90000  4.88549e-13      24.6522
       693.00000  4.88549e-13      24.6473
       693.10000  4.88549e-13      24.6473
       693.20000  4.88549e-13      24.6424
       693.30000  4.88549e-13      24.6375
       693.40000  4.88549e-13      24.6327
       693.50000  6.91938e-12      348.806
       693.60000  6.91938e-12      348.737
       693.70000  6.91938e-12      348.668
       693.80000  6.89193e-12      347.216
       693.90000  6.89193e-12      347.078
       694.00000  6.89193e-12      347.009
       694.10000  6.89193e-12      346.940
       694.20000  6.89193e-12      346.802
       694.30000  6.89193e-12      346.733
       694.40000  6.89193e-12      346.595
       694.50000  3.13064e-11      1573.77
       694.60000  3.13064e-11      1573.46
       694.70000  3.13064e-11      1572.83
       694.80000  3.13064e-11      1572.21
       694.90000  3.13064e-11      1571.58
       695.00000  3.13064e-11      1570.96
       695.10000  3.13064e-11      1570.33
       695.20000  3.13064e-11      1569.70
       695.30000  3.13064e-11      1568.76
       695.40000  3.13064e-11      1568.14
       695.50000  2.70352e-12      135.365
       695.60000  2.70352e-12      135.284
       695.70000  2.70352e-12      135.230
       695.80000  2.70352e-12      135.149
       695.90000  2.70352e-12      135.068
       696.00000  2.70352e-12      135.014
       696.10000  2.70352e-12      134.933
       696.20000  2.70352e-12      134.852
       696.30000  2.70087e-12      134.638
       696.40000  2.70087e-12      134.557
       696.50000  1.48190e-11      737.840
       696.60000  1.48190e-11      737.395
       696.70000  1.48190e-11      736.802
       696.80000  1.48190e-11      736.358
       696.90000  1.48190e-11      735.913
       697.00000  1.48190e-11      735.320
       697.10000  1.48190e-11      736.358
       697.20000  1.48190e-11      737.099
       697.30000  1.48190e-11      737.988
       697.40000  1.48190e-11      738.729
       697.50000  3.32110e-12      165.723
       697.60000  3.32110e-12      165.856
       697.70000  3.32110e-12      165.989
       697.80000  3.32110e-12      166.088
       697.90000  3.32110e-12      166.188
       698.00000  3.32110e-12      166.254
       698.10000  3.32110e-12      166.321
       698.20000  3.32110e-12      166.387
       698.30000  3.32110e-12      166.421
       698.40000  3.32110e-12      166.454
       698.50000  1.48808e-11      745.972
       698.60000  1.48808e-11      745.972
       698.70000  1.48808e-11      745.823
       698.80000  1.48554e-11      744.402
       698.90000  1.48554e-11      744.253
       699.00000  1.48554e-11      743.956
       699.10000  1.48554e-11      742.619
       699.20000  1.48554e-11      741.134
       699.30000  1.48554e-11      739.945
       699.40000  1.48554e-11      738.608
       699.50000  6.61036e-12      328.138
       699.60000  6.61036e-12      327.609
       699.70000  6.61036e-12      327.147
       699.80000  6.61036e-12      326.684
       699.90000  6.61036e-12      326.221
       700.00000  6.61036e-12      325.825
       700.10000  6.61036e-12      325.428
       700.20000  6.61036e-12      325.031
       700.30000  6.61036e-12      324.701
       700.40000  6.61036e-12      324.370
       700.50000  5.87190e-12      287.840
       700.60000  5.87190e-12      287.605
       700.70000  5.87190e-12      287.371
       700.80000  5.87190e-12      287.194
       700.90000  5.87190e-12      287.018
       701.00000  5.87190e-12      286.842
       701.10000  5.87190e-12      286.783
       701.20000  5.87190e-12      286.725
       701.30000  5.86789e-12      286.470
       701.40000  5.86789e-12      286.470
       701.50000  4.75837e-12      232.304
       701.60000  4.75837e-12      232.304
       701.70000  4.75837e-12      232.304
       701.80000  4.75837e-12      232.351
       701.90000  4.75837e-12      232.351
       702.00000  4.75837e-12      232.399
       702.10000  4.75837e-12      232.494
       702.20000  4.75837e-12      232.542
       702.30000  4.75837e-12      232.637
       702.40000  4.75837e-12      232.684
       702.50000  8.52858e-12      417.218
       702.60000  8.52858e-12      417.474
       702.70000  8.52858e-12      417.645
       702.80000  8.52858e-12      417.900
       702.90000  8.52858e-12      418.156
       703.00000  8.52858e-12      418.412
       703.10000  8.52858e-12      419.180
       703.20000  8.52858e-12      419.947
       703.30000  8.52858e-12      420.629
       703.40000  8.52858e-12      421.312
       703.50000  1.34080e-12      66.3294
       703.60000  1.34080e-12      66.4367
       703.70000  1.34080e-12      66.5171
       703.80000  1.33719e-12      66.4317
       703.90000  1.33719e-12      66.5120
       704.00000  1.33719e-12      66.5788
       704.10000  1.33719e-12      66.6590
       704.20000  1.33719e-12      66.7259
       704.30000  1.33719e-12      66.7794
       704.40000  1.33719e-12      66.8329
       704.50000  2.65689e-12      132.898
       704.60000  2.65689e-12      133.004
       704.70000  2.65689e-12      133.084
       704.80000  2.65689e-12      133.137
       704.90000  2.65689e-12      133.216
       705.00000  2.65689e-12      133.270
       705.10000  2.65689e-12      133.296
       705.20000  2.65689e-12      133.323
       705.30000  2.65689e-12      133.349
       705.40000  2.65689e-12      133.376
       705.50000  1.78525e-11      896.194
       705.60000  1.78525e-11      896.194
       705.70000  1.78525e-11      896.015
       705.80000  1.78525e-11      895.837
       705.90000  1.78525e-11      895.658
       706.00000  1.78525e-11      895.301
       706.10000  1.78525e-11      894.944
       706.20000  1.78525e-11      894.408
       706.30000  1.78659e-11      894.545
       706.40000  1.78659e-11      894.009
       706.50000  5.28393e-12      264.197
       706.60000  5.28393e-12      263.985
       706.70000  5.28393e-12      263.774
       706.80000  5.28393e-12      263.510
       706.90000  5.28393e-12      263.245
       707.00000  5.28393e-12      262.981
       707.10000  5.28393e-12      262.770
       707.20000  5.28393e-12      262.611
       707.30000  5.28393e-12      262.400
       707.40000  5.28393e-12      262.242
       707.50000  6.51894e-12      323.339
       707.60000  6.51894e-12      323.144
       707.70000  6.51894e-12      323.013
       707.80000  6.51894e-12      322.818
       707.90000  6.51894e-12      322.687
       708.00000  6.51894e-12      322.557
       708.10000  6.51894e-12      322.427
       708.20000  6.51894e-12      322.296
       708.30000  6.51894e-12      322.166
       708.40000  6.51894e-12      322.035
       708.50000  3.49964e-12      172.847
       708.60000  3.49964e-12      172.777
       708.70000  3.49964e-12      172.742
       708.80000  3.48772e-12      172.119
       708.90000  3.48772e-12      172.084
       709.00000  3.48772e-12      172.084
       709.10000  3.48772e-12      172.154
       709.20000  3.48772e-12      172.224
       709.30000  3.48772e-12      172.259
       709.40000  3.48772e-12      172.328
       709.50000  6.08029e-12      300.488
       709.60000  6.08029e-12      300.609
       709.70000  6.08029e-12      300.670
       709.80000  6.08029e-12      300.731
       709.90000  6.08029e-12      300.792
       710.00000  6.08029e-12      300.853
       710.10000  6.08029e-12      300.913
       710.20000  6.08029e-12      300.974
       710.30000  6.08029e-12      300.974
       710.40000  6.08029e-12      301.035
       710.50000  2.88070e-12      142.624
       710.60000  2.88070e-12      142.624
       710.70000  2.88070e-12      142.624
       710.80000  2.88070e-12      142.624
       710.90000  2.88070e-12      142.624
       711.00000  2.88070e-12      142.624
       711.10000  2.88070e-12      142.624
       711.20000  2.88070e-12      142.595
       711.30000  2.88132e-12      142.626
       711.40000  2.88132e-12      142.597
       711.50000  2.81476e-12      139.274
       711.60000  2.81476e-12      139.246
       711.70000  2.81476e-12      139.218
       711.80000  2.81476e-12      139.190
       711.90000  2.81476e-12      139.162
       712.00000  2.81476e-12      139.106
       712.10000  2.81476e-12      139.077
       712.20000  2.81476e-12      139.021
       712.30000  2.81476e-12      138.993
       712.40000  2.81476e-12      138.937
       712.50000  8.60149e-12      424.398
       712.60000  8.60149e-12      424.226
       712.70000  8.60149e-12      423.967
       712.80000  8.60149e-12      423.795
       712.90000  8.60149e-12      423.623
       713.00000  8.60149e-12      423.365
       713.10000  8.60149e-12      423.365
       713.20000  8.60149e-12      423.365
       713.30000  8.60149e-12      423.365
       713.40000  8.60149e-12      423.279
       713.50000  2.69646e-13      13.2693
       713.60000  2.69646e-13      13.2693
       713.70000  2.69646e-13      13.2666
       713.80000  2.69583e-13      13.2635
       713.90000  2.69583e-13      13.2608
       714.00000  2.69583e-13      13.2608
       714.10000  2.69583e-13      13.2581
       714.20000  2.69583e-13      13.2554
       714.30000  2.69583e-13      13.2554
       714.40000  2.69583e-13      13.2527
       714.50000  5.70144e-12      280.226
       714.60000  5.70144e-12      280.169
       714.70000  5.70144e-12      280.169
       714.80000  5.70144e-12      280.112
       714.90000  5.70144e-12      280.055
       715.00000  5.70144e-12      279.998
       715.10000  5.70144e-12      279.941
       715.20000  5.70144e-12      279.941
       715.30000  5.70144e-12      279.941
       715.40000  5.70144e-12      279.884
       715.50000  2.25340e-12      110.597
       715.60000  2.25340e-12      110.574
       715.70000  2.25340e-12      110.552
       715.80000  2.25340e-12      110.529
       715.90000  2.25340e-12      110.507
       716.00000  2.25340e-12      110.462
       716.10000  2.25340e-12      110.439
       716.20000  2.25340e-12      110.394
       716.30000  2.25015e-12      110.190
       716.40000  2.25015e-12      110.145
       716.50000  4.79596e-12      234.666
       716.60000  4.79596e-12      234.571
       716.70000  4.79596e-12      234.475
       716.80000  4.79596e-12      234.331
       716.90000  4.79596e-12      234.235
       717.00000  4.79596e-12      234.091
       717.10000  4.79596e-12      233.947
       717.20000  4.79596e-12      233.803
       717.30000  4.79596e-12      233.659
       717.40000  4.79596e-12      233.515
       717.50000  7.04841e-13      34.2976
       717.60000  7.04841e-13      34.2694
       717.70000  7.04841e-13      34.2482
       717.80000  7.04841e-13      34.2200
       717.90000  7.04841e-13      34.1918
       718.00000  7.04841e-13      34.1636
       718.10000  7.04841e-13      34.1355
       718.20000  7.04841e-13      34.1073
       718.30000  7.04841e-13      34.0791
       718.40000  7.04841e-13      34.0438
       718.50000  1.41520e-12      68.2975
       718.60000  1.41520e-12      68.2268
       718.70000  1.41520e-12      68.1560
       718.80000  1.40939e-12      67.8056
       718.90000  1.40939e-12      67.7352
       719.00000  1.40939e-12      67.6647
       719.10000  1.40939e-12      67.6647
       719.20000  1.40939e-12      67.6647
       719.30000  1.40939e-12      67.6647
       719.40000  1.40939e-12      67.6788
       719.50000  1.01058e-11      485.280
       719.60000  1.01058e-11      485.381
       719.70000  1.01058e-11      485.381
       719.80000  1.01058e-11      485.483
       719.90000  1.01058e-11      485.584
       720.00000  1.01058e-11      485.786
       720.10000  1.01058e-11      485.887
       720.20000  1.01058e-11      485.988
       720.30000  1.01058e-11      486.190
       720.40000  1.01058e-11      486.291
       720.50000  4.97119e-12      239.313
       720.60000  4.97119e-12      239.412
       720.70000  4.97119e-12      239.512
       720.80000  4.97119e-12      239.611
       720.90000  4.97119e-12      239.760
       721.00000  4.97119e-12      239.860
       721.10000  4.97119e-12      240.108
       721.20000  4.97119e-12      240.357
       721.30000  4.96107e-12      240.116
       721.40000  4.96107e-12      240.314
       721.50000  3.56281e-12      172.761
       721.60000  3.56281e-12      172.903
       721.70000  3.56281e-12      173.046
       721.80000  3.56281e-12      173.224
       721.90000  3.56281e-12      173.366
       722.00000  3.56281e-12      173.473
       722.10000  3.56281e-12      173.616
       722.20000  3.56281e-12      173.758
       722.30000  3.56281e-12      173.865
       722.40000  3.56281e-12      173.972
       722.50000  1.32088e-12      64.5384
       722.60000  1.32088e-12      64.5912
       722.70000  1.32088e-12      64.6176
       722.80000  1.32088e-12      64.6572
       722.90000  1.32088e-12      64.6969
       723.00000  1.32088e-12      64.7233
       723.10000  1.32088e-12      64.7629
       723.20000  1.32088e-12      64.7893
       723.30000  1.32088e-12      64.8157
       723.40000  1.32088e-12      64.8422
       723.50000  3.70002e-12      181.708
       723.60000  3.70002e-12      181.745
       723.70000  3.70002e-12      181.819
       723.80000  3.68867e-12      181.298
       723.90000  3.68867e-12      181.335
       724.00000  3.68867e-12      181.372
       724.10000  3.68867e-12      181.409
       724.20000  3.68867e-12      181.446
       724.30000  3.68867e-12      181.483
       724.40000  3.68867e-12      181.519
       724.50000  2.32024e-12      114.179
       724.60000  2.32024e-12      114.179
       724.70000  2.32024e-12      114.179
       724.80000  2.32024e-12      114.179
       724.90000  2.32024e-12      114.179
       725.00000  2.32024e-12      114.179
       725.10000  2.32024e-12      114.226
       725.20000  2.32024e-12      114.272
       725.30000  2.32024e-12      114.295
       725.40000  2.32024e-12      114.342
       725.50000  4.23336e-13      20.8662
       725.60000  4.23336e-13      20.8705
       725.70000  4.23336e-13      20.8705
       725.80000  4.23336e-13      20.8747
       725.90000  4.23336e-13      20.8747
       726.00000  4.23336e-13      20.8747
       726.10000  4.23336e-13      20.8747
       726.20000  4.23336e-13      20.8747
       726.30000  4.22234e-13      20.8161
       726.40000  4.22234e-13      20.8119
       726.50000  1.20874e-12      59.5665
       726.60000  1.20874e-12      59.5544
       726.70000  1.20874e-12      59.5423
       726.80000  1.20874e-12      59.5181
       726.90000  1.20874e-12      59.4940
       727.00000  1.20874e-12      59.4698
       727.10000  1.20874e-12      59.3852
       727.20000  1.20874e-12      59.3006
       727.30000  1.20874e-12      59.2160
       727.40000  1.20874e-12      59.1434
       727.50000  2.48756e-12      121.567
       727.60000  2.48756e-12      121.418
       727.70000  2.48756e-12      121.294
       727.80000  2.48756e-12      121.169
       727.90000  2.48756e-12      121.045
       728.00000  2.48756e-12      120.945
       728.10000  2.48756e-12      120.846
       728.20000  2.48756e-12      120.746
       728.30000  2.48756e-12      120.647
       728.40000  2.48756e-12      120.572
       728.50000  1.72047e-12      83.3397
       728.60000  1.72047e-12      83.3053
       728.70000  1.72047e-12      83.2537
       728.80000  1.72084e-12      83.2540
       728.90000  1.72084e-12      83.2196
       729.00000  1.72084e-12      83.2024
       729.10000  1.72084e-12      83.1852
       729.20000  1.72084e-12      83.1680
       729.30000  1.72084e-12      83.1680
       729.40000  1.72084e-12      83.1508
       729.50000  2.01997e-13      9.76254
       729.60000  2.01997e-13      9.76254
       729.70000  2.01997e-13      9.76455
       729.80000  2.01997e-13      9.76657
       729.90000  2.01997e-13      9.77061
       730.00000  2.01997e-13      9.77465
       730.10000  2.01997e-13      9.77869
       730.20000  2.01997e-13      9.78273
       730.30000  2.01997e-13      9.78879
       730.40000  2.01997e-13      9.79485
       730.50000  2.18865e-12      106.193
       730.60000  2.18865e-12      106.281
       730.70000  2.18865e-12      106.368
       730.80000  2.18865e-12      106.456
       730.90000  2.18865e-12      106.565
       731.00000  2.18865e-12      106.675
       731.10000  2.18865e-12      106.653
       731.20000  2.18865e-12      106.631
       731.30000  2.18704e-12      106.531
       731.40000  2.18704e-12      106.531
       731.50000  1.68479e-12      82.0494
       731.60000  1.68479e-12      82.0326
       731.70000  1.68479e-12      82.0157
       731.80000  1.68479e-12      82.0157
       731.90000  1.68479e-12      81.9989
       732.00000  1.68479e-12      81.9820
       732.10000  1.68479e-12      81.9652
       732.20000  1.68479e-12      81.9484
       732.30000  1.68479e-12      81.9484
       732.40000  1.68479e-12      81.9315
       732.50000  1.91640e-13      9.31754
       732.60000  1.91640e-13      9.31562
       732.70000  1.91640e-13      9.31371
       732.80000  1.91640e-13      9.31179
       732.90000  1.91640e-13      9.30987
       733.00000  1.91640e-13      9.30796
       733.10000  1.91640e-13      9.30604
       733.20000  1.91640e-13      9.30221
       733.30000  1.91640e-13      9.30029
       733.40000  1.91640e-13      9.29646
       733.50000  1.54122e-12      74.7493
       733.60000  1.54122e-12      74.7339
       733.70000  1.54122e-12      74.7031
       733.80000  1.53868e-12      74.5643
       733.90000  1.53868e-12      74.5489
       734.00000  1.53868e-12      74.5335
       734.10000  1.53868e-12      74.5181
       734.20000  1.53868e-12      74.5028
       734.30000  1.53868e-12      74.4874
       734.40000  1.53868e-12      74.4874
       734.50000  2.73140e-12      132.200
       734.60000  2.73140e-12      132.172
       734.70000  2.73140e-12      132.172
       734.80000  2.73140e-12      132.145
       734.90000  2.73140e-12      132.145
       735.00000  2.73140e-12      132.118
       735.10000  2.73140e-12      132.118
       735.20000  2.73140e-12      132.118
       735.30000  2.73140e-12      132.118
       735.40000  2.73140e-12      132.090
       735.50000  5.58290e-12      269.989
       735.60000  5.58290e-12      269.989
       735.70000  5.58290e-12      269.989
       735.80000  5.58290e-12      270.045
       735.90000  5.58290e-12      270.045
       736.00000  5.58290e-12      270.045
       736.10000  5.58290e-12      270.045
       736.20000  5.58290e-12      270.101
       736.30000  5.57224e-12      269.585
       736.40000  5.57224e-12      269.641
       736.50000  7.29914e-12      353.205
       736.60000  7.29914e-12      353.278
       736.70000  7.29914e-12      353.351
       736.80000  7.29914e-12      353.351
       736.90000  7.29914e-12      353.424
       737.00000  7.29914e-12      353.497
       737.10000  7.29914e-12      353.132
       737.20000  7.29914e-12      352.694
       737.30000  7.29914e-12      352.329
       737.40000  7.29914e-12      351.964
       737.50000  2.98979e-12      143.988
       737.60000  2.98979e-12      143.839
       737.70000  2.98979e-12      143.689
       737.80000  2.98979e-12      143.540
       737.90000  2.98979e-12      143.420
       738.00000  2.98979e-12      143.271
       738.10000  2.98979e-12      143.121
       738.20000  2.98979e-12      142.972
       738.30000  2.98979e-12      142.852
       738.40000  2.98979e-12      142.733
       738.50000  3.44700e-12      164.388
       738.60000  3.44700e-12      164.250
       738.70000  3.44700e-12      164.112
       738.80000  3.43252e-12      163.285
       738.90000  3.43252e-12      163.148
       739.00000  3.43252e-12      163.011
       739.10000  3.43252e-12      162.736
       739.20000  3.43252e-12      162.496
       739.30000  3.43252e-12      162.290
       739.40000  3.43252e-12      162.084
       739.50000  3.62762e-12      171.079
       739.60000  3.62762e-12      170.897
       739.70000  3.62762e-12      170.752
       739.80000  3.62762e-12      170.571
       739.90000  3.62762e-12      170.462
       740.00000  3.62762e-12      170.317
       740.10000  3.62762e-12      170.244
       740.20000  3.62762e-12      170.136
       740.30000  3.62762e-12      170.063
       740.40000  3.62762e-12      170.027
       740.50000  2.63123e-12      123.300
       740.60000  2.63123e-12      123.273
       740.70000  2.63123e-12      123.273
       740.80000  2.63123e-12      123.273
       740.90000  2.63123e-12      123.300
       741.00000  2.63123e-12      123.326
       741.10000  2.63123e-12      123.379
       741.20000  2.63123e-12      123.431
       741.30000  2.62944e-12      123.400
       741.40000  2.62944e-12      123.479
       741.50000  6.82235e-12      320.582
       741.60000  6.82235e-12      320.855
       741.70000  6.82235e-12      321.196
       741.80000  6.82235e-12      321.469
       741.90000  6.82235e-12      321.878
       742.00000  6.82235e-12      322.219
       742.10000  6.82235e-12      322.629
       742.20000  6.82235e-12      323.106
       742.30000  6.82235e-12      323.584
       742.40000  6.82235e-12      324.061
       742.50000  1.73859e-13      8.27223
       742.60000  1.73859e-13      8.28614
       742.70000  1.73859e-13      8.30179
       742.80000  1.73859e-13      8.31744
       742.90000  1.73859e-13      8.33482
       743.00000  1.73859e-13      8.35221
       743.10000  1.73859e-13      8.34873
       743.20000  1.73859e-13      8.34699
       743.30000  1.73859e-13      8.34525
       743.40000  1.73859e-13      8.34177
       743.50000  1.01996e-12      48.9274
       743.60000  1.01996e-12      48.9172
       743.70000  1.01996e-12      48.9070
       743.80000  1.01950e-12      48.8750
       743.90000  1.01950e-12      48.8648
       744.00000  1.01950e-12      48.8546
       744.10000  1.01950e-12      48.8546
       744.20000  1.01950e-12      48.8444
       744.30000  1.01950e-12      48.8444
       744.40000  1.01950e-12      48.8444
       744.50000  1.81490e-12      86.9336
       744.60000  1.81490e-12      86.9336
       744.70000  1.81490e-12      86.9336
       744.80000  1.81490e-12      86.9336
       744.90000  1.81490e-12      86.9518
       745.00000  1.81490e-12      86.9518
       745.10000  1.81490e-12      87.0062
       745.20000  1.81490e-12      87.0607
       745.30000  1.81490e-12      87.0970
       745.40000  1.81490e-12      87.1514
       745.50000  7.43714e-12      357.280
       745.60000  7.43714e-12      357.429
       745.70000  7.43714e-12      357.578
       745.80000  7.43714e-12      357.726
       745.90000  7.43714e-12      357.801
       746.00000  7.43714e-12      357.950
       746.10000  7.43714e-12      358.024
       746.20000  7.43714e-12      358.098
       746.30000  7.40322e-12      356.539
       746.40000  7.40322e-12      356.613
       746.50000  5.08495e-12      244.993
       746.60000  5.08495e-12      244.993
       746.70000  5.08495e-12      245.044
       746.80000  5.08495e-12      245.044
       746.90000  5.08495e-12      245.044
       747.00000  5.08495e-12      245.044
       747.10000  5.08495e-12      244.891
       747.20000  5.08495e-12      244.789
       747.30000  5.08495e-12      244.688
       747.40000  5.08495e-12      244.586
       747.50000  3.47895e-13      16.7268
       747.60000  3.47895e-13      16.7199
       747.70000  3.47895e-13      16.7129
       747.80000  3.47895e-13      16.7059
       747.90000  3.47895e-13      16.6990
       748.00000  3.47895e-13      16.6920
       748.10000  3.47895e-13      16.6885
       748.20000  3.47895e-13      16.6816
       748.30000  3.47895e-13      16.6746
       748.40000  3.47895e-13      16.6712
       748.50000  4.52562e-12      216.777
       748.60000  4.52562e-12      216.687
       748.70000  4.52562e-12      216.641
       748.80000  4.50966e-12      215.787
       748.90000  4.50966e-12      215.742
       749.00000  4.50966e-12      215.697
       749.10000  4.50966e-12      215.607
       749.20000  4.50966e-12      215.562
       749.30000  4.50966e-12      215.517
       749.40000  4.50966e-12      215.472
       749.50000  6.57609e-12      314.140
       749.60000  6.57609e-12      314.074
       749.70000  6.57609e-12      313.942
       749.80000  6.57609e-12      313.877
       749.90000  6.57609e-12      313.877
       750.00000  6.57609e-12      313.811
       750.10000  6.57609e-12      313.745
       750.20000  6.57609e-12      313.679
       750.30000  6.57609e-12      313.613
       750.40000  6.57609e-12      313.613
       750.50000  2.05984e-12      98.2132
       750.60000  2.05984e-12      98.1926
       750.70000  2.05984e-12      98.1926
       750.80000  2.05984e-12      98.1720
       750.90000  2.05984e-12      98.1720
       751.00000  2.05984e-12      98.1514
       751.10000  2.05984e-12      98.1514
       751.20000  2.05984e-12      98.1514
       751.30000  2.05523e-12      97.9112
       751.40000  2.05523e-12      97.9112
       751.50000  4.99888e-13      23.8147
       751.60000  4.99888e-13      23.8147
       751.70000  4.99888e-13      23.8147
       751.80000  4.99888e-13      23.8147
       751.90000  4.99888e-13      23.8147
       752.00000  4.99888e-13      23.8147
       752.10000  4.99888e-13      23.8147
       752.20000  4.99888e-13      23.8147
       752.30000  4.99888e-13      23.8147
       752.40000  4.99888e-13      23.8147
       752.50000  6.63966e-12      316.380
       752.60000  6.63966e-12      316.380
       752.70000  6.63966e-12      316.380
       752.80000  6.63966e-12      316.446
       752.90000  6.63966e-12      316.446
       753.00000  6.63966e-12      316.512
       753.10000  6.63966e-12      316.512
       753.20000  6.63966e-12      316.512
       753.30000  6.63966e-12      316.512
       753.40000  6.63966e-12      316.512
       753.50000  1.19302e-12      56.8711
       753.60000  1.19302e-12      56.8711
       753.70000  1.19302e-12      56.8711
       753.80000  1.19241e-12      56.8424
       753.90000  1.19241e-12      56.8424
       754.00000  1.19241e-12      56.8424
       754.10000  1.19241e-12      56.8424
       754.20000  1.19241e-12      56.8304
       754.30000  1.19241e-12      56.8304
       754.40000  1.19241e-12      56.8304
       754.50000  4.41017e-12      210.189
       754.60000  4.41017e-12      210.189
       754.70000  4.41017e-12      210.145
       754.80000  4.41017e-12      210.145
       754.90000  4.41017e-12      210.101
       755.00000  4.41017e-12      210.101
       755.10000  4.41017e-12      210.057
       755.20000  4.41017e-12      210.057
       755.30000  4.41017e-12      210.012
       755.40000  4.41017e-12      210.012
       755.50000  6.74899e-12      321.319
       755.60000  6.74899e-12      321.252
       755.70000  6.74899e-12      321.252
       755.80000  6.74899e-12      321.184
       755.90000  6.74899e-12      321.117
       756.00000  6.74899e-12      321.117
       756.10000  6.74899e-12      321.049
       756.20000  6.74899e-12      320.982
       756.30000  6.73823e-12      320.403
       756.40000  6.73823e-12      320.403
       756.50000  6.21378e-12      295.403
       756.60000  6.21378e-12      295.341
       756.70000  6.21378e-12      295.279
       756.80000  6.21378e-12      295.279
       756.90000  6.21378e-12      295.217
       757.00000  6.21378e-12      295.155
       757.10000  6.21378e-12      295.093
       757.20000  6.21378e-12      295.030
       757.30000  6.21378e-12      295.030
       757.40000  6.21378e-12      294.968
       757.50000  3.76324e-12      178.603
       757.60000  3.76324e-12      178.566
       757.70000  3.76324e-12      178.528
       757.80000  3.76324e-12      178.490
       757.90000  3.76324e-12      178.453
       758.00000  3.76324e-12      178.453
       758.10000  3.76324e-12      178.415
       758.20000  3.76324e-12      178.377
       758.30000  3.76324e-12      178.340
       758.40000  3.76324e-12      178.302
       758.50000  5.46652e-13      25.8949
       758.60000  5.46652e-13      25.8894
       758.70000  5.46652e-13      25.8840
       758.80000  5.45177e-13      25.8087
       758.90000  5.45177e-13      25.8032
       759.00000  5.45177e-13      25.7978
       759.10000  5.45177e-13      25.7978
       759.20000  5.45177e-13      25.7923
       759.30000  5.45177e-13      25.7923
       759.40000  5.45177e-13      25.7869
       759.50000  7.30555e-12      345.552
       759.60000  7.30555e-12      345.552
       759.70000  7.30555e-12      345.479
       759.80000  7.30555e-12      345.479
       759.90000  7.30555e-12      345.479
       760.00000  7.30555e-12      345.479
       760.10000  7.30555e-12      345.479
       760.20000  7.30555e-12      345.479
       760.30000  7.30555e-12      345.552
       760.40000  7.30555e-12      345.552
       760.50000  4.70959e-12      222.764
       760.60000  4.70959e-12      222.811
       760.70000  4.70959e-12      222.811
       760.80000  4.70959e-12      222.858
       760.90000  4.70959e-12      222.858
       761.00000  4.70959e-12      222.905
       761.10000  4.70959e-12      223.093
       761.20000  4.70959e-12      223.234
       761.30000  4.69980e-12      222.911
       761.40000  4.69980e-12      223.052
       761.50000  2.74002e-12      130.124
       761.60000  2.74002e-12      130.179
       761.70000  2.74002e-12      130.233
       761.80000  2.74002e-12      130.288
       761.90000  2.74002e-12      130.343
       762.00000  2.74002e-12      130.370
       762.10000  2.74002e-12      130.425
       762.20000  2.74002e-12      130.453
       762.30000  2.74002e-12      130.480
       762.40000  2.74002e-12      130.480
       762.50000  4.67259e-12      222.509
       762.60000  4.67259e-12      222.556
       762.70000  4.67259e-12      222.556
       762.80000  4.67259e-12      222.509
       762.90000  4.67259e-12      222.509
       763.00000  4.67259e-12      222.462
       763.10000  4.67259e-12      222.415
       763.20000  4.67259e-12      222.369
       763.30000  4.67259e-12      222.275
       763.40000  4.67259e-12      222.182
       763.50000  4.14898e-12      197.201
       763.60000  4.14898e-12      197.118
       763.70000  4.14898e-12      197.035
       763.80000  4.13836e-12      196.407
       763.90000  4.13836e-12      196.282
       764.00000  4.13836e-12      196.158
       764.10000  4.13836e-12      196.034
       764.20000  4.13836e-12      195.869
       764.30000  4.13836e-12      195.703
       764.40000  4.13836e-12      195.537
       764.50000  2.56552e-12      121.118
       764.60000  2.56552e-12      121.015
       764.70000  2.56552e-12      120.887
       764.80000  2.56552e-12      120.759
       764.90000  2.56552e-12      120.631
       765.00000  2.56552e-12      120.477
       765.10000  2.56552e-12      120.194
       765.20000  2.56552e-12      119.912
       765.30000  2.56552e-12      119.656
       765.40000  2.56552e-12      119.399
       765.50000  3.27216e-12      151.992
       765.60000  3.27216e-12      151.730
       765.70000  3.27216e-12      151.436
       765.80000  3.27216e-12      151.206
       765.90000  3.27216e-12      150.977
       766.00000  3.27216e-12      150.748
       766.10000  3.27216e-12      150.552
       766.20000  3.27216e-12      150.356
       766.30000  3.27207e-12      150.188
       766.40000  3.27207e-12      150.057
       766.50000  1.23741e-12      56.6980
       766.60000  1.23741e-12      56.6485
       766.70000  1.23741e-12      56.6238
       766.80000  1.23741e-12      56.5867
       766.90000  1.23741e-12      56.5619
       767.00000  1.23741e-12      56.5496
       767.10000  1.23741e-12      56.6114
       767.20000  1.23741e-12      56.6857
       767.30000  1.23741e-12      56.7475
       767.40000  1.23741e-12      56.8094
       767.50000  2.21648e-12      101.869
       767.60000  2.21648e-12      101.980
       767.70000  2.21648e-12      102.091
       767.80000  2.21648e-12      102.180
       767.90000  2.21648e-12      102.291
       768.00000  2.21648e-12      102.379
       768.10000  2.21648e-12      102.468
       768.20000  2.21648e-12      102.557
       768.30000  2.21648e-12      102.623
       768.40000  2.21648e-12      102.712
       768.50000  1.75835e-12      81.5348
       768.60000  1.75835e-12      81.5875
       768.70000  1.75835e-12      81.6403
       768.80000  1.75742e-12      81.6496
       768.90000  1.75742e-12      81.7023
       769.00000  1.75742e-12      81.7375
       769.10000  1.75742e-12      81.7902
       769.20000  1.75742e-12      81.8254
       769.30000  1.75742e-12      81.8605
       769.40000  1.75742e-12      81.8957
       769.50000  2.64899e-12      123.469
       769.60000  2.64899e-12      123.522
       769.70000  2.64899e-12      123.549
       769.80000  2.64899e-12      123.602
       769.90000  2.64899e-12      123.628
       770.00000  2.64899e-12      123.628
       770.10000  2.64899e-12      123.655
       770.20000  2.64899e-12      123.681
       770.30000  2.64899e-12      123.681
       770.40000  2.64899e-12      123.681
       770.50000  4.19936e-12      196.068
       770.60000  4.19936e-12      196.068
       770.70000  4.19936e-12      196.068
       770.80000  4.19936e-12      196.068
       770.90000  4.19936e-12      196.026
       771.00000  4.19936e-12      195.984
       771.10000  4.19936e-12      196.152
       771.20000  4.19936e-12      196.278
       771.30000  4.18651e-12      195.803
       771.40000  4.18651e-12      195.928
       771.50000  2.42982e-12      113.789
       771.60000  2.42982e-12      113.837
       771.70000  2.42982e-12      113.910
       771.80000  2.42982e-12      113.959
       771.90000  2.42982e-12      113.983
       772.00000  2.42982e-12      114.032
       772.10000  2.42982e-12      114.056
       772.20000  2.42982e-12      114.080
       772.30000  2.42982e-12      114.105
       772.40000  2.42982e-12      114.129
       772.50000  3.48974e-12      163.913
       772.60000  3.48974e-12      163.913
       772.70000  3.48974e-12      163.913
       772.80000  3.48974e-12      163.878
       772.90000  3.48974e-12      163.878
       773.00000  3.48974e-12      163.843
       773.10000  3.48974e-12      163.634
       773.20000  3.48974e-12      163.459
       773.30000  3.48974e-12      163.250
       773.40000  3.48974e-12      163.075
       773.50000  6.41085e-12      299.259
       773.60000  6.41085e-12      299.002
       773.70000  6.41085e-12      298.746
       773.80000  6.38549e-12      297.308
       773.90000  6.38549e-12      297.053
       774.00000  6.38549e-12      296.798
       774.10000  6.38549e-12      296.606
       774.20000  6.38549e-12      296.414
       774.30000  6.38549e-12      296.287
       774.40000  6.38549e-12      296.095
       774.50000  4.82696e-12      223.730
       774.60000  4.82696e-12      223.681
       774.70000  4.82696e-12      223.585
       774.80000  4.82696e-12      223.537
       774.90000  4.82696e-12      223.488
       775.00000  4.82696e-12      223.440
       775.10000  4.82696e-12      223.440
       775.20000  4.82696e-12      223.440
       775.30000  4.82696e-12      223.440
       775.40000  4.82696e-12      223.440
       775.50000  5.61044e-12      259.764
       775.60000  5.61044e-12      259.820
       775.70000  5.61044e-12      259.876
       775.80000  5.61044e-12      259.932
       775.90000  5.61044e-12      260.044
       776.00000  5.61044e-12      260.156
       776.10000  5.61044e-12      260.268
       776.20000  5.61044e-12      260.437
       776.30000  5.59622e-12      259.944
       776.40000  5.59622e-12      260.112
       776.50000  4.66317e-12      216.884
       776.60000  4.66317e-12      217.071
       776.70000  4.66317e-12      217.257
       776.80000  4.66317e-12      217.444
       776.90000  4.66317e-12      217.677
       777.00000  4.66317e-12      217.863
       777.10000  4.66317e-12      217.770
       777.20000  4.66317e-12      217.724
       777.30000  4.66317e-12      217.630
       777.40000  4.66317e-12      217.537
       777.50000  6.70125e-12      312.479
       777.60000  6.70125e-12      312.412
       777.70000  6.70125e-12      312.278
       777.80000  6.70125e-12      312.211
       777.90000  6.70125e-12      312.144
       778.00000  6.70125e-12      312.010
       778.10000  6.70125e-12      311.943
       778.20000  6.70125e-12      311.876
       778.30000  6.70125e-12      311.809
       778.40000  6.70125e-12      311.742
       778.50000  1.71480e-12      79.7726
       778.60000  1.71480e-12      79.7554
       778.70000  1.71480e-12      79.7383
       778.80000  1.71046e-12      79.5363
       778.90000  1.71046e-12      79.5363
       779.00000  1.71046e-12      79.5192
       779.10000  1.71046e-12      79.5534
       779.20000  1.71046e-12      79.5705
       779.30000  1.71046e-12      79.6047
       779.40000  1.71046e-12      79.6218
       779.50000  1.34026e-13      6.24024
       779.60000  1.34026e-13      6.24158
       779.70000  1.34026e-13      6.24292
       779.80000  1.34026e-13      6.24426
       779.90000  1.34026e-13      6.24560
       780.00000  1.34026e-13      6.24694
       780.10000  1.34026e-13      6.24694
       780.20000  1.34026e-13      6.24828
       780.30000  1.34026e-13      6.24828
       780.40000  1.34026e-13      6.24828
       780.50000  3.40969e-12      158.960
       780.60000  3.40969e-12      158.960
       780.70000  3.40969e-12      158.960
       780.80000  3.40969e-12      158.960
       780.90000  3.40969e-12      158.960
       781.00000  3.40969e-12      158.926
       781.10000  3.40969e-12      158.926
       781.20000  3.40969e-12      158.892
       781.30000  3.39073e-12      157.974
       781.40000  3.39073e-12      157.940
       781.50000  1.98341e-12      92.3676
       781.60000  1.98341e-12      92.3478
       781.70000  1.98341e-12      92.3280
       781.80000  1.98341e-12      92.3081
       781.90000  1.98341e-12      92.2684
       782.00000  1.98341e-12      92.2486
       782.10000  1.98341e-12      92.2090
       782.20000  1.98341e-12      92.1693
       782.30000  1.98341e-12      92.1494
       782.40000  1.98341e-12      92.1098
       782.50000  5.11589e-12      237.480
       782.60000  5.11589e-12      237.326
       782.70000  5.11589e-12      237.224
       782.80000  5.11589e-12      237.122
       782.90000  5.11589e-12      236.968
       783.00000  5.11589e-12      236.866
       783.10000  5.11589e-12      236.968
       783.20000  5.11589e-12      237.070
       783.30000  5.11589e-12      237.173
       783.40000  5.11589e-12      237.224
       783.50000  6.51245e-12      302.113
       783.60000  6.51245e-12      302.243
       783.70000  6.51245e-12      302.308
       783.80000  6.47925e-12      300.896
       783.90000  6.47925e-12      301.026
       784.00000  6.47925e-12      301.091
       784.10000  6.47925e-12      301.156
       784.20000  6.47925e-12      301.285
       784.30000  6.47925e-12      301.350
       784.40000  6.47925e-12      301.415
       784.50000  5.01284e-12      233.248
       784.60000  5.01284e-12      233.298
       784.70000  5.01284e-12      233.348
       784.80000  5.01284e-12      233.398
       784.90000  5.01284e-12      233.448
       785.00000  5.01284e-12      233.448
       785.10000  5.01284e-12      233.448
       785.20000  5.01284e-12      233.448
       785.30000  5.01284e-12      233.448
       785.40000  5.01284e-12      233.448
       785.50000  8.51978e-13      39.6766
       785.60000  8.51978e-13      39.6766
       785.70000  8.51978e-13      39.6766
       785.80000  8.51978e-13      39.6766
       785.90000  8.51978e-13      39.6766
       786.00000  8.51978e-13      39.6766
       786.10000  8.51978e-13      39.6766
       786.20000  8.51978e-13      39.6766
       786.30000  8.50550e-13      39.6101
       786.40000  8.50550e-13      39.6101
       786.50000  7.35738e-12      342.633
       786.60000  7.35738e-12      342.633
       786.70000  7.35738e-12      342.633
       786.80000  7.35738e-12      342.633
       786.90000  7.35738e-12      342.633
       787.00000  7.35738e-12      342.633
       787.10000  7.35738e-12      342.633
       787.20000  7.35738e-12      342.633
       787.30000  7.35738e-12      342.633
       787.40000  7.35738e-12      342.633
       787.50000  1.44584e-12      67.3326
       787.60000  1.44584e-12      67.3326
       787.70000  1.44584e-12      67.3326
       787.80000  1.44584e-12      67.3326
       787.90000  1.44584e-12      67.3326
       788.00000  1.44584e-12      67.3326
       788.10000  1.44584e-12      67.3326
       788.20000  1.44584e-12      67.3326
       788.30000  1.44584e-12      67.3326
       788.40000  1.44584e-12      67.3326
       788.50000  8.46546e-13      39.4236
       788.60000  8.46546e-13      39.4236
       788.70000  8.46546e-13      39.4236
       788.80000  8.46693e-13      39.4305
       788.90000  8.46693e-13      39.4305
       789.00000  8.46693e-13      39.4305
       789.10000  8.46693e-13      39.4136
       789.20000  8.46693e-13      39.3882
       789.30000  8.46693e-13      39.3628
       789.40000  8.46693e-13      39.3458
       789.50000  3.83980e-12      178.320
       789.60000  3.83980e-12      178.205
       789.70000  3.83980e-12      178.128
       789.80000  3.83980e-12      178.013
       789.90000  3.83980e-12      177.898
       790.00000  3.83980e-12      177.821
       790.10000  3.83980e-12      177.706
       790.20000  3.83980e-12      177.629
       790.30000  3.83980e-12      177.514
       790.40000  3.83980e-12      177.437
       790.50000  1.94476e-12      89.8089
       790.60000  1.94476e-12      89.7505
       790.70000  1.94476e-12      89.7116
       790.80000  1.94476e-12      89.6533
       790.90000  1.94476e-12      89.6144
       791.00000  1.94476e-12      89.5561
       791.10000  1.94476e-12      89.4977
       791.20000  1.94476e-12      89.4588
       791.30000  1.93909e-12      89.1399
       791.40000  1.93909e-12      89.0817
       791.50000  7.49318e-13      34.4012
       791.60000  7.49318e-13      34.3787
       791.70000  7.49318e-13      34.3637
       791.80000  7.49318e-13      34.3412
       791.90000  7.49318e-13      34.3263
       792.00000  7.49318e-13      34.3038
       792.10000  7.49318e-13      34.2888
       792.20000  7.49318e-13      34.2738
       792.30000  7.49318e-13      34.2513
       792.40000  7.49318e-13      34.2363
       792.50000  2.30912e-13      10.5458
       792.60000  2.30912e-13      10.5411
       792.70000  2.30912e-13      10.5365
       792.80000  2.30912e-13      10.5319
       792.90000  2.30912e-13      10.5273
       793.00000  2.30912e-13      10.5227
       793.10000  2.30912e-13      10.5157
       793.20000  2.30912e-13      10.5065
       793.30000  2.30912e-13      10.4996
       793.40000  2.30912e-13      10.4927
       793.50000  3.76248e-12      170.854
       793.60000  3.76248e-12      170.779
       793.70000  3.76248e-12      170.666
       793.80000  3.75174e-12      170.141
       793.90000  3.75174e-12      170.066
       794.00000  3.75174e-12      170.029
       794.10000  3.75174e-12      169.954
       794.20000  3.75174e-12      169.954
       794.30000  3.75174e-12      169.916
       794.40000  3.75174e-12      169.916
       794.50000  3.27433e-12      148.295
       794.60000  3.27433e-12      148.295
       794.70000  3.27433e-12      148.327
       794.80000  3.27433e-12      148.327
       794.90000  3.27433e-12      148.360
       795.00000  3.27433e-12      148.425
       795.10000  3.27433e-12      148.655
       795.20000  3.27433e-12      148.884
       795.30000  3.27433e-12      149.113
       795.40000  3.27433e-12      149.342
       795.50000  2.57736e-13      11.7708
       795.60000  2.57736e-13      11.7863
       795.70000  2.57736e-13      11.7992
       795.80000  2.57736e-13      11.8121
       795.90000  2.57736e-13      11.8249
       796.00000  2.57736e-13      11.8353
       796.10000  2.57736e-13      11.8456
       796.20000  2.57736e-13      11.8559
       796.30000  2.57393e-13      11.8478
       796.40000  2.57393e-13      11.8555
       796.50000  3.16716e-12      145.975
       796.60000  3.16716e-12      146.038
       796.70000  3.16716e-12      146.101
       796.80000  3.16716e-12      146.133
       796.90000  3.16716e-12      146.165
       797.00000  3.16716e-12      146.196
       797.10000  3.16716e-12      146.228
       797.20000  3.16716e-12      146.228
       797.30000  3.16716e-12      146.228
       797.40000  3.16716e-12      146.196
       797.50000  7.92276e-13      36.5635
       797.60000  7.92276e-13      36.5556
       797.70000  7.92276e-13      36.5398
       797.80000  7.92276e-13      36.5239
       797.90000  7.92276e-13      36.5081
       798.00000  7.92276e-13      36.4843
       798.10000  7.92276e-13      36.4605
       798.20000  7.92276e-13      36.4368
       798.30000  7.92276e-13      36.4051
       798.40000  7.92276e-13      36.3734
       798.50000  5.24700e-12      240.680
       798.60000  5.24700e-12      240.418
       798.70000  5.24700e-12      240.155
       798.80000  5.23501e-12      239.344
       798.90000  5.23501e-12      239.030
       799.00000  5.23501e-12      238.716
       799.10000  5.23501e-12      238.873
       799.20000  5.23501e-12      239.083
       799.30000  5.23501e-12      239.292
       799.40000  5.23501e-12      239.449
       799.50000  6.58814e-13      30.1539
       799.60000  6.58814e-13      30.1737
       799.70000  6.58814e-13      30.1935
       799.80000  6.58814e-13      30.2066
       799.90000  6.58814e-13      30.2198
       800.00000  6.58814e-13      30.2330
       800.10000  6.58814e-13      30.2462
       800.20000  6.58814e-13      30.2593
       800.30000  6.58814e-13      30.2725
       800.40000  6.58814e-13      30.2791
       800.50000  1.45993e-12      67.1129
       800.60000  1.45993e-12      67.1275
       800.70000  1.45993e-12      67.1275
       800.80000  1.45993e-12      67.1421
       800.90000  1.45993e-12      67.1421
       801.00000  1.45993e-12      67.1421
       801.10000  1.45993e-12      67.1129
       801.20000  1.45993e-12      67.0837
       801.30000  1.45564e-12      66.8576
       801.40000  1.45564e-12      66.8285
       801.50000  1.26665e-12      58.1266
       801.60000  1.26665e-12      58.1012
       801.70000  1.26665e-12      58.0759
       801.80000  1.26665e-12      58.0506
       801.90000  1.26665e-12      58.0252
       802.00000  1.26665e-12      57.9999
       802.10000  1.26665e-12      57.9746
       802.20000  1.26665e-12      57.9492
       802.30000  1.26665e-12      57.9239
       802.40000  1.26665e-12      57.8986
       802.50000  5.40779e-12      247.082
       802.60000  5.40779e-12      246.974
       802.70000  5.40779e-12      246.865
       802.80000  5.40779e-12      246.703
       802.90000  5.40779e-12      246.595
       803.00000  5.40779e-12      246.487
       803.10000  5.40779e-12      246.379
       803.20000  5.40779e-12      246.271
       803.30000  5.40779e-12      246.162
       803.40000  5.40779e-12      246.000
       803.50000  3.42462e-12      155.718
       803.60000  3.42462e-12      155.649
       803.70000  3.42462e-12      155.581
       803.80000  3.41398e-12      155.029
       803.90000  3.41398e-12      154.927
       804.00000  3.41398e-12      154.858
       804.10000  3.41398e-12      154.790
       804.20000  3.41398e-12      154.722
       804.30000  3.41398e-12      154.619
       804.40000  3.41398e-12      154.551
       804.50000  1.43430e-12      64.9023
       804.60000  1.43430e-12      64.8593
       804.70000  1.43430e-12      64.8306
       804.80000  1.43430e-12      64.8019
       804.90000  1.43430e-12      64.7589
       805.00000  1.43430e-12      64.7302
       805.10000  1.43430e-12      64.7875
       805.20000  1.43430e-12      64.8593
       805.30000  1.43430e-12      64.9023
       805.40000  1.43430e-12      64.9597
       805.50000  2.89024e-12      130.986
       805.60000  2.89024e-12      131.072
       805.70000  2.89024e-12      131.159
       805.80000  2.89024e-12      131.217
       805.90000  2.89024e-12      131.275
       806.00000  2.89024e-12      131.333
       806.10000  2.89024e-12      131.361
       806.20000  2.89024e-12      131.390
       806.30000  2.88459e-12      131.162
       806.40000  2.88459e-12      131.191
       806.50000  2.06313e-12      93.8310
       806.60000  2.06313e-12      93.8310
       806.70000  2.06313e-12      93.8103
       806.80000  2.06313e-12      93.8103
       806.90000  2.06313e-12      93.7897
       807.00000  2.06313e-12      93.7485
       807.10000  2.06313e-12      93.5834
       807.20000  2.06313e-12      93.3977
       807.30000  2.06313e-12      93.2327
       807.40000  2.06313e-12      93.0882
       807.50000  3.16167e-13      14.2433
       807.60000  3.16167e-13      14.2212
       807.70000  3.16167e-13      14.2022
       807.80000  3.16167e-13      14.1864
       807.90000  3.16167e-13      14.1706
       808.00000  3.16167e-13      14.1548
       808.10000  3.16167e-13      14.1422
       808.20000  3.16167e-13      14.1295
       808.30000  3.16167e-13      14.1169
       808.40000  3.16167e-13      14.1074
       808.50000  4.50304e-13      20.0836
       808.60000  4.50304e-13      20.0745
       808.70000  4.50304e-13      20.0655
       808.80000  4.49878e-13      20.0421
       808.90000  4.49878e-13      20.0376
       809.00000  4.49878e-13      20.0376
       809.10000  4.49878e-13      20.0376
       809.20000  4.49878e-13      20.0421
       809.30000  4.49878e-13      20.0466
       809.40000  4.49878e-13      20.0511
       809.50000  3.70651e-12      165.273
       809.60000  3.70651e-12      165.385
       809.70000  3.70651e-12      165.496
       809.80000  3.70651e-12      165.607
       809.90000  3.70651e-12      165.755
       810.00000  3.70651e-12      165.904
       810.10000  3.70651e-12      166.089
       810.20000  3.70651e-12      166.274
       810.30000  3.70651e-12      166.460
       810.40000  3.70651e-12      166.682
       810.50000  1.18235e-13      5.32528
       810.60000  1.18235e-13      5.33238
       810.70000  1.18235e-13      5.34184
       810.80000  1.18235e-13      5.35129
       810.90000  1.18235e-13      5.36075
       811.00000  1.18235e-13      5.37140
       811.10000  1.18235e-13      5.37258
       811.20000  1.18235e-13      5.37494
       811.30000  1.18157e-13      5.37258
       811.40000  1.18157e-13      5.37494
       811.50000  5.25292e-12      239.008
       811.60000  5.25292e-12      239.060
       811.70000  5.25292e-12      239.113
       811.80000  5.25292e-12      239.165
       811.90000  5.25292e-12      239.218
       812.00000  5.25292e-12      239.270
       812.10000  5.25292e-12      239.270
       812.20000  5.25292e-12      239.323
       812.30000  5.25292e-12      239.375
       812.40000  5.25292e-12      239.375
       812.50000  1.05007e-13      4.78518
       812.60000  1.05007e-13      4.78623
       812.70000  1.05007e-13      4.78623
       812.80000  1.05007e-13      4.78623
       812.90000  1.05007e-13      4.78623
       813.00000  1.05007e-13      4.78623
       813.10000  1.05007e-13      4.78413
       813.20000  1.05007e-13      4.78308
       813.30000  1.05007e-13      4.78098
       813.40000  1.05007e-13      4.77993
       813.50000  2.35587e-12      107.192
       813.60000  2.35587e-12      107.168
       813.70000  2.35587e-12      107.145
       813.80000  2.35561e-12      107.109
       813.90000  2.35561e-12      107.086
       814.00000  2.35561e-12      107.039
       814.10000  2.35561e-12      107.015
       814.20000  2.35561e-12      106.992
       814.30000  2.35561e-12      106.968
       814.40000  2.35561e-12      106.968
       814.50000  1.58684e-12      72.0426
       814.60000  1.58684e-12      72.0267
       814.70000  1.58684e-12      72.0109
       814.80000  1.58684e-12      71.9950
       814.90000  1.58684e-12      71.9950
       815.00000  1.58684e-12      71.9791
       815.10000  1.58684e-12      72.0426
       815.20000  1.58684e-12      72.0902
       815.30000  1.58684e-12      72.1378
       815.40000  1.58684e-12      72.1695
       815.50000  1.20212e-12      54.7086
       815.60000  1.20212e-12      54.7206
       815.70000  1.20212e-12      54.7447
       815.80000  1.20212e-12      54.7447
       815.90000  1.20212e-12      54.7567
       816.00000  1.20212e-12      54.7567
       816.10000  1.20212e-12      54.7567
       816.20000  1.20212e-12      54.7447
       816.30000  1.20209e-12      54.7311
       816.40000  1.20209e-12      54.7191
       816.50000  7.48008e-13      34.0344
       816.60000  7.48008e-13      34.0194
       816.70000  7.48008e-13      33.9970
       816.80000  7.48008e-13      33.9745
       816.90000  7.48008e-13      33.9521
       817.00000  7.48008e-13      33.9222
       817.10000  7.48008e-13      33.8174
       817.20000  7.48008e-13      33.7202
       817.30000  7.48008e-13      33.6304
       817.40000  7.48008e-13      33.5407
       817.50000  7.07121e-12      316.295
       817.60000  7.07121e-12      315.588
       817.70000  7.07121e-12      314.881
       817.80000  7.07121e-12      314.174
       817.90000  7.07121e-12      313.608
       818.00000  7.07121e-12      312.972
       818.10000  7.07121e-12      312.477
       818.20000  7.07121e-12      311.982
       818.30000  7.07121e-12      311.487
       818.40000  7.07121e-12      311.133
       818.50000  2.83988e-12      124.784
       818.60000  2.83988e-12      124.671
       818.70000  2.83988e-12      124.557
       818.80000  2.83945e-12      124.425
       818.90000  2.83945e-12      124.368
       819.00000  2.83945e-12      124.283
       819.10000  2.83945e-12      124.254
       819.20000  2.83945e-12      124.226
       819.30000  2.83945e-12      124.198
       819.40000  2.83945e-12      124.198
       819.50000  9.34188e-14      4.08707
       819.60000  9.34188e-14      4.08801
       819.70000  9.34188e-14      4.08988
       819.80000  9.34188e-14      4.09268
       819.90000  9.34188e-14      4.09548
       820.00000  9.34188e-14      4.09922
       820.10000  9.34188e-14      4.10295
       820.20000  9.34188e-14      4.10763
       820.30000  9.34188e-14      4.11323
       820.40000  9.34188e-14      4.11884
       820.50000  1.80254e-12      79.6001
       820.60000  1.80254e-12      79.7263
       820.70000  1.80254e-12      79.8705
       820.80000  1.80254e-12      80.0147
       820.90000  1.80254e-12      80.1769
       821.00000  1.80254e-12      80.3572
       821.10000  1.80254e-12      80.3211
       821.20000  1.80254e-12      80.3031
       821.30000  1.80771e-12      80.4972
       821.40000  1.80771e-12      80.4791
       821.50000  7.18099e-12      319.554
       821.60000  7.18099e-12      319.482
       821.70000  7.18099e-12      319.410
       821.80000  7.18099e-12      319.267
       821.90000  7.18099e-12      319.195
       822.00000  7.18099e-12      319.123
       822.10000  7.18099e-12      319.123
       822.20000  7.18099e-12      319.051
       822.30000  7.18099e-12      318.979
       822.40000  7.18099e-12      318.979
       822.50000  2.91654e-12      129.524
       822.60000  2.91654e-12      129.524
       822.70000  2.91654e-12      129.495
       822.80000  2.91654e-12      129.495
       822.90000  2.91654e-12      129.495
       823.00000  2.91654e-12      129.495
       823.10000  2.91654e-12      129.495
       823.20000  2.91654e-12      129.495
       823.30000  2.91654e-12      129.495
       823.40000  2.91654e-12      129.495
       823.50000  2.21390e-12      98.3195
       823.60000  2.21390e-12      98.3195
       823.70000  2.21390e-12      98.3416
       823.80000  2.21994e-12      98.6100
       823.90000  2.21994e-12      98.6321
       824.00000  2.21994e-12      98.6544
       824.10000  2.21994e-12      98.6766
       824.20000  2.21994e-12      98.6988
       824.30000  2.21994e-12      98.7209
       824.40000  2.21994e-12      98.7654
       824.50000  1.51996e-12      67.6381
       824.60000  1.51996e-12      67.6685
       824.70000  1.51996e-12      67.6837
       824.80000  1.51996e-12      67.7141
       824.90000  1.51996e-12      67.7445
       825.00000  1.51996e-12      67.7749
       825.10000  1.51996e-12      67.8053
       825.20000  1.51996e-12      67.8357
       825.30000  1.51996e-12      67.8813
       825.40000  1.51996e-12      67.9117
       825.50000  4.51705e-12      201.957
       825.60000  4.51705e-12      202.047
       825.70000  4.51705e-12      202.183
       825.80000  4.51705e-12      202.319
       825.90000  4.51705e-12      202.454
       826.00000  4.51705e-12      202.590
       826.10000  4.51705e-12      202.725
       826.20000  4.51705e-12      202.815
       826.30000  4.52005e-12      203.086
       826.40000  4.52005e-12      203.176
       826.50000  2.48127e-12      111.558
       826.60000  2.48127e-12      111.608
       826.70000  2.48127e-12      111.657
       826.80000  2.48127e-12      111.682
       826.90000  2.48127e-12      111.707
       827.00000  2.48127e-12      111.732
       827.10000  2.48127e-12      111.732
       827.20000  2.48127e-12      111.757
       827.30000  2.48127e-12      111.757
       827.40000  2.48127e-12      111.757
       827.50000  1.11853e-12      50.3788
       827.60000  1.11853e-12      50.3788
       827.70000  1.11853e-12      50.3676
       827.80000  1.11853e-12      50.3564
       827.90000  1.11853e-12      50.3452
       828.00000  1.11853e-12      50.3340
       828.10000  1.11853e-12      50.3005
       828.20000  1.11853e-12      50.2557
       828.30000  1.11853e-12      50.2110
       828.40000  1.11853e-12      50.1662
       828.50000  2.75877e-12      123.648
       828.60000  2.75877e-12      123.538
       828.70000  2.75877e-12      123.455
       828.80000  2.75653e-12      123.272
       828.90000  2.75653e-12      123.162
       829.00000  2.75653e-12      123.079
       829.10000  2.75653e-12      122.996
       829.20000  2.75653e-12      122.914
       829.30000  2.75653e-12      122.831
       829.40000  2.75653e-12      122.748
       829.50000  3.62915e-12      161.497
       829.60000  3.62915e-12      161.388
       829.70000  3.62915e-12      161.280
       829.80000  3.62915e-12      161.171
       829.90000  3.62915e-12      161.098
       830.00000  3.62915e-12      160.989
       830.10000  3.62915e-12      160.917
       830.20000  3.62915e-12      160.808
       830.30000  3.62915e-12      160.735
       830.40000  3.62915e-12      160.626
       830.50000  1.02525e-12      45.3570
       830.60000  1.02525e-12      45.3365
       830.70000  1.02525e-12      45.3057
       830.80000  1.02525e-12      45.2852
       830.90000  1.02525e-12      45.2647
       831.00000  1.02525e-12      45.2442
       831.10000  1.02525e-12      45.2237
       831.20000  1.02525e-12      45.2032
       831.30000  1.02803e-12      45.3155
       831.40000  1.02803e-12      45.2949
       831.50000  1.80766e-13      7.96094
       831.60000  1.80766e-13      7.95913
       831.70000  1.80766e-13      7.95552
       831.80000  1.80766e-13      7.95190
       831.90000  1.80766e-13      7.95010
       832.00000  1.80766e-13      7.94829
       832.10000  1.80766e-13      7.94106
       832.20000  1.80766e-13      7.93383
       832.30000  1.80766e-13      7.92840
       832.40000  1.80766e-13      7.92298
       832.50000  3.43505e-13      15.0455
       832.60000  3.43505e-13      15.0386
       832.70000  3.43505e-13      15.0318
       832.80000  3.43505e-13      15.0215
       832.90000  3.43505e-13      15.0180
       833.00000  3.43505e-13      15.0111
       833.10000  3.43505e-13      15.0043
       833.20000  3.43505e-13      15.0008
       833.30000  3.43505e-13      14.9974
       833.40000  3.43505e-13      14.9940
       833.50000  8.55617e-13      37.3477
       833.60000  8.55617e-13      37.3391
       833.70000  8.55617e-13      37.3391
       833.80000  8.56510e-13      37.3781
       833.90000  8.56510e-13      37.3867
       834.00000  8.56510e-13      37.3867
       834.10000  8.56510e-13      37.4295
       834.20000  8.56510e-13      37.4637
       834.30000  8.56510e-13      37.5066
       834.40000  8.56510e-13      37.5408
       834.50000  4.22345e-13      18.5283
       834.60000  4.22345e-13      18.5452
       834.70000  4.22345e-13      18.5579
       834.80000  4.22345e-13      18.5705
       834.90000  4.22345e-13      18.5874
       835.00000  4.22345e-13      18.6001
       835.10000  4.22345e-13      18.6085
       835.20000  4.22345e-13      18.6212
       835.30000  4.22345e-13      18.6297
       835.40000  4.22345e-13      18.6381
       835.50000  9.04692e-13      39.9422
       835.60000  9.04692e-13      39.9603
       835.70000  9.04692e-13      39.9693
       835.80000  9.04692e-13      39.9874
       835.90000  9.04692e-13      39.9964
       836.00000  9.04692e-13      40.0055
       836.10000  9.04692e-13      39.9874
       836.20000  9.04692e-13      39.9784
       836.30000  9.04283e-13      39.9422
       836.40000  9.04283e-13      39.9331
       836.50000  2.63605e-12      116.381
       836.60000  2.63605e-12      116.329
       836.70000  2.63605e-12      116.302
       836.80000  2.63605e-12      116.276
       836.90000  2.63605e-12      116.223
       837.00000  2.63605e-12      116.197
       837.10000  2.63605e-12      116.171
       837.20000  2.63605e-12      116.144
       837.30000  2.63605e-12      116.118
       837.40000  2.63605e-12      116.091
       837.50000  7.52831e-13      33.1472
       837.60000  7.52831e-13      33.1396
       837.70000  7.52831e-13      33.1321
       837.80000  7.52831e-13      33.1246
       837.90000  7.52831e-13      33.1246
       838.00000  7.52831e-13      33.1171
       838.10000  7.52831e-13      33.1095
       838.20000  7.52831e-13      33.1095
       838.30000  7.52831e-13      33.1095
       838.40000  7.52831e-13      33.1095
       838.50000  2.46144e-12      108.229
       838.60000  2.46144e-12      108.229
       838.70000  2.46144e-12      108.229
       838.80000  2.45399e-12      107.878
       838.90000  2.45399e-12      107.878
       839.00000  2.45399e-12      107.878
       839.10000  2.45399e-12      107.853
       839.20000  2.45399e-12      107.853
       839.30000  2.45399e-12      107.853
       839.40000  2.45399e-12      107.828
       839.50000  8.14162e-14      3.57743
       839.60000  8.14162e-14      3.57743
       839.70000  8.14162e-14      3.57661
       839.80000  8.14162e-14      3.57661
       839.90000  8.14162e-14      3.57661
       840.00000  8.14162e-14      3.57580
       840.10000  8.14162e-14      3.57580
       840.20000  8.14162e-14      3.57580
       840.30000  8.14162e-14      3.57499
       840.40000  8.14162e-14      3.57499
       840.50000  7.93542e-13      34.8444
       840.60000  7.93542e-13      34.8365
       840.70000  7.93542e-13      34.8365
       840.80000  7.93542e-13      34.8365
       840.90000  7.93542e-13      34.8285
       841.00000  7.93542e-13      34.8285
       841.10000  7.93542e-13      34.8285
       841.20000  7.93542e-13      34.8285
       841.30000  7.93499e-13      34.8187
       841.40000  7.93499e-13      34.8187
       841.50000  6.44147e-13      28.2652
       841.60000  6.44147e-13      28.2587
       841.70000  6.44147e-13      28.2587
       841.80000  6.44147e-13      28.2587
       841.90000  6.44147e-13      28.2523
       842.00000  6.44147e-13      28.2523
       842.10000  6.44147e-13      28.2265
       842.20000  6.44147e-13      28.2072
       842.30000  6.44147e-13      28.1879
       842.40000  6.44147e-13      28.1621
       842.50000  1.43204e-12      62.5656
       842.60000  1.43204e-12      62.5370
       842.70000  1.43204e-12      62.4940
       842.80000  1.43204e-12      62.4654
       842.90000  1.43204e-12      62.4224
       843.00000  1.43204e-12      62.3938
       843.10000  1.43204e-12      62.3652
       843.20000  1.43204e-12      62.3365
       843.30000  1.43204e-12      62.3222
       843.40000  1.43204e-12      62.2936
       843.50000  2.53577e-12      110.281
       843.60000  2.53577e-12      110.255
       843.70000  2.53577e-12      110.230
       843.80000  2.53943e-12      110.364
       843.90000  2.53943e-12      110.364
       844.00000  2.53943e-12      110.338
       844.10000  2.53943e-12      110.414
       844.20000  2.53943e-12      110.465
       844.30000  2.53943e-12      110.516
       844.40000  2.53943e-12      110.567
       844.50000  9.65551e-13      42.0594
       844.60000  9.65551e-13      42.0787
       844.70000  9.65551e-13      42.0884
       844.80000  9.65551e-13      42.1077
       844.90000  9.65551e-13      42.1173
       845.00000  9.65551e-13      42.1367
       845.10000  9.65551e-13      42.1463
       845.20000  9.65551e-13      42.1560
       845.30000  9.65551e-13      42.1753
       845.40000  9.65551e-13      42.1849
       845.50000  9.57040e-13      41.8131
       845.60000  9.57040e-13      41.8226
       845.70000  9.57040e-13      41.8322
       845.80000  9.57040e-13      41.8418
       845.90000  9.57040e-13      41.8418
       846.00000  9.57040e-13      41.8514
       846.10000  9.57040e-13      41.8514
       846.20000  9.57040e-13      41.8514
       846.30000  9.59559e-13      41.9615
       846.40000  9.59559e-13      41.9711
       846.50000  9.37045e-13      40.9864
       846.60000  9.37045e-13      40.9770
       846.70000  9.37045e-13      40.9770
       846.80000  9.37045e-13      40.9770
       846.90000  9.37045e-13      40.9676
       847.00000  9.37045e-13      40.9676
       847.10000  9.37045e-13      40.9582
       847.20000  9.37045e-13      40.9582
       847.30000  9.37045e-13      40.9489
       847.40000  9.37045e-13      40.9395
       847.50000  1.77240e-12      77.4184
       847.60000  1.77240e-12      77.4007
       847.70000  1.77240e-12      77.3830
       847.80000  1.77240e-12      77.3652
       847.90000  1.77240e-12      77.3298
       848.00000  1.77240e-12      77.3121
       848.10000  1.77240e-12      76.9399
       848.20000  1.77240e-12      76.6031
       848.30000  1.77240e-12      76.2663
       848.40000  1.77240e-12      75.9473
       848.50000  1.59922e-12      68.2549
       848.60000  1.59922e-12      68.0150
       848.70000  1.59922e-12      67.7751
       848.80000  1.60533e-12      67.8091
       848.90000  1.60533e-12      67.6004
       849.00000  1.60533e-12      67.4078
       849.10000  1.60533e-12      67.2151
       849.20000  1.60533e-12      67.0546
       849.30000  1.60533e-12      66.9101
       849.40000  1.60533e-12      66.7656
       849.50000  3.54032e-10      14699.4
       849.60000  3.54032e-10      14674.6
       849.70000  3.54032e-10      14656.9
       849.80000  3.54032e-10      14639.2
       849.90000  3.54032e-10      14625.0
       850.00000  3.54032e-10      14614.4
       850.10000  3.54032e-10      14692.3
       850.20000  3.54032e-10      14766.7
       850.30000  3.54032e-10      14833.9
       850.40000  3.54032e-10      14894.1
       850.50000  4.15442e-10      17544.1
       850.60000  4.15442e-10      17602.3
       850.70000  4.15442e-10      17652.1
       850.80000  4.15442e-10      17697.8
       850.90000  4.15442e-10      17735.2
       851.00000  4.15442e-10      17768.5
       851.10000  4.15442e-10      17793.4
       851.20000  4.15442e-10      17814.2
       851.30000  4.15882e-10      17845.5
       851.40000  4.15882e-10      17849.7
       851.50000  3.21649e-10      13805.2
       851.60000  3.21649e-10      13798.7
       851.70000  3.21649e-10      13789.1
       851.80000  3.21649e-10      13773.0
       851.90000  3.21649e-10      13750.5
       852.00000  3.21649e-10      13724.8
       852.10000  3.21649e-10      13692.6
       852.20000  3.21649e-10      13657.2
       852.30000  3.21649e-10      13615.4
       852.40000  3.21649e-10      13570.4
       852.50000  2.55359e-10      10730.2
       852.60000  2.55359e-10      10686.8
       852.70000  2.55359e-10      10635.7
       852.80000  2.55359e-10      10584.6
       852.90000  2.55359e-10      10525.9
       853.00000  2.55359e-10      10464.6
       853.10000  2.55359e-10      10398.2
       853.20000  2.55359e-10      10329.3
       853.30000  2.55359e-10      10255.2
       853.40000  2.55359e-10      10178.6
       853.50000  3.04091e-10      12023.7
       853.60000  3.04091e-10      11920.4
       853.70000  3.04091e-10      11813.9
       853.80000  3.04497e-10      11717.0
       853.90000  3.04497e-10      11601.3
       854.00000  3.04497e-10      11479.5
       854.10000  3.04497e-10      11564.8
       854.20000  3.04497e-10      11650.1
       854.30000  3.04497e-10      11732.3
       854.40000  3.04497e-10      11811.4
       854.50000  3.39905e-10      13269.9
       854.60000  3.39905e-10      13354.9
       854.70000  3.39905e-10      13436.4
       854.80000  3.39905e-10      13514.6
       854.90000  3.39905e-10      13592.8
       855.00000  3.39905e-10      13667.6
       855.10000  3.39905e-10      13739.0
       855.20000  3.39905e-10      13806.9
       855.30000  3.39905e-10      13874.9
       855.40000  3.39905e-10      13936.1
       855.50000  2.60266e-10      10720.4
       855.60000  2.60266e-10      10764.6
       855.70000  2.60266e-10      10808.8
       855.80000  2.60266e-10      10850.5
       855.90000  2.60266e-10      10889.5
       856.00000  2.60266e-10      10926.0
       856.10000  2.60266e-10      10954.6
       856.20000  2.60266e-10      10980.6
       856.30000  2.60558e-10      11019.0
       856.40000  2.60558e-10      11045.1
       856.50000  3.84215e-10      16321.4
       856.60000  3.84215e-10      16356.0
       856.70000  3.84215e-10      16386.8
       856.80000  3.84215e-10      16417.5
       856.90000  3.84215e-10      16444.4
       857.00000  3.84215e-10      16471.3
       857.10000  3.84215e-10      16498.2
       857.20000  3.84215e-10      16521.2
       857.30000  3.84215e-10      16544.3
       857.40000  3.84215e-10      16563.5
       857.50000  2.09256e-10      9031.50
       857.60000  2.09256e-10      9041.96
       857.70000  2.09256e-10      9050.33
       857.80000  2.09256e-10      9058.70
       857.90000  2.09256e-10      9064.98
       858.00000  2.09256e-10      9073.35
       858.10000  2.09256e-10      9077.54
       858.20000  2.09256e-10      9081.72
       858.30000  2.09256e-10      9085.91
       858.40000  2.09256e-10      9088.00
       858.50000  3.41913e-10      14852.7
       858.60000  3.41913e-10      14856.1
       858.70000  3.41913e-10      14856.1
       858.80000  3.42947e-10      14901.1
       858.90000  3.42947e-10      14897.6
       859.00000  3.42947e-10      14894.2
       859.10000  3.42947e-10      14890.8
       859.20000  3.42947e-10      14883.9
       859.30000  3.42947e-10      14877.1
       859.40000  3.42947e-10      14866.8
       859.50000  1.43933e-10      6235.17
       859.60000  1.43933e-10      6230.85
       859.70000  1.43933e-10      6225.10
       859.80000  1.43933e-10      6217.90
       859.90000  1.43933e-10      6212.14
       860.00000  1.43933e-10      6204.95
       860.10000  1.43933e-10      6203.51
       860.20000  1.43933e-10      6202.07
       860.30000  1.43933e-10      6202.07
       860.40000  1.43933e-10      6202.07
       860.50000  3.24022e-10      13958.9
       860.60000  3.24022e-10      13958.9
       860.70000  3.24022e-10      13958.9
       860.80000  3.24022e-10      13958.9
       860.90000  3.24022e-10      13958.9
       861.00000  3.24022e-10      13958.9
       861.10000  3.24022e-10      13958.9
       861.20000  3.24022e-10      13958.9
       861.30000  3.25087e-10      14004.8
       861.40000  3.25087e-10      14008.0
       861.50000  4.31724e-10      18603.0
       861.60000  4.31724e-10      18603.0
       861.70000  4.31724e-10      18607.3
       861.80000  4.31724e-10      18611.6
       861.90000  4.31724e-10      18611.6
       862.00000  4.31724e-10      18615.9
       862.10000  4.31724e-10      18676.4
       862.20000  4.31724e-10      18728.2
       862.30000  4.31724e-10      18775.7
       862.40000  4.31724e-10      18818.8
       862.50000  2.41450e-09      105441.
       862.60000  2.41450e-09      105610.
       862.70000  2.41450e-09      105755.
       862.80000  2.41450e-09      105876.
       862.90000  2.41450e-09      105948.
       863.00000  2.41450e-09      105996.
       863.10000  2.41450e-09      106021.
       863.20000  2.41450e-09      106021.
       863.30000  2.41450e-09      105972.
       863.40000  2.41450e-09      105900.
       863.50000  1.98390e-09      86934.4
       863.60000  1.98390e-09      86815.4
       863.70000  1.98390e-09      86676.5
       863.80000  1.98945e-09      86759.8
       863.90000  1.98945e-09      86580.8
       864.00000  1.98945e-09      86361.9
       864.10000  1.98945e-09      86123.2
       864.20000  1.98945e-09      85864.6
       864.30000  1.98945e-09      85566.1
       864.40000  1.98945e-09      85267.7
       864.50000  1.02042e-09      43551.7
       864.60000  1.02042e-09      43368.0
       864.70000  1.02042e-09      43163.9
       864.80000  1.02042e-09      42959.8
       864.90000  1.02042e-09      42725.2
       865.00000  1.02042e-09      42490.5
       865.10000  1.02042e-09      42235.3
       865.20000  1.02042e-09      41970.0
       865.30000  1.02042e-09      41694.5
       865.40000  1.02042e-09      41398.6
       865.50000  1.61891e-09      65193.7
       865.60000  1.61891e-09      64691.8
       865.70000  1.61891e-09      64173.7
       865.80000  1.61891e-09      63623.3
       865.90000  1.61891e-09      63056.7
       866.00000  1.61891e-09      62473.9
       866.10000  1.61891e-09      62700.5
       866.20000  1.61891e-09      62911.0
       866.30000  1.62370e-09      63324.3
       866.40000  1.62370e-09      63535.4
       866.50000  1.34154e-09      52669.0
       866.60000  1.34154e-09      52843.4
       866.70000  1.34154e-09      53017.8
       866.80000  1.34154e-09      53192.2
       866.90000  1.34154e-09      53353.2
       867.00000  1.34154e-09      53514.1
       867.10000  1.34154e-09      53675.1
       867.20000  1.34154e-09      53836.1
       867.30000  1.34154e-09      53997.1
       867.40000  1.34154e-09      54144.7
       867.50000  2.92622e-09      118424.
       867.60000  2.92622e-09      118746.
       867.70000  2.92622e-09      119068.
       867.80000  2.92622e-09      119390.
       867.90000  2.92622e-09      119682.
       868.00000  2.92622e-09      119975.
       868.10000  2.92622e-09      120297.
       868.20000  2.92622e-09      120619.
       868.30000  2.92622e-09      120911.
       868.40000  2.92622e-09      121204.
       868.50000  1.31853e-09      54745.3
       868.60000  1.31853e-09      54864.0
       868.70000  1.31853e-09      54995.8
       868.80000  1.32183e-09      55239.4
       868.90000  1.32183e-09      55358.3
       869.00000  1.45857e-09      61201.7
       869.10000  1.23067e-09      51737.4
       869.20000  1.02556e-09      43196.6
       869.30000  1.20788e-09      50972.6
       869.40000  1.25346e-09      52983.8
       869.50000  8.47169e-10      35869.1
       869.60000  1.35547e-09      57471.9
       869.70000  9.82715e-10      41726.1
       869.80000  8.97999e-10      38182.9
       869.90000  9.99659e-10      42565.5
       870.00000  7.11621e-10      30343.5
       870.10000  8.81055e-10      37612.2
       870.20000  9.82715e-10      42001.3
       870.30000  7.45508e-10      31892.8
       870.40000  6.94678e-10      29746.1
       870.50000  2.77655e-10      11900.3
       870.60000  3.00047e-10      12872.0
       870.70000  2.64220e-10      11343.0
       870.80000  2.23915e-10      9621.64
       870.90000  2.01524e-10      8663.51
       871.00000  1.74654e-10      7513.61
       871.10000  2.10480e-10      9059.08
       871.20000  2.73177e-10      11763.0
       871.30000  2.70261e-10      11642.8
       871.40000  2.29722e-10      9898.71
       871.50000  1.84376e-09      79466.2
       871.60000  1.53126e-09      66012.7
       871.70000  1.59376e-09      68707.0
       871.80000  1.90626e-09      82198.1
       871.90000  2.03126e-09      87567.8
       872.00000  1.34376e-09      57929.5
       872.10000  1.50001e-09      64620.5
       872.20000  2.31252e-09      99577.0
       872.30000  1.84376e-09      79337.1
       872.40000  1.37501e-09      59139.2
       872.50000  6.37104e-10      27382.7
       872.60000  7.03469e-10      30221.0
       872.70000  5.97285e-10      25647.4
       872.80000  7.16742e-10      30762.5
       872.90000  6.76923e-10      29033.2
       873.00000  6.23831e-10      26743.6
       873.10000  5.04374e-10      21612.4
       873.20000  7.03469e-10      30129.6
       873.30000  5.44193e-10      23296.9
       873.40000  6.23831e-10      26693.7
       873.50000  1.20565e-10      5156.56
       873.60000  6.13784e-11      2623.93
       873.70000  1.70983e-10      7306.10
       873.80000  1.67479e-10      7154.68
       873.90000  1.67479e-10      7151.33
       874.00000  1.45442e-10      6207.46
       877.00000  3.84632e-09      164046.
       877.10000  3.84632e-09      164161.
       877.20000  4.26112e-09      181993.
       877.30000  4.78905e-09      204684.
       877.40000  5.39239e-09      230687.
       877.50000  1.04511e-08      447518.
       877.60000  1.05280e-08      451229.
       877.70000  1.06048e-08      454947.
       877.80000  1.15270e-08      494969.
       877.90000  1.21418e-08      521974.
       878.00000  1.26028e-08      542426.
       878.10000  1.36018e-08      584607.
       878.20000  1.43703e-08      616918.
       878.30000  1.73673e-08      744711.
       878.40000  1.66757e-08      714221.
       878.50000  5.88592e-09      251799.
       878.60000  5.88592e-09      251564.
       878.70000  6.49480e-09      277263.
       878.80000  7.23751e-09      308680.
       878.90000  7.26299e-09      309476.
       879.00000  8.43526e-09      359089.
       883.00000  4.38473e-07  1.86439e+07
       883.10000  4.89596e-07  2.08274e+07
       883.20000  5.32832e-07  2.26773e+07
       883.30000  5.63400e-07  2.39839e+07
       883.40000  6.02498e-07  2.56544e+07
       883.50000  1.46413e-06  6.23574e+07
       883.60000  1.59238e-06  6.78193e+07
       883.70000  1.67911e-06  7.15134e+07
       883.80000  1.76609e-06  7.52178e+07
       883.90000  1.88268e-06  8.01647e+07
       884.00000  2.02878e-06  8.63652e+07
       886.00000  8.18711e-06  3.42221e+08
       888.00000  9.95668e-06  4.19774e+08
       890.00000  1.04666e-05  4.46296e+08
       890.10000  1.04711e-05  4.46174e+08
       890.20000  1.04690e-05  4.45771e+08
       890.30000  1.04733e-05  4.45639e+08
       890.40000  1.04707e-05  4.45213e+08
       890.50000  1.43600e-05  6.10158e+08
       890.60000  1.43564e-05  6.09573e+08
       890.70000  1.43513e-05  6.08924e+08
       890.80000  1.43490e-05  6.08398e+08
       890.90000  1.43408e-05  6.07622e+08
       891.00000  1.43321e-05  6.06964e+08
       893.00000  3.74259e-06  1.57189e+08
       899.00000  3.02778e-08  1.26804e+06
       899.10000  2.67544e-08  1.11940e+06
       899.20000  2.54405e-08  1.06341e+06
       899.30000  2.40073e-08  1.00254e+06
       899.40000  2.23351e-08      931821.
       899.50000  1.37425e-07  5.72789e+06
       899.60000  1.20722e-07  5.02565e+06
       899.70000  1.11231e-07  4.62610e+06
       899.80000  1.03259e-07  4.28937e+06
       899.90000  9.49071e-08  3.93769e+06
       900.00000  8.95923e-08  3.71270e+06
       900.10000  8.31386e-08  3.43529e+06
       900.20000  7.28886e-08  3.00447e+06
       900.30000  6.87127e-08  2.82478e+06
       900.40000  7.17497e-08  2.94317e+06
       900.50000  7.53292e-08  3.08322e+06
       900.60000  7.18255e-08  2.93407e+06
       900.70000  6.74459e-08  2.74977e+06
       900.80000  6.13144e-08  2.49611e+06
       900.90000  5.86867e-08  2.38561e+06
       901.00000  6.70079e-08  2.71985e+06
       901.10000  5.82487e-08  2.36199e+06
       901.20000  5.38691e-08  2.18224e+06
       901.30000  5.18898e-08  2.09998e+06
       901.40000  5.05706e-08  2.04558e+06
       901.50000  3.98262e-08  1.61017e+06
       901.60000  3.67627e-08  1.48595e+06
       901.70000  2.41255e-08      974912.
       901.80000  3.71456e-08  1.50105e+06
       901.90000  4.21239e-08  1.70265e+06
       902.00000  4.05921e-08  1.64155e+06
       902.10000  3.02526e-08  1.22765e+06
       902.20000  3.36991e-08  1.37189e+06
       902.30000  3.21673e-08  1.31371e+06
       902.40000  3.14015e-08  1.28620e+06
       902.50000  2.95222e-08  1.21277e+06
       902.60000  2.52539e-08  1.04021e+06
       902.70000  2.91665e-08  1.20458e+06
       902.80000  2.66767e-08  1.10442e+06
       902.90000  2.70324e-08  1.12184e+06
       903.00000  2.59653e-08  1.07990e+06
       903.10000  2.45426e-08  1.02293e+06
       903.20000  2.56096e-08  1.06946e+06
       903.30000  2.20527e-08      922466.
       903.40000  2.09857e-08      879299.
       903.50000  2.83155e-08  1.18812e+06
       903.60000  2.57743e-08  1.08304e+06
       903.70000  2.21441e-08      931826.
       903.80000  2.44511e-08  1.02988e+06
       903.90000  2.37212e-08  1.00032e+06
       904.00000  1.78821e-08      754627.
       904.10000  2.66408e-08  1.12504e+06
       904.20000  2.70057e-08  1.14126e+06
       904.30000  2.81005e-08  1.18809e+06
       904.40000  1.97069e-08      833403.
       904.50000  2.57720e-08  1.09015e+06
       904.60000  2.41093e-08  1.02006e+06
       904.70000  2.57720e-08  1.09041e+06
       904.80000  2.32779e-08      984655.
       904.90000  2.95131e-08  1.24811e+06
       905.00000  2.45249e-08  1.03667e+06
       905.10000  2.45249e-08  1.03618e+06
       905.20000  2.16152e-08      912594.
       905.30000  2.20309e-08      929483.
       905.40000  1.99525e-08      840997.
       905.50000  1.93315e-08      813855.
       905.60000  1.71009e-08      719093.
       905.70000  2.86254e-08  1.20227e+06
       905.80000  2.34208e-08      982269.
       905.90000  2.08185e-08      871671.
       906.00000  1.71009e-08      714818.
       906.10000  1.78444e-08      745183.
       906.20000  2.56514e-08  1.07043e+06
       906.30000  1.90472e-08      794268.
       906.40000  2.09146e-08      871301.
       906.50000  1.78676e-08      743830.
       906.60000  1.57900e-08      656865.
       906.70000  2.32695e-08      967313.
       906.80000  1.99453e-08      828527.
       906.90000  2.28540e-08      948668.
       907.00000  1.78676e-08      741150.
       907.10000  1.62055e-08      671720.
       907.20000  1.37124e-08      567967.
       907.30000  2.28540e-08      945926.
       907.40000  1.86987e-08      773378.
       907.50000  1.47773e-08      610748.
       907.60000  2.01069e-08      830615.
       907.70000  1.33238e-08      550008.
       907.80000  1.06591e-08      439686.
       907.90000  1.30816e-08      539354.
       908.00000  1.11436e-08      459115.
       908.10000  1.06591e-08      438727.
       908.20000  1.04168e-08      428444.
       908.30000  1.23548e-08      507660.
       908.40000  1.42928e-08      586864.
       908.50000  1.46083e-08      599380.
       908.60000  1.33651e-08      547968.
       908.70000  1.33651e-08      547701.
       908.80000  1.37229e-08      561954.
       908.90000  1.37229e-08      561679.
       909.00000  1.37229e-08      561405.
       909.10000  1.37229e-08      561130.
       909.20000  1.37229e-08      560856.
       909.30000  1.37229e-08      560582.
       909.40000  1.37229e-08      560444.
       909.50000  1.08915e-08      444699.
       909.60000  1.08915e-08      444590.
       909.70000  1.08915e-08      444481.
       909.80000  1.08915e-08      444372.
       909.90000  1.08915e-08      444372.
       910.00000  1.08915e-08      444263.
       910.10000  1.08915e-08      444263.
       910.20000  1.08915e-08      444263.
       910.30000  1.08915e-08      444372.
       910.40000  1.08915e-08      444372.
       910.50000  1.40919e-08      575088.
       910.60000  1.40919e-08      575088.
       910.70000  1.40919e-08      575229.
       910.80000  1.40919e-08      575511.
       910.90000  1.40919e-08      575652.
       911.00000  1.40919e-08      575793.
       911.10000  1.40919e-08      576075.
       911.20000  1.40919e-08      576357.
       911.30000  1.41049e-08      577173.
       911.40000  1.41049e-08      577455.
       911.50000  1.07993e-08      442446.
       911.60000  1.07993e-08      442662.
       911.70000  1.07993e-08      442986.
       911.80000  1.07993e-08      443310.
       911.90000  1.07993e-08      443634.
       912.00000  1.07993e-08      444066.
       912.10000  1.07993e-08      444606.
       912.20000  1.07993e-08      445038.
       912.30000  1.07993e-08      445470.
       912.40000  1.07993e-08      445902.
       912.50000  1.02269e-08      422679.
       912.60000  1.02269e-08      423088.
       912.70000  1.02269e-08      423497.
       912.80000  1.02269e-08      423804.
       912.90000  1.02269e-08      424111.
       913.00000  1.02269e-08      424418.
       913.10000  1.02269e-08      424724.
       913.20000  1.02269e-08      424929.
       913.30000  1.02269e-08      425236.
       913.40000  1.02269e-08      425440.
       913.50000  1.35606e-08      564391.
       913.60000  1.35606e-08      564663.
       913.70000  1.35606e-08      564798.
       913.80000  1.36329e-08      567947.
       913.90000  1.36329e-08      568220.
       914.00000  1.36329e-08      568356.
       914.10000  1.36329e-08      568084.
       914.20000  1.36329e-08      567947.
       914.30000  1.36329e-08      567811.
       914.40000  1.36329e-08      567675.
       914.50000  1.40515e-08      584964.
       914.60000  1.40515e-08      584683.
       914.70000  1.40515e-08      584543.
       914.80000  1.40515e-08      584402.
       914.90000  1.40515e-08      584262.
       915.00000  1.40515e-08      584121.
       915.10000  1.40515e-08      583981.
       915.20000  1.40515e-08      583840.
       915.30000  1.40515e-08      583700.
       915.40000  1.40515e-08      583559.
       915.50000  9.49042e-09      394042.
       915.60000  9.49042e-09      393948.
       915.70000  9.49042e-09      393853.
       915.80000  9.49042e-09      393758.
       915.90000  9.49042e-09      393663.
       916.00000  9.49042e-09      393568.
       916.10000  9.49042e-09      393473.
       916.20000  9.49042e-09      393378.
       916.30000  9.55813e-09      396089.
       916.40000  9.55813e-09      395993.
       916.50000  1.04792e-08      434049.
       916.60000  1.04792e-08      434049.
       916.70000  1.04792e-08      433944.
       916.80000  1.04792e-08      433839.
       916.90000  1.04792e-08      433734.
       917.00000  1.04792e-08      433630.
       917.10000  1.04792e-08      433630.
       917.20000  1.04792e-08      433525.
       917.30000  1.04792e-08      433420.
       917.40000  1.04792e-08      433315.
       917.50000  1.10124e-08      455363.
       917.60000  1.10124e-08      455253.
       917.70000  1.10124e-08      455143.
       917.80000  1.10124e-08      455143.
       917.90000  1.10124e-08      455033.
       918.00000  1.10124e-08      454923.
       918.10000  1.10124e-08      455143.
       918.20000  1.10124e-08      455363.
       918.30000  1.10124e-08      455584.
       918.40000  1.10124e-08      455694.
       918.50000  1.09759e-08      454294.
       918.60000  1.09759e-08      454404.
       918.70000  1.09759e-08      454404.
       918.80000  1.10781e-08      458632.
       918.90000  1.10781e-08      458632.
       919.00000  1.10781e-08      458632.
       919.10000  1.10781e-08      458521.
       919.20000  1.10781e-08      458410.
       919.30000  1.10781e-08      458300.
       919.40000  1.10781e-08      458078.
       919.50000  6.81662e-09      281731.
       919.60000  6.81662e-09      281595.
       919.70000  6.81662e-09      281458.
       919.80000  6.81662e-09      281254.
       919.90000  6.81662e-09      281117.
       920.00000  6.81662e-09      280913.
       920.10000  6.81662e-09      280299.
       920.20000  6.81662e-09      279754.
       920.30000  6.81662e-09      279209.
       920.40000  6.81662e-09      278663.
       920.50000  1.10608e-08      451281.
       920.60000  1.10608e-08      450507.
       920.70000  1.10608e-08      449733.
       920.80000  1.10608e-08      449069.
       920.90000  1.10608e-08      448295.
       921.00000  1.10608e-08      447631.
       921.10000  1.10608e-08      446967.
       921.20000  1.10608e-08      446414.
       921.30000  1.11065e-08      447594.
       921.40000  1.11065e-08      447038.
       921.50000  3.11475e-09      125213.
       921.60000  3.11475e-09      125088.
       921.70000  3.11475e-09      124964.
       921.80000  3.11475e-09      124839.
       921.90000  3.11475e-09      124715.
       922.00000  3.11475e-09      124621.
       922.10000  3.11475e-09      124496.
       922.20000  3.11475e-09      124434.
       922.30000  3.11475e-09      124341.
       922.40000  3.11475e-09      124278.
       922.50000  3.87381e-09      154449.
       922.60000  3.87381e-09      154410.
       922.70000  3.87381e-09      154333.
       922.80000  3.87381e-09      154294.
       922.90000  3.87381e-09      154255.
       923.00000  3.87381e-09      154216.
       923.10000  3.87381e-09      154216.
       923.20000  3.87381e-09      154178.
       923.30000  3.87381e-09      154178.
       923.40000  3.87381e-09      154216.
       923.50000  3.78394e-09      150639.
       923.60000  3.78394e-09      150677.
       923.70000  3.78394e-09      150714.
       923.80000  3.79252e-09      151132.
       923.90000  3.79252e-09      151170.
       924.00000  3.79252e-09      151246.
       924.10000  3.79252e-09      151246.
       924.20000  3.79252e-09      151246.
       924.30000  3.79252e-09      151246.
       924.40000  3.79252e-09      151246.
       924.50000  2.96256e-09      118147.
       924.60000  2.96256e-09      118147.
       924.70000  2.96256e-09      118176.
       924.80000  2.96256e-09      118206.
       924.90000  2.96256e-09      118206.
       925.00000  2.96256e-09      118236.
       925.10000  2.96256e-09      118295.
       925.20000  2.96256e-09      118325.
       925.30000  2.96256e-09      118354.
       925.40000  2.96256e-09      118414.
       925.50000  2.49978e-09      99966.4
       925.60000  2.49978e-09      100016.
       925.70000  2.49978e-09      100066.
       925.80000  2.49978e-09      100116.
       925.90000  2.49978e-09      100166.
       926.00000  2.49978e-09      100241.
       926.10000  2.49978e-09      100391.
       926.20000  2.49978e-09      100566.
       926.30000  2.51015e-09      101134.
       926.40000  2.51015e-09      101285.
       926.50000  2.85733e-09      115465.
       926.60000  2.85733e-09      115607.
       926.70000  2.85733e-09      115750.
       926.80000  2.85733e-09      115893.
       926.90000  2.85733e-09      116036.
       927.00000  2.85733e-09      116150.
       927.10000  2.85733e-09      116265.
       927.20000  2.85733e-09      116379.
       927.30000  2.85733e-09      116465.
       927.40000  2.85733e-09      116550.
       927.50000  3.20340e-09      130763.
       927.60000  3.20340e-09      130827.
       927.70000  3.20340e-09      130923.
       927.80000  3.20340e-09      130987.
       927.90000  3.20340e-09      131019.
       928.00000  3.20340e-09      131051.
       928.10000  3.20340e-09      130987.
       928.20000  3.20340e-09      130923.
       928.30000  3.20340e-09      130827.
       928.40000  3.20340e-09      130763.
       928.50000  2.64916e-09      108086.
       928.60000  2.64916e-09      108033.
       928.70000  2.64916e-09      107980.
       928.80000  2.66147e-09      108428.
       928.90000  2.66147e-09      108375.
       929.00000  2.66147e-09      108348.
       929.10000  2.66147e-09      108295.
       929.20000  2.66147e-09      108242.
       929.30000  2.66147e-09      108215.
       929.40000  2.66147e-09      108162.
       929.50000  3.67038e-09      149128.
       929.60000  3.67038e-09      149091.
       929.70000  3.67038e-09      149018.
       929.80000  3.67038e-09      148981.
       929.90000  3.67038e-09      148944.
       930.00000  3.67038e-09      148907.
       930.10000  3.67038e-09      148907.
       930.20000  3.67038e-09      148907.
       930.30000  3.67038e-09      148871.
       930.40000  3.67038e-09      148871.
       930.50000  2.77638e-09      112610.
       930.60000  2.77638e-09      112610.
       930.70000  2.77638e-09      112582.
       930.80000  2.77638e-09      112582.
       930.90000  2.77638e-09      112582.
       931.00000  2.77638e-09      112582.
       931.10000  2.77638e-09      112582.
       931.20000  2.77638e-09      112554.
       931.30000  2.78889e-09      113062.
       931.40000  2.78889e-09      113062.
       931.50000  2.72155e-09      110332.
       931.60000  2.72155e-09      110332.
       931.70000  2.72155e-09      110332.
       931.80000  2.72155e-09      110332.
       931.90000  2.72155e-09      110332.
       932.00000  2.72155e-09      110332.
       932.10000  2.72155e-09      110332.
       932.20000  2.72155e-09      110332.
       932.30000  2.72155e-09      110332.
       932.40000  2.72155e-09      110332.
       932.50000  2.49618e-09      101195.
       932.60000  2.49618e-09      101195.
       932.70000  2.49618e-09      101195.
       932.80000  2.49618e-09      101220.
       932.90000  2.49618e-09      101220.
       933.00000  2.49618e-09      101220.
       933.10000  2.49618e-09      101220.
       933.20000  2.49618e-09      101220.
       933.30000  2.49618e-09      101245.
       933.40000  2.49618e-09      101245.
       933.50000  2.37200e-09      96208.3
       933.60000  2.37200e-09      96232.0
       933.70000  2.37200e-09      96232.0
       933.80000  2.38094e-09      96594.9
       933.90000  2.38094e-09      96618.7
       934.00000  2.38094e-09      96618.7
       934.10000  2.38094e-09      96547.2
       934.20000  2.38094e-09      96475.8
       934.30000  2.38094e-09      96404.4
       934.40000  2.38094e-09      96332.9
       934.50000  2.79965e-09      113190.
       934.60000  2.79965e-09      113134.
       934.70000  2.79965e-09      113078.
       934.80000  2.79965e-09      112994.
       934.90000  2.79965e-09      112938.
       935.00000  2.79965e-09      112910.
       935.10000  2.79965e-09      112854.
       935.20000  2.79965e-09      112798.
       935.30000  2.79965e-09      112770.
       935.40000  2.79965e-09      112742.
       935.50000  2.81935e-09      113507.
       935.60000  2.81935e-09      113479.
       935.70000  2.81935e-09      113451.
       935.80000  2.81935e-09      113422.
       935.90000  2.81935e-09      113422.
       936.00000  2.81935e-09      113394.
       936.10000  2.81935e-09      113479.
       936.20000  2.81935e-09      113563.
       936.30000  2.82916e-09      114043.
       936.40000  2.82916e-09      114128.
       936.50000  2.44343e-09      98616.8
       936.60000  2.44343e-09      98665.7
       936.70000  2.44343e-09      98714.5
       936.80000  2.44343e-09      98763.4
       936.90000  2.44343e-09      98787.8
       937.00000  2.44343e-09      98836.7
       937.10000  2.44343e-09      98861.1
       937.20000  2.44343e-09      98885.6
       937.30000  2.44343e-09      98885.6
       937.40000  2.44343e-09      98910.0
       937.50000  2.11443e-09      85591.9
       937.60000  2.11443e-09      85591.9
       937.70000  2.11443e-09      85591.9
       937.80000  2.11443e-09      85591.9
       937.90000  2.11443e-09      85570.8
       938.00000  2.11443e-09      85570.8
       938.10000  2.11443e-09      85549.7
       938.20000  2.11443e-09      85507.4
       938.30000  2.11443e-09      85486.2
       938.40000  2.11443e-09      85443.9
       938.50000  2.83911e-09      114700.
       938.60000  2.83911e-09      114643.
       938.70000  2.83911e-09      114558.
       938.80000  2.84708e-09      114823.
       938.90000  2.84708e-09      114737.
       939.00000  2.84708e-09      114680.
       939.10000  2.84708e-09      114595.
       939.20000  2.84708e-09      114481.
       939.30000  2.84708e-09      114396.
       939.40000  2.84708e-09      114282.
       939.50000  2.08550e-09      83628.7
       939.60000  2.08550e-09      83545.3
       939.70000  2.08550e-09      83461.9
       939.80000  2.08550e-09      83378.5
       939.90000  2.08550e-09      83274.2
       940.00000  2.08550e-09      83169.9
       940.10000  2.08550e-09      83024.0
       940.20000  2.08550e-09      82878.0
       940.30000  2.08550e-09      82752.8
       940.40000  2.08550e-09      82627.7
       940.50000  1.74132e-09      68886.8
       940.60000  1.74132e-09      68799.7
       940.70000  1.74132e-09      68712.6
       940.80000  1.74132e-09      68625.6
       940.90000  1.74132e-09      68538.5
       941.00000  1.74132e-09      68468.8
       941.10000  1.74132e-09      68399.2
       941.20000  1.74132e-09      68346.9
       941.30000  1.74357e-09      68382.6
       941.40000  1.74357e-09      68330.3
       941.50000  2.01847e-09      79043.2
       941.60000  2.01847e-09      79002.8
       941.70000  2.01847e-09      78962.4
       941.80000  2.01847e-09      78922.0
       941.90000  2.01847e-09      78881.7
       942.00000  2.01847e-09      78861.5
       942.10000  2.01847e-09      78922.0
       942.20000  2.01847e-09      78962.4
       942.30000  2.01847e-09      79023.0
       942.40000  2.01847e-09      79063.3
       942.50000  2.54974e-09      99924.2
       942.60000  2.54974e-09      100001.
       942.70000  2.54974e-09      100052.
       942.80000  2.54974e-09      100103.
       942.90000  2.54974e-09      100154.
       943.00000  2.54974e-09      100205.
       943.10000  2.54974e-09      100281.
       943.20000  2.54974e-09      100332.
       943.30000  2.54974e-09      100383.
       943.40000  2.54974e-09      100434.
       943.50000  1.77620e-09      69999.9
       943.60000  1.77620e-09      70035.5
       943.70000  1.77620e-09      70071.0
       943.80000  1.77592e-09      70095.6
       943.90000  1.77592e-09      70131.2
       944.00000  1.77592e-09      70166.7
       944.10000  1.77592e-09      70202.2
       944.20000  1.77592e-09      70237.7
       944.30000  1.77592e-09      70255.5
       944.40000  1.77592e-09      70291.0
       944.50000  1.77718e-09      70376.2
       944.60000  1.77718e-09      70411.7
       944.70000  1.77718e-09      70429.5
       944.80000  1.77718e-09      70465.0
       944.90000  1.77718e-09      70500.6
       945.00000  1.77718e-09      70518.4
       945.10000  1.77718e-09      70553.9
       945.20000  1.77718e-09      70589.4
       945.30000  1.77718e-09      70607.2
       945.40000  1.77718e-09      70642.8
       945.50000  1.49057e-09      59265.2
       945.60000  1.49057e-09      59295.0
       945.70000  1.49057e-09      59309.9
       945.80000  1.49057e-09      59339.8
       945.90000  1.49057e-09      59354.7
       946.00000  1.49057e-09      59369.6
       946.10000  1.49057e-09      59399.4
       946.20000  1.49057e-09      59429.2
       946.30000  1.49102e-09      59476.7
       946.40000  1.49102e-09      59506.6
       946.50000  1.19726e-09      47806.5
       946.60000  1.19726e-09      47818.4
       946.70000  1.19726e-09      47842.4
       946.80000  1.19726e-09      47854.4
       946.90000  1.19726e-09      47866.3
       947.00000  1.19726e-09      47890.3
       947.10000  1.19726e-09      47902.2
       947.20000  1.19726e-09      47914.2
       947.30000  1.19726e-09      47926.2
       947.40000  1.19726e-09      47938.2
       947.50000  2.77440e-09      111087.
       947.60000  2.77440e-09      111115.
       947.70000  2.77440e-09      111142.
       947.80000  2.77440e-09      111142.
       947.90000  2.77440e-09      111170.
       948.00000  2.77440e-09      111170.
       948.10000  2.77440e-09      111170.
       948.20000  2.77440e-09      111170.
       948.30000  2.77440e-09      111142.
       948.40000  2.77440e-09      111142.
       948.50000  1.78689e-09      71565.0
       948.60000  1.78689e-09      71565.0
       948.70000  1.78689e-09      71565.0
       948.80000  1.79244e-09      71769.3
       948.90000  1.79244e-09      71769.3
       949.00000  1.79244e-09      71751.4
       949.10000  1.79244e-09      71751.4
       949.20000  1.79244e-09      71733.4
       949.30000  1.79244e-09      71733.4
       949.40000  1.79244e-09      71715.5
       949.50000  1.91991e-09      76815.8
       949.60000  1.91991e-09      76796.6
       949.70000  1.91991e-09      76777.4
       949.80000  1.91991e-09      76777.4
       949.90000  1.91991e-09      76758.2
       950.00000  1.91991e-09      76739.0
       950.10000  1.91991e-09      76739.0
       950.20000  1.91991e-09      76719.8
       950.30000  1.91991e-09      76700.6
       950.40000  1.91991e-09      76700.6
       950.50000  1.58999e-09      63504.0
       950.60000  1.58999e-09      63488.1
       950.70000  1.58999e-09      63472.2
       950.80000  1.58999e-09      63472.2
       950.90000  1.58999e-09      63456.3
       951.00000  1.58999e-09      63440.4
       951.10000  1.58999e-09      63424.5
       951.20000  1.58999e-09      63408.6
       951.30000  1.58847e-09      63348.2
       951.40000  1.58847e-09      63332.3
       951.50000  9.25177e-10      36877.6
       951.60000  9.25177e-10      36868.3
       951.70000  9.25177e-10      36859.1
       951.80000  9.25177e-10      36849.8
       951.90000  9.25177e-10      36840.6
       952.00000  9.25177e-10      36831.3
       952.10000  9.25177e-10      36757.3
       952.20000  9.25177e-10      36683.3
       952.30000  9.25177e-10      36618.5
       952.40000  9.25177e-10      36553.8
       952.50000  1.85059e-09      72987.4
       952.60000  1.85059e-09      72857.9
       952.70000  1.85059e-09      72746.8
       952.80000  1.85059e-09      72635.8
       952.90000  1.85059e-09      72524.8
       953.00000  1.85059e-09      72432.2
       953.10000  1.85059e-09      72339.7
       953.20000  1.85059e-09      72247.2
       953.30000  1.85059e-09      72173.2
       953.40000  1.85059e-09      72080.6
       953.50000  1.66462e-09      64770.4
       953.60000  1.66462e-09      64720.5
       953.70000  1.66462e-09      64653.9
       953.80000  1.66817e-09      64741.8
       953.90000  1.66817e-09      64691.7
       954.00000  1.66817e-09      64658.3
       954.10000  1.66817e-09      64641.7
       954.20000  1.66817e-09      64625.0
       954.30000  1.66817e-09      64625.0
       954.40000  1.66817e-09      64625.0
       954.50000  1.23437e-09      47807.0
       954.60000  1.23437e-09      47807.0
       954.70000  1.23437e-09      47807.0
       954.80000  1.23437e-09      47807.0
       954.90000  1.23437e-09      47819.3
       955.00000  1.23437e-09      47819.3
       955.10000  1.23437e-09      47831.6
       955.20000  1.23437e-09      47831.6
       955.30000  1.23437e-09      47844.0
       955.40000  1.23437e-09      47856.3
       955.50000  9.57322e-10      37124.9
       955.60000  9.57322e-10      37134.5
       955.70000  9.57322e-10      37144.1
       955.80000  9.57322e-10      37163.2
       955.90000  9.57322e-10      37172.8
       956.00000  9.57322e-10      37192.0
       956.10000  9.57322e-10      37211.1
       956.20000  9.57322e-10      37220.7
       956.30000  9.60572e-10      37366.3
       956.40000  9.60572e-10      37395.1
       956.50000  1.19872e-09      46690.1
       956.60000  1.19872e-09      46714.1
       956.70000  1.19872e-09      46750.1
       956.80000  1.19872e-09      46774.0
       956.90000  1.19872e-09      46810.0
       957.00000  1.19872e-09      46846.0
       957.10000  1.19872e-09      46881.9
       957.20000  1.19872e-09      46917.9
       957.30000  1.19872e-09      46965.8
       957.40000  1.19872e-09      47001.8
       957.50000  1.18765e-09      46603.3
       957.60000  1.18765e-09      46650.8
       957.70000  1.18765e-09      46698.3
       957.80000  1.18765e-09      46745.8
       957.90000  1.18765e-09      46793.3
       958.00000  1.18765e-09      46840.8
       958.10000  1.18765e-09      46840.8
       958.20000  1.18765e-09      46829.0
       958.30000  1.18765e-09      46829.0
       958.40000  1.18765e-09      46829.0
       958.50000  1.07801e-09      42506.1
       958.60000  1.07801e-09      42495.3
       958.70000  1.07801e-09      42495.3
       958.80000  1.07913e-09      42539.2
       958.90000  1.07913e-09      42528.4
       959.00000  1.07913e-09      42528.4
       959.10000  1.07913e-09      42517.6
       959.20000  1.07913e-09      42517.6
       959.30000  1.07913e-09      42506.8
       959.40000  1.07913e-09      42496.0
       959.50000  9.38092e-10      36942.1
       959.60000  9.38092e-10      36932.7
       959.70000  9.38092e-10      36932.7
       959.80000  9.38092e-10      36923.3
       959.90000  9.38092e-10      36913.9
       960.00000  9.38092e-10      36904.6
       960.10000  9.38092e-10      36895.2
       960.20000  9.38092e-10      36885.8
       960.30000  9.38092e-10      36876.4
       960.40000  9.38092e-10      36867.0
       960.50000  1.45112e-09      57014.4
       960.60000  1.45112e-09      56999.9
       960.70000  1.45112e-09      56985.4
       960.80000  1.45112e-09      56970.8
       960.90000  1.45112e-09      56956.3
       961.00000  1.45112e-09      56941.8
       961.10000  1.45112e-09      56927.3
       961.20000  1.45112e-09      56912.8
       961.30000  1.45396e-09      57009.9
       961.40000  1.45396e-09      56995.4
       961.50000  1.29081e-09      50587.0
       961.60000  1.29081e-09      50561.2
       961.70000  1.29081e-09      50548.3
       961.80000  1.29081e-09      50535.3
       961.90000  1.29081e-09      50522.4
       962.00000  1.29081e-09      50509.5
       962.10000  1.29081e-09      50483.7
       962.20000  1.29081e-09      50470.8
       962.30000  1.29081e-09      50457.9
       962.40000  1.29081e-09      50432.1
       962.50000  1.19621e-09      46723.9
       962.60000  1.19621e-09      46712.0
       962.70000  1.19621e-09      46688.0
       962.80000  1.19621e-09      46676.1
       962.90000  1.19621e-09      46652.2
       963.00000  1.19621e-09      46640.2
       963.10000  1.19621e-09      46628.2
       963.20000  1.19621e-09      46604.3
       963.30000  1.19621e-09      46592.3
       963.40000  1.19621e-09      46568.4
       963.50000  1.28063e-09      49842.0
       963.60000  1.28063e-09      49816.4
       963.70000  1.28063e-09      49803.6
       963.80000  1.28333e-09      49883.1
       963.90000  1.28333e-09      49857.4
       964.00000  1.28333e-09      49844.6
       964.10000  1.28333e-09      49818.9
       964.20000  1.28333e-09      49780.4
       964.30000  1.28333e-09      49754.8
       964.40000  1.28333e-09      49741.9
       964.50000  1.45771e-09      56471.7
       964.60000  1.45771e-09      56442.6
       964.70000  1.45771e-09      56428.0
       964.80000  1.45771e-09      56398.9
       964.90000  1.45771e-09      56384.3
       965.00000  1.45771e-09      56355.1
       965.10000  1.45771e-09      56340.5
       965.20000  1.45771e-09      56326.0
       965.30000  1.45771e-09      56311.4
       965.40000  1.45771e-09      56311.4
       965.50000  1.15217e-09      44496.9
       965.60000  1.15217e-09      44485.4
       965.70000  1.15217e-09      44485.4
       965.80000  1.15217e-09      44473.9
       965.90000  1.15217e-09      44473.9
       966.00000  1.15217e-09      44473.9
       966.10000  1.15217e-09      44485.4
       966.20000  1.15217e-09      44496.9
       966.30000  1.15595e-09      44665.9
       966.40000  1.15595e-09      44677.5
       966.50000  1.25379e-09      48471.7
       966.60000  1.25379e-09      48484.2
       966.70000  1.25379e-09      48496.8
       966.80000  1.25379e-09      48509.3
       966.90000  1.25379e-09      48521.9
       967.00000  1.25379e-09      48534.4
       967.10000  1.25379e-09      48546.9
       967.20000  1.25379e-09      48559.5
       967.30000  1.25379e-09      48572.0
       967.40000  1.25379e-09      48584.6
       967.50000  1.04016e-09      40306.2
       967.60000  1.04016e-09      40316.6
       967.70000  1.04016e-09      40327.0
       967.80000  1.04016e-09      40327.0
       967.90000  1.04016e-09      40337.4
       968.00000  1.04016e-09      40347.8
       968.10000  1.04016e-09      40347.8
       968.20000  1.04016e-09      40358.2
       968.30000  1.04016e-09      40358.2
       968.40000  1.04016e-09      40358.2
       968.50000  8.62770e-10      33484.1
       968.60000  8.62770e-10      33484.1
       968.70000  8.62770e-10      33484.1
       968.80000  8.64808e-10      33571.8
       968.90000  8.64808e-10      33571.8
       969.00000  8.64808e-10      33571.8
       969.10000  8.64808e-10      33571.8
       969.20000  8.64808e-10      33571.8
       969.30000  8.64808e-10      33571.8
       969.40000  8.64808e-10      33571.8
       969.50000  1.03804e-09      40296.7
       969.60000  1.03804e-09      40296.7
       969.70000  1.03804e-09      40296.7
       969.80000  1.03804e-09      40296.7
       969.90000  1.03804e-09      40296.7
       970.00000  1.03804e-09      40296.7
       970.10000  1.03804e-09      40307.0
       970.20000  1.03804e-09      40317.4
       970.30000  1.03804e-09      40317.4
       970.40000  1.03804e-09      40327.8
       970.50000  1.08754e-09      42250.8
       970.60000  1.08754e-09      42261.6
       970.70000  1.08754e-09      42261.6
       970.80000  1.08754e-09      42261.6
       970.90000  1.08754e-09      42261.6
       971.00000  1.08754e-09      42261.6
       971.10000  1.08754e-09      42261.6
       971.20000  1.08754e-09      42250.8
       971.30000  1.08930e-09      42319.2
       971.40000  1.08930e-09      42308.3
       971.50000  1.20794e-09      46916.4
       971.60000  1.20794e-09      46904.3
       971.70000  1.20794e-09      46892.2
       971.80000  1.20794e-09      46880.2
       971.90000  1.20794e-09      46868.1
       972.00000  1.20794e-09      46843.9
       972.10000  1.20794e-09      46795.6
       972.20000  1.20794e-09      46747.3
       972.30000  1.20794e-09      46711.0
       972.40000  1.20794e-09      46662.7
       972.50000  9.15249e-10      35328.6
       972.60000  9.15249e-10      35292.0
       972.70000  9.15249e-10      35264.6
       972.80000  9.15249e-10      35237.1
       972.90000  9.15249e-10      35209.6
       973.00000  9.15249e-10      35191.3
       973.10000  9.15249e-10      35163.9
       973.20000  9.15249e-10      35145.6
       973.30000  9.15249e-10      35127.3
       973.40000  9.15249e-10      35109.0
       973.50000  9.33831e-10      35803.1
       973.60000  9.33831e-10      35784.4
       973.70000  9.33831e-10      35775.1
       973.80000  9.34336e-10      35775.7
       973.90000  9.34336e-10      35766.4
       974.00000  9.34336e-10      35757.1
       974.10000  9.34336e-10      35766.4
       974.20000  9.34336e-10      35785.1
       974.30000  9.34336e-10      35794.4
       974.40000  9.34336e-10      35803.8
       974.50000  1.06675e-09      40888.6
       974.60000  1.06675e-09      40899.3
       974.70000  1.06675e-09      40910.0
       974.80000  1.06675e-09      40920.6
       974.90000  1.06675e-09      40920.6
       975.00000  1.06675e-09      40931.3
       975.10000  1.06675e-09      40942.0
       975.20000  1.06675e-09      40942.0
       975.30000  1.06675e-09      40952.6
       975.40000  1.06675e-09      40952.6
       975.50000  1.00046e-09      38407.8
       975.60000  1.00046e-09      38417.9
       975.70000  1.00046e-09      38417.9
       975.80000  1.00046e-09      38417.9
       975.90000  1.00046e-09      38417.9
       976.00000  1.00046e-09      38417.9
       976.10000  1.00046e-09      38407.8
       976.20000  1.00046e-09      38397.8
       976.30000  9.99792e-10      38362.0
       976.40000  9.99792e-10      38352.0
       976.50000  8.18922e-10      31413.9
       976.60000  8.18922e-10      31405.7
       976.70000  8.18922e-10      31397.5
       976.80000  8.18922e-10      31389.3
       976.90000  8.18922e-10      31389.3
       977.00000  8.18922e-10      31381.1
       977.10000  8.18922e-10      31372.9
       977.20000  8.18922e-10      31364.7
       977.30000  8.18922e-10      31364.7
       977.40000  8.18922e-10      31356.5
       977.50000  1.19958e-09      45919.8
       977.60000  1.19958e-09      45919.8
       977.70000  1.19958e-09      45907.8
       977.80000  1.19958e-09      45895.8
       977.90000  1.19958e-09      45895.8
       978.00000  1.19958e-09      45883.8
       978.10000  1.19958e-09      45883.8
       978.20000  1.19958e-09      45871.8
       978.30000  1.19958e-09      45871.8
       978.40000  1.19958e-09      45859.8
       978.50000  8.39065e-10      32069.1
       978.60000  8.39065e-10      32069.1
       978.70000  8.39065e-10      32069.1
       978.80000  8.38927e-10      32055.4
       978.90000  8.38927e-10      32055.4
       979.00000  8.38927e-10      32047.0
       979.10000  8.38927e-10      32047.0
       979.20000  8.38927e-10      32038.6
       979.30000  8.38927e-10      32038.6
       979.40000  8.38927e-10      32038.6
       979.50000  5.75887e-10      21987.4
       979.60000  5.75887e-10      21987.4
       979.70000  5.75887e-10      21987.4
       979.80000  5.75887e-10      21981.6
       979.90000  5.75887e-10      21981.6
       980.00000  5.75887e-10      21981.6
       980.10000  5.75887e-10      21993.1
       980.20000  5.75887e-10      21998.9
       980.30000  5.75887e-10      22010.4
       980.40000  5.75887e-10      22016.1
       980.50000  7.47344e-10      28585.9
       980.60000  7.47344e-10      28593.4
       980.70000  7.47344e-10      28600.9
       980.80000  7.47344e-10      28608.3
       980.90000  7.47344e-10      28615.8
       981.00000  7.47344e-10      28623.3
       981.10000  7.47344e-10      28630.8
       981.20000  7.47344e-10      28638.2
       981.30000  7.51354e-10      28791.9
       981.40000  7.51354e-10      28799.4
       981.50000  7.90771e-10      30310.2
       981.60000  7.90771e-10      30310.2
       981.70000  7.90771e-10      30318.2
       981.80000  7.90771e-10      30318.2
       981.90000  7.90771e-10      30318.2
       982.00000  7.90771e-10      30310.2
       982.10000  7.90771e-10      30302.3
       982.20000  7.90771e-10      30286.5
       982.30000  7.90771e-10      30278.6
       982.40000  7.90771e-10      30262.8
       982.50000  7.16268e-10      27404.4
       982.60000  7.16268e-10      27390.1
       982.70000  7.16268e-10      27382.9
       982.80000  7.16268e-10      27375.8
       982.90000  7.16268e-10      27361.4
       983.00000  7.16268e-10      27354.3
       983.10000  7.16268e-10      27347.1
       983.20000  7.16268e-10      27339.9
       983.30000  7.16268e-10      27332.8
       983.40000  7.16268e-10      27318.5
       983.50000  7.30453e-10      27852.2
       983.60000  7.30453e-10      27844.9
       983.70000  7.30453e-10      27837.6
       983.80000  7.31024e-10      27852.0
       983.90000  7.31024e-10      27844.7
       984.00000  7.31024e-10      27837.4
       984.10000  7.31024e-10      27837.4
       984.20000  7.31024e-10      27830.1
       984.30000  7.31024e-10      27822.8
       984.40000  7.31024e-10      27815.5
       984.50000  8.97601e-10      34153.7
       984.60000  8.97601e-10      34144.7
       984.70000  8.97601e-10      34135.8
       984.80000  8.97601e-10      34135.8
       984.90000  8.97601e-10      34126.8
       985.00000  8.97601e-10      34117.8
       985.10000  8.97601e-10      34117.8
       985.20000  8.97601e-10      34108.8
       985.30000  8.97601e-10      34108.8
       985.40000  8.97601e-10      34108.8
       985.50000  7.83053e-10      29748.2
       985.60000  7.83053e-10      29748.2
       985.70000  7.83053e-10      29748.2
       985.80000  7.83053e-10      29740.4
       985.90000  7.83053e-10      29740.4
       986.00000  7.83053e-10      29740.4
       986.10000  7.83053e-10      29732.5
       986.20000  7.83053e-10      29732.5
       986.30000  7.78567e-10      29562.2
       986.40000  7.78567e-10      29554.4
       986.50000  5.89909e-10      22387.0
       986.60000  5.89909e-10      22387.0
       986.70000  5.89909e-10      22381.1
       986.80000  5.89909e-10      22381.1
       986.90000  5.89909e-10      22375.2
       987.00000  5.89909e-10      22369.3
       987.10000  5.89909e-10      22363.4
       987.20000  5.89909e-10      22363.4
       987.30000  5.89909e-10      22357.5
       987.40000  5.89909e-10      22351.6
       987.50000  5.62582e-10      21310.6
       987.60000  5.62582e-10      21305.0
       987.70000  5.62582e-10      21299.4
       987.80000  5.62582e-10      21293.7
       987.90000  5.62582e-10      21288.1
       988.00000  5.62582e-10      21282.5
       988.10000  5.62582e-10      21265.6
       988.20000  5.62582e-10      21254.4
       988.30000  5.62582e-10      21237.5
       988.40000  5.62582e-10      21226.2
       988.50000  8.73120e-10      32925.4
       988.60000  8.73120e-10      32907.9
       988.70000  8.73120e-10      32890.4
       988.80000  8.75530e-10      32963.7
       988.90000  8.75530e-10      32946.2
       989.00000  8.75530e-10      32937.5
       989.10000  8.75530e-10      32928.7
       989.20000  8.75530e-10      32911.2
       989.30000  8.75530e-10      32902.4
       989.40000  8.75530e-10      32893.7
       989.50000  8.05022e-10      30236.6
       989.60000  8.05022e-10      30228.6
       989.70000  8.05022e-10      30228.6
       989.80000  8.05022e-10      30220.5
       989.90000  8.05022e-10      30220.5
       990.00000  8.05022e-10      30220.5
       990.10000  8.05022e-10      30212.5
       990.20000  8.05022e-10      30212.5
       990.30000  8.05022e-10      30220.5
       990.40000  8.05022e-10      30220.5
       990.50000  5.65645e-10      21234.3
       990.60000  5.65645e-10      21240.0
       990.70000  5.65645e-10      21240.0
       990.80000  5.65645e-10      21245.6
       990.90000  5.65645e-10      21251.3
       991.00000  5.65645e-10      21256.9
       991.10000  5.65645e-10      21262.6
       991.20000  5.65645e-10      21268.2
       991.30000  5.66844e-10      21319.0
       991.40000  5.66844e-10      21330.3
       991.50000  6.81252e-10      25642.3
       991.60000  6.81252e-10      25656.0
       991.70000  6.81252e-10      25669.6
       991.80000  6.81252e-10      25683.2
       991.90000  6.81252e-10      25696.8
       992.00000  6.81252e-10      25710.5
       992.10000  6.81252e-10      25717.3
       992.20000  6.81252e-10      25717.3
       992.30000  6.81252e-10      25717.3
       992.40000  6.81252e-10      25717.3
       992.50000  2.92253e-10      11035.5
       992.60000  2.92253e-10      11035.5
       992.70000  2.92253e-10      11035.5
       992.80000  2.92253e-10      11035.5
       992.90000  2.92253e-10      11035.5
       993.00000  2.92253e-10      11038.4
       993.10000  2.92253e-10      11038.4
       993.20000  2.92253e-10      11038.4
       993.30000  2.92253e-10      11038.4
       993.40000  2.92253e-10      11038.4
       993.50000  5.26360e-10      19880.6
       993.60000  5.26360e-10      19880.6
       993.70000  5.26360e-10      19880.6
       993.80000  5.26654e-10      19891.7
       993.90000  5.26654e-10      19886.5
       994.00000  5.26654e-10      19886.5
       994.10000  5.26654e-10      19886.5
       994.20000  5.26654e-10      19881.2
       994.30000  5.26654e-10      19881.2
       994.40000  5.26654e-10      19875.9
       994.50000  6.33831e-10      23920.8
       994.60000  6.33831e-10      23914.5
       994.70000  6.33831e-10      23914.5
       994.80000  6.33831e-10      23908.1
       994.90000  6.33831e-10      23908.1
       995.00000  6.33831e-10      23901.8
       995.10000  6.33831e-10      23901.8
       995.20000  6.33831e-10      23901.8
       995.30000  6.33831e-10      23895.4
       995.40000  6.33831e-10      23895.4
       995.50000  5.13306e-10      19351.6
       995.60000  5.13306e-10      19346.5
       995.70000  5.13306e-10      19346.5
       995.80000  5.13306e-10      19346.5
       995.90000  5.13306e-10      19346.5
       996.00000  5.13306e-10      19341.4
       996.10000  5.13306e-10      19346.5
       996.20000  5.13306e-10      19346.5
       996.30000  5.13905e-10      19369.1
       996.40000  5.13905e-10      19369.1
       996.50000  5.87435e-10      22140.4
       996.60000  5.87435e-10      22140.4
       996.70000  5.87435e-10      22140.4
       996.80000  5.87435e-10      22140.4
       996.90000  5.87435e-10      22140.4
       997.00000  5.87435e-10      22140.4
       997.10000  5.87435e-10      22140.4
       997.20000  5.87435e-10      22140.4
       997.30000  5.87435e-10      22140.4
       997.40000  5.87435e-10      22140.4
       997.50000  5.03715e-10      18985.0
       997.60000  5.03715e-10      18985.0
       997.70000  5.03715e-10      18985.0
       997.80000  5.03715e-10      18985.0
       997.90000  5.03715e-10      18985.0
       998.00000  5.03715e-10      18980.0
       998.10000  5.03715e-10      18980.0
       998.20000  5.03715e-10      18974.9
       998.30000  5.03715e-10      18974.9
       998.40000  5.03715e-10      18969.9
       998.50000  3.84764e-10      14486.4
       998.60000  3.84764e-10      14486.4
       998.70000  3.84764e-10      14482.5
       998.80000  3.87921e-10      14601.3
       998.90000  3.87921e-10      14601.3
       999.00000  3.87921e-10      14597.5
       999.10000  3.87921e-10      14597.5
       999.20000  3.87921e-10      14593.6
       999.30000  3.87921e-10      14593.6
       999.40000  3.87921e-10      14593.6
       999.50000  4.56200e-10      17157.7
       999.60000  4.56200e-10      17157.7
       999.70000  4.56200e-10      17157.7
       999.80000  4.56200e-10      17157.7
       999.90000  4.56200e-10      17157.7
       1000.0000  4.56200e-10      17153.1
       1000.1000  4.56200e-10      17153.1
       1000.2000  4.56200e-10      17153.1
       1000.3000  4.56200e-10      17153.1
       1000.4000  4.56200e-10      17153.1
       1000.5000  3.74687e-10      14088.2
       1000.6000  3.74687e-10      14088.2
       1000.7000  3.74687e-10      14088.2
       1000.8000  3.74687e-10      14088.2
       1000.9000  3.74687e-10      14088.2
       1001.0000  3.74687e-10      14088.2
       1001.1000  3.74687e-10      14088.2
       1001.2000  3.74687e-10      14092.0
       1001.3000  3.70296e-10      13926.8
       1001.4000  3.70296e-10      13926.8
       1001.5000  4.45956e-10      16772.4
       1001.6000  4.45956e-10      16772.4
       1001.7000  4.45956e-10      16776.9
       1001.8000  4.45956e-10      16776.9
       1001.9000  4.45956e-10      16776.9
       1002.0000  4.45956e-10      16781.3
       1002.1000  4.45956e-10      16754.6
       1002.2000  4.45956e-10      16727.8
       1002.3000  4.45956e-10      16705.5
       1002.4000  4.45956e-10      16678.8
       1002.5000  4.92184e-10      18383.1
       1002.6000  4.92184e-10      18353.5
       1002.7000  4.92184e-10      18328.9
       1002.8000  4.92184e-10      18304.3
       1002.9000  4.92184e-10      18279.7
       1003.0000  4.92184e-10      18255.1
       1003.1000  4.92184e-10      18230.5
       1003.2000  4.92184e-10      18205.9
       1003.3000  4.92184e-10      18186.2
       1003.4000  4.92184e-10      18161.6
       1003.5000  5.18245e-10      19102.5
       1003.6000  5.18245e-10      19081.8
       1003.7000  5.18245e-10      19055.9
       1003.8000  5.18107e-10      19030.1
       1003.9000  5.18107e-10      19009.3
       1004.0000  5.18107e-10      18988.6
       1004.1000  5.18107e-10      18957.5
       1004.2000  5.18107e-10      18921.3
       1004.3000  5.18107e-10      18895.4
       1004.4000  5.18107e-10      18864.3
       1004.5000  3.69480e-10      13434.3
       1004.6000  3.69480e-10      13415.8
       1004.7000  3.69480e-10      13401.1
       1004.8000  3.69480e-10      13386.3
       1004.9000  3.69480e-10      13375.2
       1005.0000  3.69480e-10      13364.1
       1005.1000  3.69480e-10      13353.0
       1005.2000  3.69480e-10      13345.6
       1005.3000  3.69480e-10      13338.2
       1005.4000  3.69480e-10      13334.6
       1005.5000  4.09947e-10      14790.9
       1005.6000  4.09947e-10      14786.8
       1005.7000  4.09947e-10      14786.8
       1005.8000  4.09947e-10      14790.9
       1005.9000  4.09947e-10      14790.9
       1006.0000  4.09947e-10      14795.0
       1006.1000  4.09947e-10      14803.2
       1006.2000  4.09947e-10      14811.4
       1006.3000  4.09095e-10      14788.8
       1006.4000  4.09095e-10      14801.1
       1006.5000  3.11849e-10      11292.1
       1006.6000  3.11849e-10      11304.5
       1006.7000  3.11849e-10      11317.0
       1006.8000  3.11849e-10      11329.5
       1006.9000  3.11849e-10      11345.1
       1007.0000  3.11849e-10      11360.7
       1007.1000  3.11849e-10      11379.4
       1007.2000  3.11849e-10      11398.1
       1007.3000  3.11849e-10      11416.8
       1007.4000  3.11849e-10      11438.6
       1007.5000  3.18855e-10      11717.9
       1007.6000  3.18855e-10      11743.4
       1007.7000  3.18855e-10      11769.0
       1007.8000  3.18855e-10      11794.5
       1007.9000  3.18855e-10      11823.2
       1008.0000  3.18855e-10      11851.9
       1008.1000  3.18855e-10      11855.0
       1008.2000  3.18855e-10      11855.0
       1008.3000  3.18855e-10      11855.0
       1008.4000  3.18855e-10      11855.0
       1008.5000  3.28870e-10      12227.4
       1008.6000  3.28870e-10      12227.4
       1008.7000  3.28870e-10      12227.4
       1008.8000  3.28180e-10      12201.7
       1008.9000  3.28180e-10      12201.7
       1009.0000  3.28180e-10      12198.4
       1009.1000  3.28180e-10      12198.4
       1009.2000  3.28180e-10      12198.4
       1009.3000  3.28180e-10      12198.4
       1009.4000  3.28180e-10      12195.2
       1009.5000  4.09842e-10      15229.7
       1009.6000  4.09842e-10      15229.7
       1009.7000  4.09842e-10      15225.6
       1009.8000  4.09842e-10      15225.6
       1009.9000  4.09842e-10      15221.5
       1010.0000  4.09842e-10      15221.5
       1010.1000  4.09842e-10      15217.4
       1010.2000  4.09842e-10      15213.3
       1010.3000  4.09842e-10      15209.2
       1010.4000  4.09842e-10      15205.1
       1010.5000  4.23698e-10      15715.0
       1010.6000  4.23698e-10      15710.7
       1010.7000  4.23698e-10      15706.5
       1010.8000  4.23698e-10      15702.3
       1010.9000  4.23698e-10      15698.0
       1011.0000  4.23698e-10      15693.8
       1011.1000  4.23698e-10      15693.8
       1011.2000  4.23698e-10      15689.5
       1011.3000  4.22564e-10      15643.3
       1011.4000  4.22564e-10      15639.1
       1011.5000  3.76170e-10      13918.3
       1011.6000  3.76170e-10      13914.5
       1011.7000  3.76170e-10      13910.8
       1011.8000  3.76170e-10      13907.0
       1011.9000  3.76170e-10      13903.2
       1012.0000  3.76170e-10      13899.5
       1012.1000  3.76170e-10      13895.7
       1012.2000  3.76170e-10      13892.0
       1012.3000  3.76170e-10      13888.2
       1012.4000  3.76170e-10      13884.4
       1012.5000  5.27821e-10      19476.6
       1012.6000  5.27821e-10      19471.3
       1012.7000  5.27821e-10      19466.0
       1012.8000  5.27821e-10      19460.8
       1012.9000  5.27821e-10      19460.8
       1013.0000  5.27821e-10      19455.5
       1013.1000  5.27821e-10      19450.2
       1013.2000  5.27821e-10      19444.9
       1013.3000  5.27821e-10      19439.6
       1013.4000  5.27821e-10      19434.4
       1013.5000  2.88310e-10      10612.7
       1013.6000  2.88310e-10      10609.8
       1013.7000  2.88310e-10      10606.9
       1013.8000  2.88086e-10      10595.8
       1013.9000  2.88086e-10      10592.9
       1014.0000  2.88086e-10      10590.0
       1014.1000  2.88086e-10      10584.3
       1014.2000  2.88086e-10      10578.5
       1014.3000  2.88086e-10      10572.8
       1014.4000  2.88086e-10      10567.0
       1014.5000  2.27204e-10      8331.56
       1014.6000  2.27204e-10      8327.02
       1014.7000  2.27204e-10      8322.48
       1014.8000  2.27204e-10      8320.20
       1014.9000  2.27204e-10      8315.66
       1015.0000  2.27204e-10      8313.39
       1015.1000  2.27204e-10      8308.84
       1015.2000  2.27204e-10      8306.57
       1015.3000  2.27204e-10      8304.30
       1015.4000  2.27204e-10      8299.76
       1015.5000  2.74841e-10      10037.2
       1015.6000  2.74841e-10      10034.4
       1015.7000  2.74841e-10      10031.7
       1015.8000  2.74841e-10      10028.9
       1015.9000  2.74841e-10      10026.2
       1016.0000  2.74841e-10      10023.4
       1016.1000  2.74841e-10      10023.4
       1016.2000  2.74841e-10      10023.4
       1016.3000  2.75285e-10      10039.7
       1016.4000  2.75285e-10      10036.9
       1016.5000  2.81355e-10      10258.2
       1016.6000  2.81355e-10      10258.2
       1016.7000  2.81355e-10      10258.2
       1016.8000  2.81355e-10      10255.4
       1016.9000  2.81355e-10      10255.4
       1017.0000  2.81355e-10      10252.6
       1017.1000  2.81355e-10      10252.6
       1017.2000  2.81355e-10      10249.8
       1017.3000  2.81355e-10      10249.8
       1017.4000  2.81355e-10      10247.0
       1017.5000  3.23029e-10      11764.7
       1017.6000  3.23029e-10      11761.5
       1017.7000  3.23029e-10      11758.3
       1017.8000  3.23029e-10      11755.0
       1017.9000  3.23029e-10      11751.8
       1018.0000  3.23029e-10      11751.8
       1018.1000  3.23029e-10      11745.4
       1018.2000  3.23029e-10      11738.9
       1018.3000  3.23029e-10      11732.4
       1018.4000  3.23029e-10      11726.0
       1018.5000  2.70254e-10      9807.50
       1018.6000  2.70254e-10      9802.10
       1018.7000  2.70254e-10      9799.40
       1018.8000  2.70126e-10      9789.37
       1018.9000  2.70126e-10      9786.67
       1019.0000  2.70126e-10      9781.27
       1019.1000  2.70126e-10      9778.57
       1019.2000  2.70126e-10      9775.86
       1019.3000  2.70126e-10      9773.16
       1019.4000  2.70126e-10      9767.76
       1019.5000  2.52257e-10      9119.09
       1019.6000  2.52257e-10      9116.57
       1019.7000  2.52257e-10      9114.04
       1019.8000  2.52257e-10      9114.04
       1019.9000  2.52257e-10      9111.52
       1020.0000  2.52257e-10      9109.00
       1020.1000  2.52257e-10      9106.48
       1020.2000  2.52257e-10      9103.95
       1020.3000  2.52257e-10      9103.95
       1020.4000  2.52257e-10      9101.43
       1020.5000  2.33200e-10      8413.86
       1020.6000  2.33200e-10      8411.53
       1020.7000  2.33200e-10      8411.53
       1020.8000  2.33200e-10      8409.20
       1020.9000  2.33200e-10      8409.20
       1021.0000  2.33200e-10      8409.20
       1021.1000  2.33200e-10      8409.20
       1021.2000  2.33200e-10      8409.20
       1021.3000  2.32705e-10      8391.33
       1021.4000  2.32705e-10      8391.33
       1021.5000  2.05825e-10      7422.03
       1021.6000  2.05825e-10      7422.03
       1021.7000  2.05825e-10      7422.03
       1021.8000  2.05825e-10      7424.09
       1021.9000  2.05825e-10      7424.09
       1022.0000  2.05825e-10      7426.15
       1022.1000  2.05825e-10      7426.15
       1022.2000  2.05825e-10      7428.21
       1022.3000  2.05825e-10      7430.27
       1022.4000  2.05825e-10      7430.27
       1022.5000  2.05842e-10      7432.94
       1022.6000  2.05842e-10      7435.00
       1022.7000  2.05842e-10      7437.05
       1022.8000  2.05842e-10      7439.11
       1022.9000  2.05842e-10      7441.17
       1023.0000  2.05842e-10      7443.23
       1023.1000  2.05842e-10      7447.35
       1023.2000  2.05842e-10      7449.40
       1023.3000  2.05842e-10      7451.46
       1023.4000  2.05842e-10      7455.58
       1023.5000  2.61152e-10      9461.55
       1023.6000  2.61152e-10      9466.78
       1023.7000  2.61152e-10      9469.39
       1023.8000  2.60388e-10      9446.88
       1023.9000  2.60388e-10      9452.09
       1024.0000  2.60388e-10      9457.30
       1024.1000  2.60388e-10      9457.30
       1024.2000  2.60388e-10      9454.70
       1024.3000  2.60388e-10      9454.70
       1024.4000  2.60388e-10      9454.70
       1024.5000  2.51057e-10      9115.87
       1024.6000  2.51057e-10      9113.36
       1024.7000  2.51057e-10      9113.36
       1024.8000  2.51057e-10      9113.36
       1024.9000  2.51057e-10      9110.85
       1025.0000  2.51057e-10      9110.85
       1025.1000  2.51057e-10      9110.85
       1025.2000  2.51057e-10      9108.34
       1025.3000  2.51057e-10      9108.34
       1025.4000  2.51057e-10      9108.34
       1025.5000  2.22919e-10      8085.27
       1025.6000  2.22919e-10      8085.27
       1025.7000  2.22919e-10      8083.04
       1025.8000  2.22919e-10      8083.04
       1025.9000  2.22919e-10      8080.81
       1026.0000  2.22919e-10      8080.81
       1026.1000  2.22919e-10      8080.81
       1026.2000  2.22919e-10      8078.58
       1026.3000  2.22123e-10      8049.74
       1026.4000  2.22123e-10      8047.52
       1026.5000  1.75688e-10      6365.18
       1026.6000  1.75688e-10      6363.43
       1026.7000  1.75688e-10      6361.67
       1026.8000  1.75688e-10      6361.67
       1026.9000  1.75688e-10      6359.91
       1027.0000  1.75688e-10      6359.91
       1027.1000  1.75688e-10      6358.16
       1027.2000  1.75688e-10      6356.40
       1027.3000  1.75688e-10      6356.40
       1027.4000  1.75688e-10      6354.64
       1027.5000  1.91796e-10      6935.35
       1027.6000  1.91796e-10      6935.35
       1027.7000  1.91796e-10      6933.44
       1027.8000  1.91796e-10      6931.52
       1027.9000  1.91796e-10      6929.60
       1028.0000  1.91796e-10      6927.68
       1028.1000  1.91796e-10      6927.68
       1028.2000  1.91796e-10      6925.76
       1028.3000  1.91796e-10      6923.85
       1028.4000  1.91796e-10      6921.93
       1028.5000  2.00287e-10      7226.37
       1028.6000  2.00287e-10      7224.37
       1028.7000  2.00287e-10      7222.36
       1028.8000  2.00346e-10      7222.48
       1028.9000  2.00346e-10      7220.47
       1029.0000  2.00346e-10      7218.47
       1029.1000  2.00346e-10      7216.47
       1029.2000  2.00346e-10      7214.46
       1029.3000  2.00346e-10      7212.46
       1029.4000  2.00346e-10      7210.46
       1029.5000  1.95288e-10      7026.47
       1029.6000  1.95288e-10      7024.52
       1029.7000  1.95288e-10      7022.57
       1029.8000  1.95288e-10      7020.61
       1029.9000  1.95288e-10      7018.66
       1030.0000  1.95288e-10      7014.75
       1030.1000  1.95288e-10      7016.71
       1030.2000  1.95288e-10      7016.71
       1030.3000  1.95288e-10      7016.71
       1030.4000  1.95288e-10      7016.71
       1030.5000  2.05937e-10      7399.31
       1030.6000  2.05937e-10      7399.31
       1030.7000  2.05937e-10      7397.25
       1030.8000  2.05937e-10      7397.25
       1030.9000  2.05937e-10      7397.25
       1031.0000  2.05937e-10      7395.19
       1031.1000  2.05937e-10      7395.19
       1031.2000  2.05937e-10      7393.13
       1031.3000  2.05996e-10      7395.27
       1031.4000  2.05996e-10      7393.21
       1031.5000  1.64057e-10      5886.38
       1031.6000  1.64057e-10      5884.74
       1031.7000  1.64057e-10      5883.10
       1031.8000  1.64057e-10      5881.46
       1031.9000  1.64057e-10      5879.82
       1032.0000  1.64057e-10      5878.18
       1032.1000  1.64057e-10      5873.26
       1032.2000  1.64057e-10      5866.69
       1032.3000  1.64057e-10      5861.77
       1032.4000  1.64057e-10      5858.49
       1032.5000  2.05693e-10      7339.13
       1032.6000  2.05693e-10      7332.96
       1032.7000  2.05693e-10      7328.84
       1032.8000  2.05693e-10      7322.67
       1032.9000  2.05693e-10      7318.56
       1033.0000  2.05693e-10      7314.45
       1033.1000  2.05693e-10      7310.33
       1033.2000  2.05693e-10      7308.27
       1033.3000  2.05693e-10      7304.16
       1033.4000  2.05693e-10      7302.10
       1033.5000  1.95612e-10      6940.31
       1033.6000  1.95612e-10      6938.35
       1033.7000  1.95612e-10      6936.40
       1033.8000  1.95894e-10      6944.43
       1033.9000  1.95894e-10      6944.43
       1034.0000  1.95894e-10      6942.47
       1034.1000  1.95894e-10      6942.47
       1034.2000  1.95894e-10      6940.51
       1034.3000  1.95894e-10      6940.51
       1034.4000  1.95894e-10      6940.51
       1034.5000  1.73538e-10      6148.46
       1034.6000  1.73538e-10      6150.20
       1034.7000  1.73538e-10      6150.20
       1034.8000  1.73538e-10      6151.93
       1034.9000  1.73538e-10      6151.93
       1035.0000  1.73538e-10      6153.67
       1035.1000  1.73538e-10      6155.41
       1035.2000  1.73538e-10      6157.14
       1035.3000  1.73538e-10      6160.61
       1035.4000  1.73538e-10      6162.35
       1035.5000  1.41611e-10      5031.43
       1035.6000  1.41611e-10      5034.26
       1035.7000  1.41611e-10      5035.68
       1035.8000  1.41611e-10      5038.51
       1035.9000  1.41611e-10      5042.76
       1036.0000  1.41611e-10      5045.59
       1036.1000  1.41611e-10      5042.76
       1036.2000  1.41611e-10      5039.93
       1036.3000  1.41377e-10      5028.77
       1036.4000  1.41377e-10      5025.94
       1036.5000  1.25977e-10      4475.96
       1036.6000  1.25977e-10      4473.44
       1036.7000  1.25977e-10      4472.18
       1036.8000  1.25977e-10      4469.66
       1036.9000  1.25977e-10      4467.14
       1037.0000  1.25977e-10      4465.88
       1037.1000  1.25977e-10      4464.62
       1037.2000  1.25977e-10      4462.10
       1037.3000  1.25977e-10      4460.84
       1037.4000  1.25977e-10      4459.58
       1037.5000  1.42686e-10      5049.66
       1037.6000  1.42686e-10      5048.23
       1037.7000  1.42686e-10      5046.80
       1037.8000  1.42686e-10      5045.38
       1037.9000  1.42686e-10      5043.95
       1038.0000  1.42686e-10      5042.52
       1038.1000  1.42686e-10      5042.52
       1038.2000  1.42686e-10      5042.52
       1038.3000  1.42686e-10      5043.95
       1038.4000  1.42686e-10      5043.95
       1038.5000  1.73876e-10      6146.53
       1038.6000  1.73876e-10      6146.53
       1038.7000  1.73876e-10      6146.53
       1038.8000  1.73494e-10      6133.03
       1038.9000  1.73494e-10      6133.03
       1039.0000  1.73494e-10      6133.03
       1039.1000  1.73494e-10      6133.03
       1039.2000  1.73494e-10      6133.03
       1039.3000  1.73494e-10      6133.03
       1039.4000  1.73494e-10      6133.03
       1039.5000  1.36959e-10      4841.52
       1039.6000  1.36959e-10      4841.52
       1039.7000  1.36959e-10      4841.52
       1039.8000  1.36959e-10      4841.52
       1039.9000  1.36959e-10      4841.52
       1040.0000  1.36959e-10      4841.52
       1040.1000  1.36959e-10      4841.52
       1040.2000  1.36959e-10      4841.52
       1040.3000  1.36959e-10      4841.52
       1040.4000  1.36959e-10      4841.52
       1040.5000  1.22440e-10      4328.25
       1040.6000  1.22440e-10      4328.25
       1040.7000  1.22440e-10      4328.25
       1040.8000  1.22440e-10      4328.25
       1040.9000  1.22440e-10      4328.25
       1041.0000  1.22440e-10      4328.25
       1041.1000  1.22440e-10      4328.25
       1041.2000  1.22440e-10      4328.25
       1041.3000  1.22395e-10      4326.66
       1041.4000  1.22395e-10      4326.66
       1041.5000  1.06838e-10      3776.73
       1041.6000  1.06838e-10      3776.73
       1041.7000  1.06838e-10      3776.73
       1041.8000  1.06838e-10      3775.66
       1041.9000  1.06838e-10      3775.66
       1042.0000  1.06838e-10      3775.66
       1042.1000  1.06838e-10      3776.73
       1042.2000  1.06838e-10      3776.73
       1042.3000  1.06838e-10      3777.79
       1042.4000  1.06838e-10      3777.79
       1042.5000  6.91580e-11      2445.43
       1042.6000  6.91580e-11      2445.43
       1042.7000  6.91580e-11      2445.43
       1042.8000  6.91580e-11      2444.73
       1042.9000  6.91580e-11      2444.73
       1043.0000  6.91580e-11      2444.73
       1043.1000  6.91580e-11      2444.04
       1043.2000  6.91580e-11      2443.35
       1043.3000  6.91580e-11      2443.35
       1043.4000  6.91580e-11      2442.66
       1043.5000  1.32034e-10      4662.13
       1043.6000  1.32034e-10      4660.81
       1043.7000  1.32034e-10      4659.49
       1043.8000  1.32446e-10      4671.35
       1043.9000  1.32446e-10      4670.03
       1044.0000  1.32446e-10      4667.38
       1044.1000  1.32446e-10      4662.08
       1044.2000  1.32446e-10      4655.46
       1044.3000  1.32446e-10      4650.16
       1044.4000  1.32446e-10      4644.87
       1044.5000  9.98929e-11      3499.25
       1044.6000  9.98929e-11      3496.25
       1044.7000  9.98929e-11      3492.26
       1044.8000  9.98929e-11      3489.26
       1044.9000  9.98929e-11      3486.26
       1045.0000  9.98929e-11      3483.27
       1045.1000  9.98929e-11      3481.27
       1045.2000  9.98929e-11      3478.27
       1045.3000  9.98929e-11      3476.27
       1045.4000  9.98929e-11      3474.27
       1045.5000  7.73136e-11      2688.19
       1045.6000  7.73136e-11      2686.65
       1045.7000  7.73136e-11      2685.87
       1045.8000  7.73136e-11      2685.10
       1045.9000  7.73136e-11      2684.33
       1046.0000  7.73136e-11      2683.55
       1046.1000  7.73136e-11      2683.55
       1046.2000  7.73136e-11      2682.78
       1046.3000  7.75055e-11      2689.44
       1046.4000  7.75055e-11      2689.44
       1046.5000  6.82464e-11      2368.83
       1046.6000  6.82464e-11      2368.83
       1046.7000  6.82464e-11      2369.52
       1046.8000  6.82464e-11      2370.20
       1046.9000  6.82464e-11      2370.88
       1047.0000  6.82464e-11      2372.25
       1047.1000  6.82464e-11      2372.93
       1047.2000  6.82464e-11      2374.29
       1047.3000  6.82464e-11      2375.66
       1047.4000  6.82464e-11      2377.02
       1047.5000  6.51651e-11      2271.66
       1047.6000  6.51651e-11      2272.96
       1047.7000  6.51651e-11      2274.91
       1047.8000  6.51651e-11      2276.87
       1047.9000  6.51651e-11      2278.82
       1048.0000  6.51651e-11      2281.43
       1048.1000  6.51651e-11      2281.43
       1048.2000  6.51651e-11      2281.43
       1048.3000  6.51651e-11      2281.43
       1048.4000  6.51651e-11      2280.78
       1048.5000  7.95179e-11      2783.13
       1048.6000  7.95179e-11      2783.13
       1048.7000  7.95179e-11      2783.13
       1048.8000  7.94991e-11      2782.47
       1048.9000  7.94991e-11      2782.47
       1049.0000  7.94991e-11      2781.67
       1049.1000  7.94991e-11      2781.67
       1049.2000  7.94991e-11      2781.67
       1049.3000  7.94991e-11      2780.88
       1049.4000  7.94991e-11      2780.88
       1049.5000  7.26660e-11      2541.86
       1049.6000  7.26660e-11      2541.13
       1049.7000  7.26660e-11      2541.13
       1049.8000  7.26660e-11      2541.13
       1049.9000  7.26660e-11      2540.40
       1050.0000  7.26660e-11      2540.40
       1050.1000  7.26660e-11      2539.68
       1050.2000  7.26660e-11      2539.68
       1050.3000  7.26660e-11      2538.95
       1050.4000  7.26660e-11      2538.22
       1050.5000  4.13017e-11      1442.67
       1050.6000  4.13017e-11      1442.26
       1050.7000  4.13017e-11      1442.26
       1050.8000  4.13017e-11      1441.84
       1050.9000  4.13017e-11      1441.43
       1051.0000  4.13017e-11      1441.43
       1051.1000  4.13017e-11      1441.02
       1051.2000  4.13017e-11      1441.02
       1051.3000  4.11481e-11      1435.24
       1051.4000  4.11481e-11      1434.83
       1051.5000  3.65261e-11      1273.67
       1051.6000  3.65261e-11      1273.30
       1051.7000  3.65261e-11      1272.94
       1051.8000  3.65261e-11      1272.94
       1051.9000  3.65261e-11      1272.57
       1052.0000  3.65261e-11      1272.57
       1052.1000  3.65261e-11      1272.20
       1052.2000  3.65261e-11      1271.84
       1052.3000  3.65261e-11      1271.84
       1052.4000  3.65261e-11      1271.47
       1052.5000  3.26816e-11      1137.32
       1052.6000  3.26816e-11      1137.32
       1052.7000  3.26816e-11      1136.99
       1052.8000  3.26816e-11      1136.67
       1052.9000  3.26816e-11      1136.67
       1053.0000  3.26816e-11      1136.34
       1053.1000  3.26816e-11      1136.34
       1053.2000  3.26816e-11      1136.01
       1053.3000  3.26816e-11      1135.69
       1053.4000  3.26816e-11      1135.69
       1053.5000  2.78449e-11      967.333
       1053.6000  2.78449e-11      967.054
       1053.7000  2.78449e-11      967.054
       1053.8000  2.76563e-11      960.227
       1053.9000  2.76563e-11      959.950
       1054.0000  2.76563e-11      959.950
       1054.1000  2.76563e-11      960.503
       1054.2000  2.76563e-11      960.780
       1054.3000  2.76563e-11      961.333
       1054.4000  2.76563e-11      961.886
       1054.5000  1.48883e-11      517.965
       1054.6000  1.48883e-11      518.114
       1054.7000  1.48883e-11      518.263
       1054.8000  1.48883e-11      518.412
       1054.9000  1.48883e-11      518.561
       1055.0000  1.48883e-11      518.710
       1055.1000  1.48883e-11      518.710
       1055.2000  1.48883e-11      518.710
       1055.3000  1.48883e-11      518.858
       1055.4000  1.48883e-11      518.858
       1055.5000  1.31702e-11      458.851
       1055.6000  1.31702e-11      458.851
       1055.7000  1.31702e-11      458.851
       1055.8000  1.31702e-11      458.719
       1055.9000  1.31702e-11      458.588
       1056.0000  1.31702e-11      458.456
       1056.1000  1.31702e-11      458.061
       1056.2000  1.31702e-11      457.666
       1056.3000  1.30367e-11      452.635
       1056.4000  1.30367e-11      452.114
       1056.5000  2.95922e-12      102.537
       1056.6000  2.95922e-12      102.478
       1056.7000  2.95922e-12      102.389
       1056.8000  2.95922e-12      102.300
       1056.9000  2.95922e-12      102.211
       1057.0000  2.95922e-12      102.152
