PDS_VERSION_ID         = PDS3
RECORD_TYPE            = STREAM
OBJECT                 = TEXT
  PUBLICATION_DATE     = 2014-04-25
  INTERCHANGE_FORMAT   = ASCII
  NOTE                 = "System transmission vs. wavelength."
END_OBJECT             = TEXT
END
    
The systrans directory contains the non-wavelength-integrated system 
transmission values (QE*optics*filter1*filter2) for each filter combination. 
The naming convention for these files is as follows:

<camera><filter 1><filter 2>_systrans.tab

where <camera> is "issna" or "isswa," and <filter 1> and <filter 2> represent
the filter names. For polarized filter combinations, values are given for the
parallel orientation of the filter (full transmission), with values for the 
perpendicular (blocking) orientation provided in files with subscript 
"_b_systrans.tab". 

Columns in systrans files are as follows:

 1st column: Wavelength (nm)  
 2nd column: Transmitted Flux
 3rd column: Transmitted Flux * Solar Flux (phot per cm^2-s-angstrom at 1 AU)

The solar spectrum used for this calculation is provided in solarflux.tab.

\begindata
       619.00000  5.08623e-10      27068.9
       619.10000  5.08623e-10      27048.6
       619.20000  5.08623e-10      27038.4
       619.30000  5.08623e-10      27033.3
       619.40000  5.08623e-10      27033.3
       619.50000  5.20921e-10      27697.4
       619.60000  5.20921e-10      27796.3
       619.70000  5.20921e-10      27884.9
       619.80000  5.20921e-10      27963.0
       619.90000  5.20921e-10      28030.8
       620.00000  5.20921e-10      28082.8
       620.10000  5.20921e-10      28124.5
       620.20000  5.20921e-10      28155.8
       620.30000  5.20921e-10      28176.6
       620.40000  5.20921e-10      28181.8
       620.50000  7.41747e-10      40128.5
       620.60000  7.41747e-10      39965.3
       620.70000  7.41747e-10      39809.6
       620.80000  7.41747e-10      39676.0
       620.90000  7.41747e-10      39557.4
       621.00000  7.41747e-10      39453.5
       621.10000  7.41747e-10      39364.5
       621.20000  7.41747e-10      39297.8
       621.30000  7.40795e-10      39188.1
       621.40000  7.40795e-10      39143.6
       621.50000  8.37277e-10      44216.6
       621.60000  8.37277e-10      44367.3
       621.70000  8.37277e-10      44501.3
       621.80000  8.37277e-10      44610.1
       621.90000  8.37277e-10      44710.6
       622.00000  8.37277e-10      44785.9
       622.10000  8.37277e-10      44844.6
       622.20000  8.37277e-10      44878.0
       622.30000  8.37277e-10      44903.2
       622.40000  8.37277e-10      44903.2
       622.50000  8.15374e-10      43712.2
       622.60000  8.15374e-10      43679.6
       622.70000  8.15374e-10      43630.7
       622.80000  8.15374e-10      43565.4
       622.90000  8.15374e-10      43475.8
       623.00000  8.15374e-10      43377.9
       623.10000  8.15374e-10      43255.6
       623.20000  8.15374e-10      43108.8
       623.30000  8.15374e-10      42953.9
       623.40000  8.15374e-10      42774.5
       623.50000  2.05521e-09      107344.
       623.60000  2.05521e-09      107323.
       623.70000  2.05521e-09      107323.
       623.80000  2.05079e-09      107051.
       623.90000  2.05079e-09      107031.
       624.00000  2.05079e-09      106990.
       624.10000  2.05079e-09      106928.
       624.20000  2.05079e-09      106866.
       624.30000  2.05079e-09      106805.
       624.40000  2.05079e-09      106723.
       624.50000  6.14164e-09      319365.
       624.60000  6.14164e-09      318137.
       624.70000  6.14164e-09      317154.
       624.80000  6.14164e-09      316295.
       624.90000  6.14164e-09      315619.
       625.00000  6.14164e-09      315128.
       625.10000  6.14164e-09      314821.
       625.20000  6.14164e-09      314636.
       625.30000  6.14164e-09      314698.
       625.40000  6.14164e-09      314882.
       625.50000  7.73797e-09      397190.
       625.60000  7.73797e-09      397809.
       625.70000  7.73797e-09      398737.
       625.80000  7.73797e-09      399821.
       625.90000  7.73797e-09      401136.
       626.00000  7.73797e-09      402684.
       626.10000  7.73797e-09      404464.
       626.20000  7.73797e-09      406398.
       626.30000  7.72576e-09      407998.
       626.40000  7.72576e-09      410393.
       626.50000  2.74274e-08  1.46599e+06
       626.60000  2.74274e-08  1.46627e+06
       626.70000  2.74274e-08  1.46654e+06
       626.80000  2.74274e-08  1.46682e+06
       626.90000  2.74274e-08  1.46709e+06
       627.00000  2.74274e-08  1.46737e+06
       627.10000  2.74274e-08  1.46764e+06
       627.20000  2.74274e-08  1.46764e+06
       627.30000  2.74274e-08  1.46791e+06
       627.40000  2.74274e-08  1.46819e+06
       627.50000  9.04240e-08  4.84130e+06
       627.60000  9.04240e-08  4.84492e+06
       627.70000  9.04240e-08  4.84763e+06
       627.80000  9.04240e-08  4.84944e+06
       627.90000  9.04240e-08  4.85125e+06
       628.00000  9.04240e-08  4.85215e+06
       628.10000  9.04240e-08  4.85305e+06
       628.20000  9.04240e-08  4.85305e+06
       628.30000  9.04240e-08  4.85215e+06
       628.40000  9.04240e-08  4.85125e+06
       628.50000  7.41617e-08  3.97729e+06
       628.60000  7.41617e-08  3.97507e+06
       628.70000  7.41617e-08  3.97284e+06
       628.80000  7.40050e-08  3.96149e+06
       628.90000  7.40050e-08  3.95778e+06
       629.00000  7.40050e-08  3.95408e+06
       629.10000  7.40050e-08  3.94964e+06
       629.20000  7.40050e-08  3.94520e+06
       629.30000  7.40050e-08  3.94002e+06
       629.40000  7.40050e-08  3.93410e+06
       629.50000  1.20795e-07  6.41182e+06
       629.60000  1.20795e-07  6.39853e+06
       629.70000  1.20795e-07  6.38524e+06
       629.80000  1.20795e-07  6.37316e+06
       629.90000  1.20795e-07  6.36229e+06
       630.00000  1.20795e-07  6.35142e+06
       630.10000  1.20795e-07  6.34055e+06
       630.20000  1.20795e-07  6.33209e+06
       630.30000  1.20795e-07  6.32243e+06
       630.40000  1.20795e-07  6.31518e+06
       630.50000  2.92571e-07  1.52781e+07
       630.60000  2.92571e-07  1.52605e+07
       630.70000  2.92571e-07  1.52459e+07
       630.80000  2.92571e-07  1.52342e+07
       630.90000  2.92571e-07  1.52225e+07
       631.00000  2.92571e-07  1.52137e+07
       631.10000  2.92571e-07  1.52225e+07
       631.20000  2.92571e-07  1.52313e+07
       631.30000  2.92557e-07  1.52422e+07
       631.40000  2.92557e-07  1.52510e+07
       631.50000  8.54678e-08  4.45800e+06
       631.60000  8.54678e-08  4.46056e+06
       631.70000  8.54678e-08  4.46313e+06
       631.80000  8.54678e-08  4.46484e+06
       631.90000  8.54678e-08  4.46740e+06
       632.00000  8.54678e-08  4.46996e+06
       632.10000  8.54678e-08  4.47253e+06
       632.20000  8.54678e-08  4.47424e+06
       632.30000  8.54678e-08  4.47680e+06
       632.40000  8.54678e-08  4.47936e+06
       632.50000  2.34826e-07  1.23119e+07
       632.60000  2.34826e-07  1.23166e+07
       632.70000  2.34826e-07  1.23237e+07
       632.80000  2.34826e-07  1.23284e+07
       632.90000  2.34826e-07  1.23331e+07
       633.00000  2.34826e-07  1.23401e+07
       633.10000  2.34826e-07  1.23448e+07
       633.20000  2.34826e-07  1.23495e+07
       633.30000  2.34826e-07  1.23542e+07
       633.40000  2.34826e-07  1.23589e+07
       633.50000  1.92249e-08  1.01219e+06
       633.60000  1.92249e-08  1.01258e+06
       633.70000  1.92249e-08  1.01296e+06
       633.80000  1.92220e-08  1.01300e+06
       633.90000  1.92220e-08  1.01338e+06
       634.00000  1.92220e-08  1.01377e+06
       634.10000  1.92220e-08  1.01396e+06
       634.20000  1.92220e-08  1.01434e+06
       634.30000  1.92220e-08  1.01454e+06
       634.40000  1.92220e-08  1.01492e+06
       634.50000  1.60104e-07  8.45508e+06
       634.60000  1.60104e-07  8.45668e+06
       634.70000  1.60104e-07  8.45988e+06
       634.80000  1.60104e-07  8.46148e+06
       634.90000  1.60104e-07  8.46308e+06
       635.00000  1.60104e-07  8.46468e+06
       635.10000  1.60104e-07  8.46628e+06
       635.20000  1.60104e-07  8.46628e+06
       635.30000  1.60104e-07  8.46788e+06
       635.40000  1.60104e-07  8.46788e+06
       635.50000  2.01507e-07  1.06597e+07
       635.60000  2.01507e-07  1.06617e+07
       635.70000  2.01507e-07  1.06617e+07
       635.80000  2.01507e-07  1.06638e+07
       635.90000  2.01507e-07  1.06638e+07
       636.00000  2.01507e-07  1.06658e+07
       636.10000  2.01507e-07  1.06658e+07
       636.20000  2.01507e-07  1.06678e+07
       636.30000  2.00313e-07  1.06046e+07
       636.40000  2.00313e-07  1.06066e+07
       636.50000  1.29183e-07  6.84022e+06
       636.60000  1.29183e-07  6.84152e+06
       636.70000  1.29183e-07  6.84152e+06
       636.80000  1.29183e-07  6.84281e+06
       636.90000  1.29183e-07  6.84281e+06
       637.00000  1.29183e-07  6.84281e+06
       637.10000  1.29183e-07  6.84410e+06
       637.20000  1.29183e-07  6.84410e+06
       637.30000  1.29183e-07  6.84539e+06
       637.40000  1.29183e-07  6.84539e+06
       637.50000  1.47740e-07  7.82876e+06
       637.60000  1.47740e-07  7.83024e+06
       637.70000  1.47740e-07  7.83024e+06
       637.80000  1.47740e-07  7.83171e+06
       637.90000  1.47740e-07  7.83171e+06
       638.00000  1.47740e-07  7.83171e+06
       638.10000  1.47740e-07  7.83319e+06
       638.20000  1.47740e-07  7.83319e+06
       638.30000  1.47740e-07  7.83319e+06
       638.40000  1.47740e-07  7.83467e+06
       638.50000  1.49392e-07  7.92227e+06
       638.60000  1.49392e-07  7.92227e+06
       638.70000  1.49392e-07  7.92376e+06
       638.80000  1.48413e-07  7.87180e+06
       638.90000  1.48413e-07  7.87180e+06
       639.00000  1.48413e-07  7.87180e+06
       639.10000  1.48413e-07  7.85993e+06
       639.20000  1.48413e-07  7.84806e+06
       639.30000  1.48413e-07  7.83618e+06
       639.40000  1.48413e-07  7.82579e+06
       639.50000  5.22135e-08  2.74904e+06
       639.60000  5.22135e-08  2.74591e+06
       639.70000  5.22135e-08  2.74225e+06
       639.80000  5.22135e-08  2.73912e+06
       639.90000  5.22135e-08  2.73651e+06
       640.00000  5.22135e-08  2.73338e+06
       640.10000  5.22135e-08  2.73076e+06
       640.20000  5.22135e-08  2.72868e+06
       640.30000  5.22135e-08  2.72659e+06
       640.40000  5.22135e-08  2.72450e+06
       640.50000  2.10685e-08  1.09851e+06
       640.60000  2.10685e-08  1.09788e+06
       640.70000  2.10685e-08  1.09725e+06
       640.80000  2.10685e-08  1.09683e+06
       640.90000  2.10685e-08  1.09620e+06
       641.00000  2.10685e-08  1.09598e+06
       641.10000  2.10685e-08  1.09641e+06
       641.20000  2.10685e-08  1.09683e+06
       641.30000  2.09260e-08  1.08983e+06
       641.40000  2.09260e-08  1.09025e+06
       641.50000  4.79965e-08  2.50158e+06
       641.60000  4.79965e-08  2.50254e+06
       641.70000  4.79965e-08  2.50350e+06
       641.80000  4.79965e-08  2.50446e+06
       641.90000  4.79965e-08  2.50542e+06
       642.00000  4.79965e-08  2.50638e+06
       642.10000  4.79965e-08  2.50686e+06
       642.20000  4.79965e-08  2.50782e+06
       642.30000  4.79965e-08  2.50878e+06
       642.40000  4.79965e-08  2.50974e+06
       642.50000  1.90628e-08      997174.
       642.60000  1.90628e-08      997555.
       642.70000  1.90628e-08      997937.
       642.80000  1.90628e-08      998318.
       642.90000  1.90628e-08      998699.
       643.00000  1.90628e-08      999080.
       643.10000  1.90628e-08      999271.
       643.20000  1.90628e-08      999652.
       643.30000  1.90628e-08  1.00003e+06
       643.40000  1.90628e-08  1.00041e+06
       643.50000  1.48453e-08      779376.
       643.60000  1.48453e-08      779673.
       643.70000  1.48453e-08      779821.
       643.80000  1.48255e-08      779079.
       643.90000  1.48255e-08      779376.
       644.00000  1.48255e-08      779672.
       644.10000  1.48255e-08      779968.
       644.20000  1.48255e-08      780117.
       644.30000  1.48255e-08      780413.
       644.40000  1.48255e-08      780710.
       644.50000  4.30184e-09      226621.
       644.60000  4.30184e-09      226664.
       644.70000  4.30184e-09      226750.
       644.80000  4.30184e-09      226836.
       644.90000  4.30184e-09      226922.
       645.00000  4.30184e-09      226965.
       645.10000  4.30184e-09      226922.
       645.20000  4.30184e-09      226836.
       645.30000  4.30184e-09      226793.
       645.40000  4.30184e-09      226707.
       645.50000  4.36742e-09      230032.
       645.60000  4.36742e-09      229945.
       645.70000  4.36742e-09      229857.
       645.80000  4.36742e-09      229726.
       645.90000  4.36742e-09      229595.
       646.00000  4.36742e-09      229464.
       646.10000  4.36742e-09      229333.
       646.20000  4.36742e-09      229202.
       646.30000  4.36474e-09      228887.
       646.40000  4.36474e-09      228712.
       646.50000  8.05176e-12      421.671
       646.60000  8.05176e-12      421.268
       646.70000  8.05176e-12      420.946
       646.80000  8.05176e-12      420.624
       646.90000  8.05176e-12      420.221
       647.00000  8.05176e-12      419.899
       647.10000  8.05176e-12      418.772
       647.20000  8.05176e-12      417.725
       647.30000  8.05176e-12      416.759
       647.40000  8.05176e-12      415.793
       647.50000  1.11450e-09      57430.1
       647.60000  1.11450e-09      57329.8
       647.70000  1.11450e-09      57218.4
       647.80000  1.11450e-09      57129.2
       647.90000  1.11450e-09      57040.0
       648.00000  1.11450e-09      56962.0
       648.10000  1.11450e-09      56895.2
       648.20000  1.11450e-09      56839.4
       648.30000  1.11450e-09      56783.7
       648.40000  1.11450e-09      56739.1
       648.50000  7.78858e-10      39628.3
       648.60000  7.78858e-10      39612.7
       648.70000  7.78858e-10      39597.1
       648.80000  7.79663e-10      39630.3
       648.90000  7.79663e-10      39630.3
       649.00000  7.79663e-10      39638.1
       649.10000  7.79663e-10      39645.9
       649.20000  7.79663e-10      39669.3
       649.30000  7.79663e-10      39684.9
       649.40000  7.79663e-10      39716.1
       649.50000  4.29460e-10      21898.1
       649.60000  4.29460e-10      21919.6
       649.70000  4.29460e-10      21945.4
       649.80000  4.29460e-10      21975.4
       649.90000  4.29460e-10      22005.5
       650.00000  4.29460e-10      22039.9
       650.10000  4.29460e-10      22078.5
       650.20000  4.29460e-10      22121.5
       650.30000  4.29460e-10      22168.7
       650.40000  4.29460e-10      22215.9
       650.50000  2.60260e-10      13494.5
       650.60000  2.60260e-10      13528.3
       650.70000  2.60260e-10      13562.1
       650.80000  2.60260e-10      13601.2
       650.90000  2.60260e-10      13640.2
       651.00000  2.60260e-10      13681.8
       651.10000  2.60260e-10      13692.3
       651.20000  2.60260e-10      13702.7
       651.30000  2.59933e-10      13693.3
       651.40000  2.59933e-10      13701.1
       651.50000  2.53764e-10      13383.5
       651.60000  2.53764e-10      13386.0
       651.70000  2.53764e-10      13391.1
       651.80000  2.53764e-10      13393.7
       651.90000  2.53764e-10      13393.7
       652.00000  2.53764e-10      13393.7
       652.10000  2.53764e-10      13391.1
       652.20000  2.53764e-10      13388.6
       652.30000  2.53764e-10      13386.0
       652.40000  2.53764e-10      13381.0
       652.50000  2.64012e-10      13913.4
       652.60000  2.64012e-10      13905.5
       652.70000  2.64012e-10      13897.6
       652.80000  2.64012e-10      13884.4
       652.90000  2.64012e-10      13873.8
       653.00000  2.64012e-10      13860.6
       653.10000  2.64012e-10      13850.0
       653.20000  2.64012e-10      13839.5
       653.30000  2.64012e-10      13823.6
       653.40000  2.64012e-10      13807.8
       653.50000  1.20455e-10      6292.57
       653.60000  1.20455e-10      6284.14
       653.70000  1.20455e-10      6274.50
       653.80000  1.20308e-10      6256.03
       653.90000  1.20308e-10      6245.21
       654.00000  1.20308e-10      6233.17
       654.10000  1.20308e-10      6221.14
       654.20000  1.20308e-10      6206.71
       654.30000  1.20308e-10      6192.27
       654.40000  1.20308e-10      6177.83
       654.50000  8.88231e-11      4549.52
       654.60000  8.88231e-11      4537.08
       654.70000  8.88231e-11      4523.76
       654.80000  8.88231e-11      4510.44
       654.90000  8.88231e-11      4496.23
       655.00000  8.88231e-11      4481.13
       655.10000  8.88231e-11      4438.49
       655.20000  8.88231e-11      4397.63
       655.30000  8.88231e-11      4359.44
       655.40000  8.88231e-11      4323.91
       655.50000  8.24018e-11      3980.00
       655.60000  8.24018e-11      3951.16
       655.70000  8.24018e-11      3923.97
       655.80000  8.24018e-11      3899.25
       655.90000  8.24018e-11      3876.18
       656.00000  8.24018e-11      3855.58
       656.10000  8.24018e-11      3837.45
       656.20000  8.24018e-11      3820.97
       656.30000  8.23391e-11      3804.06
       656.40000  8.23391e-11      3791.71
       656.50000  3.65393e-11      1678.25
       656.60000  3.65393e-11      1674.96
       656.70000  3.65393e-11      1672.40
       656.80000  3.65393e-11      1670.94
       656.90000  3.65393e-11      1670.21
       657.00000  3.65393e-11      1670.57
       657.10000  3.65393e-11      1684.83
       657.20000  3.65393e-11      1698.71
       657.30000  3.65393e-11      1712.23
       657.40000  3.65393e-11      1725.38
       657.50000  2.71211e-11      1289.88
       657.60000  2.71211e-11      1299.10
       657.70000  2.71211e-11      1307.78
       657.80000  2.71211e-11      1316.19
       657.90000  2.71211e-11      1324.05
       658.00000  2.71211e-11      1331.92
       658.10000  2.71211e-11      1339.51
       658.20000  2.71211e-11      1346.56
       658.30000  2.71211e-11      1353.34
       658.40000  2.71211e-11      1359.85
       658.50000  2.99741e-11      1509.49
       658.60000  2.99741e-11      1516.09
       658.70000  2.99741e-11      1522.08
       658.80000  2.99429e-11      1526.49
       658.90000  2.99429e-11      1531.88
       659.00000  2.99429e-11      1536.67
       659.10000  2.99429e-11      1541.46
       659.20000  2.99429e-11      1545.95
       659.30000  2.99429e-11      1549.85
       659.40000  2.99429e-11      1553.44
       659.50000  1.66996e-11      868.215
       659.60000  1.66996e-11      869.885
       659.70000  1.66996e-11      871.221
       659.80000  1.66996e-11      872.557
       659.90000  1.66996e-11      873.559
       660.00000  1.66996e-11      874.394
       660.10000  1.66996e-11      875.062
       660.20000  1.66996e-11      875.396
       660.30000  1.66996e-11      875.730
       660.40000  1.66996e-11      875.730
       660.50000  1.84876e-11      969.306
       660.60000  1.84876e-11      968.937
       660.70000  1.84876e-11      968.382
       660.80000  1.84876e-11      967.458
       660.90000  1.84876e-11      966.533
       661.00000  1.84876e-11      965.239
       661.10000  1.84876e-11      964.685
       661.20000  1.84876e-11      963.945
       661.30000  1.84417e-11      960.998
       661.40000  1.84417e-11      960.445
       661.50000  1.62197e-11      844.233
       661.60000  1.62197e-11      843.909
       661.70000  1.62197e-11      843.422
       661.80000  1.62197e-11      843.098
       661.90000  1.62197e-11      842.773
       662.00000  1.62197e-11      842.449
       662.10000  1.62197e-11      842.124
       662.20000  1.62197e-11      841.800
       662.30000  1.62197e-11      841.638
       662.40000  1.62197e-11      841.476
       662.50000  7.22301e-12      374.585
       662.60000  7.22301e-12      374.585
       662.70000  7.22301e-12      374.513
       662.80000  7.22301e-12      374.441
       662.90000  7.22301e-12      374.441
       663.00000  7.22301e-12      374.441
       663.10000  7.22301e-12      374.730
       663.20000  7.22301e-12      374.947
       663.30000  7.22301e-12      375.235
       663.40000  7.22301e-12      375.452
       663.50000  5.74592e-12      298.845
       663.60000  5.74592e-12      299.018
       663.70000  5.74592e-12      299.133
       663.80000  5.73367e-12      298.667
       663.90000  5.73367e-12      298.781
       664.00000  5.73367e-12      298.839
       664.10000  5.73367e-12      298.953
       664.20000  5.73367e-12      299.011
       664.30000  5.73367e-12      299.068
       664.40000  5.73367e-12      299.125
       664.50000  6.15011e-12      320.851
       664.60000  6.15011e-12      320.851
       664.70000  6.15011e-12      320.851
       664.80000  6.15011e-12      320.851
       664.90000  6.15011e-12      320.851
       665.00000  6.15011e-12      320.790
       665.10000  6.15011e-12      320.728
       665.20000  6.15011e-12      320.667
       665.30000  6.15011e-12      320.544
       665.40000  6.15011e-12      320.421
       665.50000  4.26137e-12      221.932
       665.60000  4.26137e-12      221.847
       665.70000  4.26137e-12      221.719
       665.80000  4.26137e-12      221.634
       665.90000  4.26137e-12      221.506
       666.00000  4.26137e-12      221.336
       666.10000  4.26137e-12      221.208
       666.20000  4.26137e-12      221.037
       666.30000  4.25067e-12      220.312
       666.40000  4.25067e-12      220.142
       666.50000  3.78810e-12      195.996
       666.60000  3.78810e-12      195.807
       666.70000  3.78810e-12      195.618
       666.80000  3.78810e-12      195.428
       666.90000  3.78810e-12      195.239
       667.00000  3.78810e-12      195.011
       667.10000  3.78810e-12      195.239
       667.20000  3.78810e-12      195.428
       667.30000  3.78810e-12      195.618
       667.40000  3.78810e-12      195.807
       667.50000  3.33580e-12      172.594
       667.60000  3.33580e-12      172.728
       667.70000  3.33580e-12      172.861
       667.80000  3.33580e-12      172.961
       667.90000  3.33580e-12      173.061
       668.00000  3.33580e-12      173.161
       668.10000  3.33580e-12      173.262
       668.20000  3.33580e-12      173.328
       668.30000  3.33580e-12      173.395
       668.40000  3.33580e-12      173.428
       668.50000  6.72418e-12      349.657
       668.60000  6.72418e-12      349.725
       668.70000  6.72418e-12      349.725
       668.80000  6.71318e-12      349.153
       668.90000  6.71318e-12      349.153
       669.00000  6.71318e-12      349.086
       669.10000  6.71318e-12      348.616
       669.20000  6.71318e-12      348.146
       669.30000  6.71318e-12      347.743
       669.40000  6.71318e-12      347.340
       669.50000  3.06086e-12      158.185
       669.60000  3.06086e-12      158.002
       669.70000  3.06086e-12      157.849
       669.80000  3.06086e-12      157.696
       669.90000  3.06086e-12      157.543
       670.00000  3.06086e-12      157.420
       670.10000  3.06086e-12      157.298
       670.20000  3.06086e-12      157.175
       670.30000  3.06086e-12      157.053
       670.40000  3.06086e-12      156.961
       670.50000  1.44170e-12      73.8873
       670.60000  1.44170e-12      73.8440
       670.70000  1.44170e-12      73.8152
       670.80000  1.44170e-12      73.7864
       670.90000  1.44170e-12      73.7575
       671.00000  1.44170e-12      73.7431
       671.10000  1.44170e-12      73.7143
       671.20000  1.44170e-12      73.7143
       671.30000  1.44176e-12      73.7027
       671.40000  1.44176e-12      73.7027
       671.50000  1.44510e-12      73.8735
       671.60000  1.44510e-12      73.8735
       671.70000  1.44510e-12      73.8735
       671.80000  1.44510e-12      73.8879
       671.90000  1.44510e-12      73.9024
       672.00000  1.44510e-12      73.9313
       672.10000  1.44510e-12      73.9602
       672.20000  1.44510e-12      73.9891
       672.30000  1.44510e-12      74.0180
       672.40000  1.44510e-12      74.0613
       672.50000  1.53455e-12      78.6919
       672.60000  1.53455e-12      78.7380
       672.70000  1.53455e-12      78.7840
       672.80000  1.53455e-12      78.8454
       672.90000  1.53455e-12      78.9068
       673.00000  1.53455e-12      78.9835
       673.10000  1.53455e-12      78.9528
       673.20000  1.53455e-12      78.9221
       673.30000  1.53455e-12      78.8914
       673.40000  1.53455e-12      78.8761
       673.50000  1.49556e-12      76.8419
       673.60000  1.49556e-12      76.8269
       673.70000  1.49556e-12      76.8120
       673.80000  1.49616e-12      76.8127
       673.90000  1.49616e-12      76.7978
       674.00000  1.49616e-12      76.7828
       674.10000  1.49616e-12      76.7679
       674.20000  1.49616e-12      76.7529
       674.30000  1.49616e-12      76.7379
       674.40000  1.49616e-12      76.7230
       674.50000  1.23893e-12      63.5199
       674.60000  1.23893e-12      63.5199
       674.70000  1.23893e-12      63.5075
       674.80000  1.23893e-12      63.5075
       674.90000  1.23893e-12      63.4951
       675.00000  1.23893e-12      63.4951
       675.10000  1.23893e-12      63.5075
       675.20000  1.23893e-12      63.5199
       675.30000  1.23893e-12      63.5323
       675.40000  1.23893e-12      63.5447
       675.50000  1.81909e-12      93.3011
       675.60000  1.81909e-12      93.3193
       675.70000  1.81909e-12      93.3375
       675.80000  1.81909e-12      93.3375
       675.90000  1.81909e-12      93.3557
       676.00000  1.81909e-12      93.3557
       676.10000  1.81909e-12      93.3739
       676.20000  1.81909e-12      93.3739
       676.30000  1.81723e-12      93.2787
       676.40000  1.81723e-12      93.2787
       676.50000  2.60312e-12      133.644
       676.60000  2.60312e-12      133.644
       676.70000  2.60312e-12      133.644
       676.80000  2.60312e-12      133.618
       676.90000  2.60312e-12      133.618
       677.00000  2.60312e-12      133.618
       677.10000  2.60312e-12      133.618
       677.20000  2.60312e-12      133.592
       677.30000  2.60312e-12      133.592
       677.40000  2.60312e-12      133.566
       677.50000  6.92964e-13      35.5560
       677.60000  6.92964e-13      35.5490
       677.70000  6.92964e-13      35.5490
       677.80000  6.92964e-13      35.5421
       677.90000  6.92964e-13      35.5352
       678.00000  6.92964e-13      35.5283
       678.10000  6.92964e-13      35.5213
       678.20000  6.92964e-13      35.5144
       678.30000  6.92964e-13      35.5075
       678.40000  6.92964e-13      35.5005
       678.50000  1.67732e-13      8.58958
       678.60000  1.67732e-13      8.58790
       678.70000  1.67732e-13      8.58623
       678.80000  1.67720e-13      8.58222
       678.90000  1.67720e-13      8.58055
       679.00000  1.67720e-13      8.57719
       679.10000  1.67720e-13      8.57719
       679.20000  1.67720e-13      8.57887
       679.30000  1.67720e-13      8.57887
       679.40000  1.67720e-13      8.57887
       679.50000  1.32385e-12      67.7148
       679.60000  1.32385e-12      67.7148
       679.70000  1.32385e-12      67.7148
       679.80000  1.32385e-12      67.7148
       679.90000  1.32385e-12      67.7148
       680.00000  1.32385e-12      67.7016
       680.10000  1.32385e-12      67.7016
       680.20000  1.32385e-12      67.7016
       680.30000  1.32385e-12      67.6884
       680.40000  1.32385e-12      67.6884
       680.50000  1.55682e-12      79.5847
       680.60000  1.55682e-12      79.5847
       680.70000  1.55682e-12      79.5691
       680.80000  1.55682e-12      79.5536
       680.90000  1.55682e-12      79.5380
       681.00000  1.55682e-12      79.5380
       681.10000  1.55682e-12      79.5224
       681.20000  1.55682e-12      79.5069
       681.30000  1.55667e-12      79.4994
       681.40000  1.55667e-12      79.4838
       681.50000  6.97107e-13      35.5873
       681.60000  6.97107e-13      35.5803
       681.70000  6.97107e-13      35.5733
       681.80000  6.97107e-13      35.5594
       681.90000  6.97107e-13      35.5524
       682.00000  6.97107e-13      35.5455
       682.10000  6.97107e-13      35.5315
       682.20000  6.97107e-13      35.5176
       682.30000  6.97107e-13      35.5106
       682.40000  6.97107e-13      35.4967
       682.50000  1.31431e-12      66.8982
       682.60000  1.31431e-12      66.8720
       682.70000  1.31431e-12      66.8457
       682.80000  1.31431e-12      66.8194
       682.90000  1.31431e-12      66.7800
       683.00000  1.31431e-12      66.7537
       683.10000  1.31431e-12      66.7274
       683.20000  1.31431e-12      66.6880
       683.30000  1.31431e-12      66.6485
       683.40000  1.31431e-12      66.6091
       683.50000  1.44006e-12      72.9535
       683.60000  1.44006e-12      72.9103
       683.70000  1.44006e-12      72.8671
       683.80000  1.43896e-12      72.7537
       683.90000  1.43896e-12      72.7105
       684.00000  1.43896e-12      72.6673
       684.10000  1.43896e-12      72.6098
       684.20000  1.43896e-12      72.5666
       684.30000  1.43896e-12      72.5091
       684.40000  1.43896e-12      72.4659
       684.50000  5.93458e-13      29.8628
       684.60000  5.93458e-13      29.8391
       684.70000  5.93458e-13      29.8153
       684.80000  5.93458e-13      29.7916
       684.90000  5.93458e-13      29.7619
       685.00000  5.93458e-13      29.7382
       685.10000  5.93458e-13      29.7619
       685.20000  5.93458e-13      29.7916
       685.30000  5.93458e-13      29.8153
       685.40000  5.93458e-13      29.8331
       685.50000  4.87452e-13      24.5237
       685.60000  4.87452e-13      24.5432
       685.70000  4.87452e-13      24.5578
       685.80000  4.87452e-13      24.5725
       685.90000  4.87452e-13      24.5871
       686.00000  4.87452e-13      24.6017
       686.10000  4.87452e-13      24.6163
       686.20000  4.87452e-13      24.6261
       686.30000  4.86940e-13      24.6148
       686.40000  4.86940e-13      24.6246
       686.50000  5.04501e-13      25.5227
       686.60000  5.04501e-13      25.5328
       686.70000  5.04501e-13      25.5429
       686.80000  5.04501e-13      25.5480
       686.90000  5.04501e-13      25.5580
       687.00000  5.04501e-13      25.5631
       687.10000  5.04501e-13      25.5681
       687.20000  5.04501e-13      25.5681
       687.30000  5.04501e-13      25.5681
       687.40000  5.04501e-13      25.5681
       687.50000  9.65062e-13      48.9093
       687.60000  9.65062e-13      48.9093
       687.70000  9.65062e-13      48.9093
       687.80000  9.65062e-13      48.9093
       687.90000  9.65062e-13      48.9093
       688.00000  9.65062e-13      48.8997
       688.10000  9.65062e-13      48.8997
       688.20000  9.65062e-13      48.8997
       688.30000  9.65062e-13      48.8900
       688.40000  9.65062e-13      48.8900
       688.50000  7.14432e-13      36.1860
       688.60000  7.14432e-13      36.1789
       688.70000  7.14432e-13      36.1789
       688.80000  7.13521e-13      36.1256
       688.90000  7.13521e-13      36.1184
       689.00000  7.13521e-13      36.1113
       689.10000  7.13521e-13      36.1042
       689.20000  7.13521e-13      36.0970
       689.30000  7.13521e-13      36.0899
       689.40000  7.13521e-13      36.0828
       689.50000  4.53546e-13      22.9313
       689.60000  4.53546e-13      22.9268
       689.70000  4.53546e-13      22.9177
       689.80000  4.53546e-13      22.9132
       689.90000  4.53546e-13      22.9086
       690.00000  4.53546e-13      22.8995
       690.10000  4.53546e-13      22.8905
       690.20000  4.53546e-13      22.8859
       690.30000  4.53546e-13      22.8769
       690.40000  4.53546e-13      22.8678
       690.50000  1.09592e-12      55.2452
       690.60000  1.09592e-12      55.2233
       690.70000  1.09592e-12      55.2014
       690.80000  1.09592e-12      55.1795
       690.90000  1.09592e-12      55.1575
       691.00000  1.09592e-12      55.1356
       691.10000  1.09592e-12      55.1575
       691.20000  1.09592e-12      55.1685
       691.30000  1.09487e-12      55.1377
       691.40000  1.09487e-12      55.1487
       691.50000  1.84418e-13      9.29097
       691.60000  1.84418e-13      9.29465
       691.70000  1.84418e-13      9.29650
       691.80000  1.84418e-13      9.29834
       691.90000  1.84418e-13      9.30019
       692.00000  1.84418e-13      9.30019
       692.10000  1.84418e-13      9.30203
       692.20000  1.84418e-13      9.30388
       692.30000  1.84418e-13      9.30388
       692.40000  1.84418e-13      9.30388
       692.50000  5.16508e-13      26.0630
       692.60000  5.16508e-13      26.0630
       692.70000  5.16508e-13      26.0630
       692.80000  5.16508e-13      26.0630
       692.90000  5.16508e-13      26.0630
       693.00000  5.16508e-13      26.0578
       693.10000  5.16508e-13      26.0578
       693.20000  5.16508e-13      26.0526
       693.30000  5.16508e-13      26.0475
       693.40000  5.16508e-13      26.0423
       693.50000  4.17369e-13      21.0396
       693.60000  4.17369e-13      21.0354
       693.70000  4.17369e-13      21.0312
       693.80000  4.15713e-13      20.9436
       693.90000  4.15713e-13      20.9353
       694.00000  4.15713e-13      20.9312
       694.10000  4.15713e-13      20.9270
       694.20000  4.15713e-13      20.9187
       694.30000  4.15713e-13      20.9145
       694.40000  4.15713e-13      20.9062
       694.50000  1.10002e-13      5.52981
       694.60000  1.10002e-13      5.52871
       694.70000  1.10002e-13      5.52651
       694.80000  1.10002e-13      5.52431
       694.90000  1.10002e-13      5.52211
       695.00000  1.10002e-13      5.51991
       695.10000  1.10002e-13      5.51771
       695.20000  1.10002e-13      5.51551
       695.30000  1.10002e-13      5.51221
       695.40000  1.10002e-13      5.51001
       695.50000  2.27931e-13      11.4125
       695.60000  2.27931e-13      11.4057
       695.70000  2.27931e-13      11.4011
       695.80000  2.27931e-13      11.3943
       695.90000  2.27931e-13      11.3875
       696.00000  2.27931e-13      11.3829
       696.10000  2.27931e-13      11.3761
       696.20000  2.27931e-13      11.3692
       696.30000  2.27708e-13      11.3512
       696.40000  2.27708e-13      11.3444
       696.50000  3.99182e-13      19.8753
       696.60000  3.99182e-13      19.8633
       696.70000  3.99182e-13      19.8473
       696.80000  3.99182e-13      19.8354
       696.90000  3.99182e-13      19.8234
       697.00000  3.99182e-13      19.8074
       697.10000  3.99182e-13      19.8354
       697.20000  3.99182e-13      19.8553
       697.30000  3.99182e-13      19.8793
       697.40000  3.99182e-13      19.8992
       697.50000  5.09079e-13      25.4030
       697.60000  5.09079e-13      25.4234
       697.70000  5.09079e-13      25.4438
       697.80000  5.09079e-13      25.4590
       697.90000  5.09079e-13      25.4743
       698.00000  5.09079e-13      25.4845
       698.10000  5.09079e-13      25.4947
       698.20000  5.09079e-13      25.5049
       698.30000  5.09079e-13      25.5099
       698.40000  5.09079e-13      25.5150
       698.50000  6.21792e-13      31.1704
       698.60000  6.21792e-13      31.1704
       698.70000  6.21792e-13      31.1642
       698.80000  6.20731e-13      31.1048
       698.90000  6.20731e-13      31.0986
       699.00000  6.20731e-13      31.0862
       699.10000  6.20731e-13      31.0303
       699.20000  6.20731e-13      30.9683
       699.30000  6.20731e-13      30.9186
       699.40000  6.20731e-13      30.8627
       699.50000  6.77444e-13      33.6283
       699.60000  6.77444e-13      33.5741
       699.70000  6.77444e-13      33.5267
       699.80000  6.77444e-13      33.4793
       699.90000  6.77444e-13      33.4319
       700.00000  6.77444e-13      33.3912
       700.10000  6.77444e-13      33.3506
       700.20000  6.77444e-13      33.3099
       700.30000  6.77444e-13      33.2761
       700.40000  6.77444e-13      33.2422
       700.50000  2.74060e-13      13.4344
       700.60000  2.74060e-13      13.4235
       700.70000  2.74060e-13      13.4125
       700.80000  2.74060e-13      13.4043
       700.90000  2.74060e-13      13.3960
       701.00000  2.74060e-13      13.3878
       701.10000  2.74060e-13      13.3851
       701.20000  2.74060e-13      13.3823
       701.30000  2.73873e-13      13.3705
       701.40000  2.73873e-13      13.3705
       701.50000  3.23275e-13      15.7823
       701.60000  3.23275e-13      15.7823
       701.70000  3.23275e-13      15.7823
       701.80000  3.23275e-13      15.7855
       701.90000  3.23275e-13      15.7855
       702.00000  3.23275e-13      15.7888
       702.10000  3.23275e-13      15.7952
       702.20000  3.23275e-13      15.7985
       702.30000  3.23275e-13      15.8049
       702.40000  3.23275e-13      15.8082
       702.50000  1.41221e-13      6.90854
       702.60000  1.41221e-13      6.91278
       702.70000  1.41221e-13      6.91560
       702.80000  1.41221e-13      6.91984
       702.90000  1.41221e-13      6.92408
       703.00000  1.41221e-13      6.92831
       703.10000  1.41221e-13      6.94102
       703.20000  1.41221e-13      6.95373
       703.30000  1.41221e-13      6.96503
       703.40000  1.41221e-13      6.97633
       703.50000  1.44320e-13      7.13950
       703.60000  1.44320e-13      7.15104
       703.70000  1.44320e-13      7.15970
       703.80000  1.43931e-13      7.15051
       703.90000  1.43931e-13      7.15914
       704.00000  1.43931e-13      7.16634
       704.10000  1.43931e-13      7.17498
       704.20000  1.43931e-13      7.18217
       704.30000  1.43931e-13      7.18793
       704.40000  1.43931e-13      7.19369
       704.50000  4.48657e-13      22.4418
       704.60000  4.48657e-13      22.4598
       704.70000  4.48657e-13      22.4732
       704.80000  4.48657e-13      22.4822
       704.90000  4.48657e-13      22.4957
       705.00000  4.48657e-13      22.5046
       705.10000  4.48657e-13      22.5091
       705.20000  4.48657e-13      22.5136
       705.30000  4.48657e-13      22.5181
       705.40000  4.48657e-13      22.5226
       705.50000  3.60717e-13      18.1080
       705.60000  3.60717e-13      18.1080
       705.70000  3.60717e-13      18.1044
       705.80000  3.60717e-13      18.1008
       705.90000  3.60717e-13      18.0972
       706.00000  3.60717e-13      18.0900
       706.10000  3.60717e-13      18.0828
       706.20000  3.60717e-13      18.0719
       706.30000  3.60988e-13      18.0747
       706.40000  3.60988e-13      18.0639
       706.50000  1.33160e-13      6.65802
       706.60000  1.33160e-13      6.65269
       706.70000  1.33160e-13      6.64737
       706.80000  1.33160e-13      6.64071
       706.90000  1.33160e-13      6.63405
       707.00000  1.33160e-13      6.62739
       707.10000  1.33160e-13      6.62207
       707.20000  1.33160e-13      6.61807
       707.30000  1.33160e-13      6.61275
       707.40000  1.33160e-13      6.60875
       707.50000  5.00869e-13      24.8431
       707.60000  5.00869e-13      24.8281
       707.70000  5.00869e-13      24.8180
       707.80000  5.00869e-13      24.8030
       707.90000  5.00869e-13      24.7930
       708.00000  5.00869e-13      24.7830
       708.10000  5.00869e-13      24.7730
       708.20000  5.00869e-13      24.7629
       708.30000  5.00869e-13      24.7529
       708.40000  5.00869e-13      24.7429
       708.50000  3.12852e-13      15.4518
       708.60000  3.12852e-13      15.4455
       708.70000  3.12852e-13      15.4424
       708.80000  3.11787e-13      15.3867
       708.90000  3.11787e-13      15.3836
       709.00000  3.11787e-13      15.3836
       709.10000  3.11787e-13      15.3898
       709.20000  3.11787e-13      15.3960
       709.30000  3.11787e-13      15.3992
       709.40000  3.11787e-13      15.4054
       709.50000  3.87769e-13      19.1635
       709.60000  3.87769e-13      19.1713
       709.70000  3.87769e-13      19.1752
       709.80000  3.87769e-13      19.1790
       709.90000  3.87769e-13      19.1829
       710.00000  3.87769e-13      19.1868
       710.10000  3.87769e-13      19.1907
       710.20000  3.87769e-13      19.1946
       710.30000  3.87769e-13      19.1946
       710.40000  3.87769e-13      19.1984
       710.50000  6.28946e-13      31.1391
       710.60000  6.28946e-13      31.1391
       710.70000  6.28946e-13      31.1391
       710.80000  6.28946e-13      31.1391
       710.90000  6.28946e-13      31.1391
       711.00000  6.28946e-13      31.1391
       711.10000  6.28946e-13      31.1391
       711.20000  6.28946e-13      31.1328
       711.30000  6.29082e-13      31.1395
       711.40000  6.29082e-13      31.1332
       711.50000  3.77650e-13      18.6861
       711.60000  3.77650e-13      18.6823
       711.70000  3.77650e-13      18.6786
       711.80000  3.77650e-13      18.6748
       711.90000  3.77650e-13      18.6710
       712.00000  3.77650e-13      18.6635
       712.10000  3.77650e-13      18.6597
       712.20000  3.77650e-13      18.6521
       712.30000  3.77650e-13      18.6483
       712.40000  3.77650e-13      18.6408
       712.50000  4.57043e-13      22.5505
       712.60000  4.57043e-13      22.5414
       712.70000  4.57043e-13      22.5276
       712.80000  4.57043e-13      22.5185
       712.90000  4.57043e-13      22.5094
       713.00000  4.57043e-13      22.4956
       713.10000  4.57043e-13      22.4956
       713.20000  4.57043e-13      22.4956
       713.30000  4.57043e-13      22.4956
       713.40000  4.57043e-13      22.4911
       713.50000  5.54530e-13      27.2884
       713.60000  5.54530e-13      27.2884
       713.70000  5.54530e-13      27.2829
       713.80000  5.54401e-13      27.2765
       713.90000  5.54401e-13      27.2710
       714.00000  5.54401e-13      27.2710
       714.10000  5.54401e-13      27.2654
       714.20000  5.54401e-13      27.2599
       714.30000  5.54401e-13      27.2599
       714.40000  5.54401e-13      27.2543
       714.50000  2.91559e-13      14.3301
       714.60000  2.91559e-13      14.3272
       714.70000  2.91559e-13      14.3272
       714.80000  2.91559e-13      14.3243
       714.90000  2.91559e-13      14.3214
       715.00000  2.91559e-13      14.3185
       715.10000  2.91559e-13      14.3155
       715.20000  2.91559e-13      14.3155
       715.30000  2.91559e-13      14.3155
       715.40000  2.91559e-13      14.3126
       715.50000  5.02447e-13      24.6601
       715.60000  5.02447e-13      24.6551
       715.70000  5.02447e-13      24.6500
       715.80000  5.02447e-13      24.6450
       715.90000  5.02447e-13      24.6400
       716.00000  5.02447e-13      24.6299
       716.10000  5.02447e-13      24.6249
       716.20000  5.02447e-13      24.6149
       716.30000  5.01722e-13      24.5693
       716.40000  5.01722e-13      24.5593
       716.50000  1.37031e-13      6.70494
       716.60000  1.37031e-13      6.70220
       716.70000  1.37031e-13      6.69945
       716.80000  1.37031e-13      6.69534
       716.90000  1.37031e-13      6.69260
       717.00000  1.37031e-13      6.68849
       717.10000  1.37031e-13      6.68438
       717.20000  1.37031e-13      6.68027
       717.30000  1.37031e-13      6.67616
       717.40000  1.37031e-13      6.67205
       717.50000  1.82798e-13      8.89497
       717.60000  1.82798e-13      8.88766
       717.70000  1.82798e-13      8.88218
       717.80000  1.82798e-13      8.87487
       717.90000  1.82798e-13      8.86755
       718.00000  1.82798e-13      8.86024
       718.10000  1.82798e-13      8.85293
       718.20000  1.82798e-13      8.84562
       718.30000  1.82798e-13      8.83831
       718.40000  1.82798e-13      8.82917
       718.50000  6.30892e-13      30.4469
       718.60000  6.30892e-13      30.4153
       718.70000  6.30892e-13      30.3838
       718.80000  6.28301e-13      30.2276
       718.90000  6.28301e-13      30.1961
       719.00000  6.28301e-13      30.1647
       719.10000  6.28301e-13      30.1647
       719.20000  6.28301e-13      30.1647
       719.30000  6.28301e-13      30.1647
       719.40000  6.28301e-13      30.1710
       719.50000  2.16598e-13      10.4010
       719.60000  2.16598e-13      10.4032
       719.70000  2.16598e-13      10.4032
       719.80000  2.16598e-13      10.4053
       719.90000  2.16598e-13      10.4075
       720.00000  2.16598e-13      10.4118
       720.10000  2.16598e-13      10.4140
       720.20000  2.16598e-13      10.4162
       720.30000  2.16598e-13      10.4205
       720.40000  2.16598e-13      10.4227
       720.50000  6.31404e-13      30.3958
       720.60000  6.31404e-13      30.4084
       720.70000  6.31404e-13      30.4210
       720.80000  6.31404e-13      30.4337
       720.90000  6.31404e-13      30.4526
       721.00000  6.31404e-13      30.4652
       721.10000  6.31404e-13      30.4968
       721.20000  6.31404e-13      30.5284
       721.30000  6.30119e-13      30.4977
       721.40000  6.30119e-13      30.5229
       721.50000  1.02718e-12      49.8081
       721.60000  1.02718e-12      49.8492
       721.70000  1.02718e-12      49.8903
       721.80000  1.02718e-12      49.9417
       721.90000  1.02718e-12      49.9827
       722.00000  1.02718e-12      50.0136
       722.10000  1.02718e-12      50.0546
       722.20000  1.02718e-12      50.0957
       722.30000  1.02718e-12      50.1266
       722.40000  1.02718e-12      50.1574
       722.50000  1.50340e-12      73.4561
       722.60000  1.50340e-12      73.5163
       722.70000  1.50340e-12      73.5463
       722.80000  1.50340e-12      73.5914
       722.90000  1.50340e-12      73.6365
       723.00000  1.50340e-12      73.6666
       723.10000  1.50340e-12      73.7117
       723.20000  1.50340e-12      73.7418
       723.30000  1.50340e-12      73.7718
       723.40000  1.50340e-12      73.8019
       723.50000  6.60445e-13      32.4344
       723.60000  6.60445e-13      32.4411
       723.70000  6.60445e-13      32.4543
       723.80000  6.58418e-13      32.3613
       723.90000  6.58418e-13      32.3678
       724.00000  6.58418e-13      32.3744
       724.10000  6.58418e-13      32.3810
       724.20000  6.58418e-13      32.3876
       724.30000  6.58418e-13      32.3942
       724.40000  6.58418e-13      32.4008
       724.50000  1.65024e-12      81.2085
       724.60000  1.65024e-12      81.2085
       724.70000  1.65024e-12      81.2085
       724.80000  1.65024e-12      81.2085
       724.90000  1.65024e-12      81.2085
       725.00000  1.65024e-12      81.2085
       725.10000  1.65024e-12      81.2415
       725.20000  1.65024e-12      81.2745
       725.30000  1.65024e-12      81.2910
       725.40000  1.65024e-12      81.3240
       725.50000  2.25038e-12      110.921
       725.60000  2.25038e-12      110.944
       725.70000  2.25038e-12      110.944
       725.80000  2.25038e-12      110.966
       725.90000  2.25038e-12      110.966
       726.00000  2.25038e-12      110.966
       726.10000  2.25038e-12      110.966
       726.20000  2.25038e-12      110.966
       726.30000  2.24452e-12      110.655
       726.40000  2.24452e-12      110.633
       726.50000  2.26726e-12      111.731
       726.60000  2.26726e-12      111.708
       726.70000  2.26726e-12      111.685
       726.80000  2.26726e-12      111.640
       726.90000  2.26726e-12      111.595
       727.00000  2.26726e-12      111.549
       727.10000  2.26726e-12      111.391
       727.20000  2.26726e-12      111.232
       727.30000  2.26726e-12      111.073
       727.40000  2.26726e-12      110.937
       727.50000  2.16549e-12      105.828
       727.60000  2.16549e-12      105.698
       727.70000  2.16549e-12      105.589
       727.80000  2.16549e-12      105.481
       727.90000  2.16549e-12      105.373
       728.00000  2.16549e-12      105.286
       728.10000  2.16549e-12      105.200
       728.20000  2.16549e-12      105.113
       728.30000  2.16549e-12      105.026
       728.40000  2.16549e-12      104.961
       728.50000  3.53131e-12      171.057
       728.60000  3.53131e-12      170.986
       728.70000  3.53131e-12      170.880
       728.80000  3.53206e-12      170.881
       728.90000  3.53206e-12      170.810
       729.00000  3.53206e-12      170.775
       729.10000  3.53206e-12      170.740
       729.20000  3.53206e-12      170.704
       729.30000  3.53206e-12      170.704
       729.40000  3.53206e-12      170.669
       729.50000  3.95372e-13      19.1083
       729.60000  3.95372e-13      19.1083
       729.70000  3.95372e-13      19.1123
       729.80000  3.95372e-13      19.1162
       729.90000  3.95372e-13      19.1242
       730.00000  3.95372e-13      19.1321
       730.10000  3.95372e-13      19.1400
       730.20000  3.95372e-13      19.1479
       730.30000  3.95372e-13      19.1597
       730.40000  3.95372e-13      19.1716
       730.50000  1.53257e-12      74.3602
       730.60000  1.53257e-12      74.4215
       730.70000  1.53257e-12      74.4828
       730.80000  1.53257e-12      74.5441
       730.90000  1.53257e-12      74.6208
       731.00000  1.53257e-12      74.6974
       731.10000  1.53257e-12      74.6821
       731.20000  1.53257e-12      74.6667
       731.30000  1.53144e-12      74.5965
       731.40000  1.53144e-12      74.5965
       731.50000  1.51555e-12      73.8074
       731.60000  1.51555e-12      73.7922
       731.70000  1.51555e-12      73.7771
       731.80000  1.51555e-12      73.7771
       731.90000  1.51555e-12      73.7619
       732.00000  1.51555e-12      73.7467
       732.10000  1.51555e-12      73.7316
       732.20000  1.51555e-12      73.7164
       732.30000  1.51555e-12      73.7164
       732.40000  1.51555e-12      73.7013
       732.50000  1.71269e-12      83.2709
       732.60000  1.71269e-12      83.2538
       732.70000  1.71269e-12      83.2367
       732.80000  1.71269e-12      83.2196
       732.90000  1.71269e-12      83.2024
       733.00000  1.71269e-12      83.1853
       733.10000  1.71269e-12      83.1682
       733.20000  1.71269e-12      83.1339
       733.30000  1.71269e-12      83.1168
       733.40000  1.71269e-12      83.0825
       733.50000  1.39218e-12      67.5206
       733.60000  1.39218e-12      67.5067
       733.70000  1.39218e-12      67.4789
       733.80000  1.38988e-12      67.3535
       733.90000  1.38988e-12      67.3396
       734.00000  1.38988e-12      67.3257
       734.10000  1.38988e-12      67.3118
       734.20000  1.38988e-12      67.2979
       734.30000  1.38988e-12      67.2840
       734.40000  1.38988e-12      67.2840
       734.50000  2.24136e-12      108.482
       734.60000  2.24136e-12      108.460
       734.70000  2.24136e-12      108.460
       734.80000  2.24136e-12      108.437
       734.90000  2.24136e-12      108.437
       735.00000  2.24136e-12      108.415
       735.10000  2.24136e-12      108.415
       735.20000  2.24136e-12      108.415
       735.30000  2.24136e-12      108.415
       735.40000  2.24136e-12      108.392
       735.50000  1.14033e-12      55.1462
       735.60000  1.14033e-12      55.1462
       735.70000  1.14033e-12      55.1462
       735.80000  1.14033e-12      55.1576
       735.90000  1.14033e-12      55.1576
       736.00000  1.14033e-12      55.1576
       736.10000  1.14033e-12      55.1576
       736.20000  1.14033e-12      55.1690
       736.30000  1.13815e-12      55.0637
       736.40000  1.13815e-12      55.0751
       736.50000  2.06729e-12      100.036
       736.60000  2.06729e-12      100.057
       736.70000  2.06729e-12      100.077
       736.80000  2.06729e-12      100.077
       736.90000  2.06729e-12      100.098
       737.00000  2.06729e-12      100.119
       737.10000  2.06729e-12      100.015
       737.20000  2.06729e-12      99.8912
       737.30000  2.06729e-12      99.7879
       737.40000  2.06729e-12      99.6845
       737.50000  2.85300e-12      137.400
       737.60000  2.85300e-12      137.258
       737.70000  2.85300e-12      137.115
       737.80000  2.85300e-12      136.972
       737.90000  2.85300e-12      136.858
       738.00000  2.85300e-12      136.716
       738.10000  2.85300e-12      136.573
       738.20000  2.85300e-12      136.430
       738.30000  2.85300e-12      136.316
       738.40000  2.85300e-12      136.202
       738.50000  4.20469e-12      200.521
       738.60000  4.20469e-12      200.353
       738.70000  4.20469e-12      200.185
       738.80000  4.18702e-12      199.177
       738.90000  4.18702e-12      199.009
       739.00000  4.18702e-12      198.842
       739.10000  4.18702e-12      198.507
       739.20000  4.18702e-12      198.214
       739.30000  4.18702e-12      197.962
       739.40000  4.18702e-12      197.711
       739.50000  3.42976e-12      161.747
       739.60000  3.42976e-12      161.576
       739.70000  3.42976e-12      161.439
       739.80000  3.42976e-12      161.267
       739.90000  3.42976e-12      161.164
       740.00000  3.42976e-12      161.027
       740.10000  3.42976e-12      160.959
       740.20000  3.42976e-12      160.856
       740.30000  3.42976e-12      160.787
       740.40000  3.42976e-12      160.753
       740.50000  5.75037e-13      26.9462
       740.60000  5.75037e-13      26.9405
       740.70000  5.75037e-13      26.9405
       740.80000  5.75037e-13      26.9405
       740.90000  5.75037e-13      26.9462
       741.00000  5.75037e-13      26.9520
       741.10000  5.75037e-13      26.9635
       741.20000  5.75037e-13      26.9750
       741.30000  5.74646e-13      26.9681
       741.40000  5.74646e-13      26.9854
       741.50000  2.35568e-12      110.693
       741.60000  2.35568e-12      110.788
       741.70000  2.35568e-12      110.906
       741.80000  2.35568e-12      111.000
       741.90000  2.35568e-12      111.141
       742.00000  2.35568e-12      111.259
       742.10000  2.35568e-12      111.400
       742.20000  2.35568e-12      111.565
       742.30000  2.35568e-12      111.730
       742.40000  2.35568e-12      111.895
       742.50000  2.88015e-12      137.037
       742.60000  2.88015e-12      137.268
       742.70000  2.88015e-12      137.527
       742.80000  2.88015e-12      137.786
       742.90000  2.88015e-12      138.074
       743.00000  2.88015e-12      138.362
       743.10000  2.88015e-12      138.305
       743.20000  2.88015e-12      138.276
       743.30000  2.88015e-12      138.247
       743.40000  2.88015e-12      138.189
       743.50000  2.32842e-12      111.695
       743.60000  2.32842e-12      111.671
       743.70000  2.32842e-12      111.648
       743.80000  2.32738e-12      111.575
       743.90000  2.32738e-12      111.552
       744.00000  2.32738e-12      111.528
       744.10000  2.32738e-12      111.528
       744.20000  2.32738e-12      111.505
       744.30000  2.32738e-12      111.505
       744.40000  2.32738e-12      111.505
       744.50000  1.99816e-12      95.7120
       744.60000  1.99816e-12      95.7120
       744.70000  1.99816e-12      95.7120
       744.80000  1.99816e-12      95.7120
       744.90000  1.99816e-12      95.7320
       745.00000  1.99816e-12      95.7320
       745.10000  1.99816e-12      95.7920
       745.20000  1.99816e-12      95.8519
       745.30000  1.99816e-12      95.8919
       745.40000  1.99816e-12      95.9518
       745.50000  1.48979e-12      71.5696
       745.60000  1.48979e-12      71.5994
       745.70000  1.48979e-12      71.6292
       745.80000  1.48979e-12      71.6590
       745.90000  1.48979e-12      71.6739
       746.00000  1.48979e-12      71.7037
       746.10000  1.48979e-12      71.7186
       746.20000  1.48979e-12      71.7335
       746.30000  1.48300e-12      71.4212
       746.40000  1.48300e-12      71.4360
       746.50000  1.72531e-12      83.1255
       746.60000  1.72531e-12      83.1255
       746.70000  1.72531e-12      83.1427
       746.80000  1.72531e-12      83.1427
       746.90000  1.72531e-12      83.1427
       747.00000  1.72531e-12      83.1427
       747.10000  1.72531e-12      83.0910
       747.20000  1.72531e-12      83.0565
       747.30000  1.72531e-12      83.0220
       747.40000  1.72531e-12      82.9875
       747.50000  4.75277e-13      22.8513
       747.60000  4.75277e-13      22.8418
       747.70000  4.75277e-13      22.8323
       747.80000  4.75277e-13      22.8228
       747.90000  4.75277e-13      22.8133
       748.00000  4.75277e-13      22.8038
       748.10000  4.75277e-13      22.7990
       748.20000  4.75277e-13      22.7895
       748.30000  4.75277e-13      22.7800
       748.40000  4.75277e-13      22.7753
       748.50000  2.06428e-13      9.88792
       748.60000  2.06428e-13      9.88380
       748.70000  2.06428e-13      9.88173
       748.80000  2.05701e-13      9.84278
       748.90000  2.05701e-13      9.84072
       749.00000  2.05701e-13      9.83867
       749.10000  2.05701e-13      9.83455
       749.20000  2.05701e-13      9.83249
       749.30000  2.05701e-13      9.83044
       749.40000  2.05701e-13      9.82838
       749.50000  7.18187e-13      34.3078
       749.60000  7.18187e-13      34.3006
       749.70000  7.18187e-13      34.2862
       749.80000  7.18187e-13      34.2791
       749.90000  7.18187e-13      34.2791
       750.00000  7.18187e-13      34.2719
       750.10000  7.18187e-13      34.2647
       750.20000  7.18187e-13      34.2575
       750.30000  7.18187e-13      34.2503
       750.40000  7.18187e-13      34.2503
       750.50000  5.33371e-13      25.4311
       750.60000  5.33371e-13      25.4258
       750.70000  5.33371e-13      25.4258
       750.80000  5.33371e-13      25.4205
       750.90000  5.33371e-13      25.4205
       751.00000  5.33371e-13      25.4151
       751.10000  5.33371e-13      25.4151
       751.20000  5.33371e-13      25.4151
       751.30000  5.32177e-13      25.3529
       751.40000  5.32177e-13      25.3529
       751.50000  6.19313e-13      29.5041
       751.60000  6.19313e-13      29.5041
       751.70000  6.19313e-13      29.5041
       751.80000  6.19313e-13      29.5041
       751.90000  6.19313e-13      29.5041
       752.00000  6.19313e-13      29.5041
       752.10000  6.19313e-13      29.5041
       752.20000  6.19313e-13      29.5041
       752.30000  6.19313e-13      29.5041
       752.40000  6.19313e-13      29.5041
       752.50000  7.11745e-13      33.9146
       752.60000  7.11745e-13      33.9146
       752.70000  7.11745e-13      33.9146
       752.80000  7.11745e-13      33.9218
       752.90000  7.11745e-13      33.9218
       753.00000  7.11745e-13      33.9289
       753.10000  7.11745e-13      33.9289
       753.20000  7.11745e-13      33.9289
       753.30000  7.11745e-13      33.9289
       753.40000  7.11745e-13      33.9289
       753.50000  9.50806e-13      45.3249
       753.60000  9.50806e-13      45.3249
       753.70000  9.50806e-13      45.3249
       753.80000  9.50326e-13      45.3020
       753.90000  9.50326e-13      45.3020
       754.00000  9.50326e-13      45.3020
       754.10000  9.50326e-13      45.3020
       754.20000  9.50326e-13      45.2925
       754.30000  9.50326e-13      45.2925
       754.40000  9.50326e-13      45.2925
       754.50000  5.64313e-13      26.8951
       754.60000  5.64313e-13      26.8951
       754.70000  5.64313e-13      26.8895
       754.80000  5.64313e-13      26.8895
       754.90000  5.64313e-13      26.8839
       755.00000  5.64313e-13      26.8839
       755.10000  5.64313e-13      26.8782
       755.20000  5.64313e-13      26.8782
       755.30000  5.64313e-13      26.8726
       755.40000  5.64313e-13      26.8726
       755.50000  4.04943e-13      19.2794
       755.60000  4.04943e-13      19.2753
       755.70000  4.04943e-13      19.2753
       755.80000  4.04943e-13      19.2713
       755.90000  4.04943e-13      19.2672
       756.00000  4.04943e-13      19.2672
       756.10000  4.04943e-13      19.2632
       756.20000  4.04943e-13      19.2591
       756.30000  4.04298e-13      19.2244
       756.40000  4.04298e-13      19.2244
       756.50000  5.22796e-13      24.8537
       756.60000  5.22796e-13      24.8485
       756.70000  5.22796e-13      24.8433
       756.80000  5.22796e-13      24.8433
       756.90000  5.22796e-13      24.8380
       757.00000  5.22796e-13      24.8328
       757.10000  5.22796e-13      24.8276
       757.20000  5.22796e-13      24.8224
       757.30000  5.22796e-13      24.8224
       757.40000  5.22796e-13      24.8171
       757.50000  6.98175e-13      33.1354
       757.60000  6.98175e-13      33.1284
       757.70000  6.98175e-13      33.1214
       757.80000  6.98175e-13      33.1144
       757.90000  6.98175e-13      33.1075
       758.00000  6.98175e-13      33.1075
       758.10000  6.98175e-13      33.1005
       758.20000  6.98175e-13      33.0935
       758.30000  6.98175e-13      33.0865
       758.40000  6.98175e-13      33.0795
       758.50000  5.06484e-13      23.9921
       758.60000  5.06484e-13      23.9871
       758.70000  5.06484e-13      23.9820
       758.80000  5.05117e-13      23.9122
       758.90000  5.05117e-13      23.9072
       759.00000  5.05117e-13      23.9021
       759.10000  5.05117e-13      23.9021
       759.20000  5.05117e-13      23.8971
       759.30000  5.05117e-13      23.8971
       759.40000  5.05117e-13      23.8920
       759.50000  5.82399e-13      27.5475
       759.60000  5.82399e-13      27.5475
       759.70000  5.82399e-13      27.5416
       759.80000  5.82399e-13      27.5416
       759.90000  5.82399e-13      27.5416
       760.00000  5.82399e-13      27.5416
       760.10000  5.82399e-13      27.5416
       760.20000  5.82399e-13      27.5416
       760.30000  5.82399e-13      27.5475
       760.40000  5.82399e-13      27.5475
       760.50000  8.03431e-13      38.0023
       760.60000  8.03431e-13      38.0103
       760.70000  8.03431e-13      38.0103
       760.80000  8.03431e-13      38.0184
       760.90000  8.03431e-13      38.0184
       761.00000  8.03431e-13      38.0264
       761.10000  8.03431e-13      38.0585
       761.20000  8.03431e-13      38.0826
       761.30000  8.01761e-13      38.0275
       761.40000  8.01761e-13      38.0516
       761.50000  5.80308e-13      27.5588
       761.60000  5.80308e-13      27.5704
       761.70000  5.80308e-13      27.5821
       761.80000  5.80308e-13      27.5937
       761.90000  5.80308e-13      27.6053
       762.00000  5.80308e-13      27.6111
       762.10000  5.80308e-13      27.6227
       762.20000  5.80308e-13      27.6285
       762.30000  5.80308e-13      27.6343
       762.40000  5.80308e-13      27.6343
       762.50000  5.00389e-13      23.8285
       762.60000  5.00389e-13      23.8335
       762.70000  5.00389e-13      23.8335
       762.80000  5.00389e-13      23.8285
       762.90000  5.00389e-13      23.8285
       763.00000  5.00389e-13      23.8235
       763.10000  5.00389e-13      23.8185
       763.20000  5.00389e-13      23.8135
       763.30000  5.00389e-13      23.8035
       763.40000  5.00389e-13      23.7935
       763.50000  1.14395e-13      5.43721
       763.60000  1.14395e-13      5.43492
       763.70000  1.14395e-13      5.43263
       763.80000  1.14102e-13      5.41530
       763.90000  1.14102e-13      5.41188
       764.00000  1.14102e-13      5.40845
       764.10000  1.14102e-13      5.40503
       764.20000  1.14102e-13      5.40047
       764.30000  1.14102e-13      5.39590
       764.40000  1.14102e-13      5.39134
       764.50000  3.82199e-13      18.0436
       764.60000  3.82199e-13      18.0283
       764.70000  3.82199e-13      18.0092
       764.80000  3.82199e-13      17.9901
       764.90000  3.82199e-13      17.9710
       765.00000  3.82199e-13      17.9481
       765.10000  3.82199e-13      17.9060
       765.20000  3.82199e-13      17.8640
       765.30000  3.82199e-13      17.8258
       765.40000  3.82199e-13      17.7876
       765.50000  3.24583e-13      15.0769
       765.60000  3.24583e-13      15.0509
       765.70000  3.24583e-13      15.0217
       765.80000  3.24583e-13      14.9990
       765.90000  3.24583e-13      14.9763
       766.00000  3.24583e-13      14.9535
       766.10000  3.24583e-13      14.9341
       766.20000  3.24583e-13      14.9146
       766.30000  3.24574e-13      14.8980
       766.40000  3.24574e-13      14.8850
       766.50000  2.17172e-13      9.95084
       766.60000  2.17172e-13      9.94215
       766.70000  2.17172e-13      9.93781
       766.80000  2.17172e-13      9.93129
       766.90000  2.17172e-13      9.92695
       767.00000  2.17172e-13      9.92478
       767.10000  2.17172e-13      9.93563
       767.20000  2.17172e-13      9.94867
       767.30000  2.17172e-13      9.95952
       767.40000  2.17172e-13      9.97038
       767.50000  1.37394e-12      63.1462
       767.60000  1.37394e-12      63.2149
       767.70000  1.37394e-12      63.2836
       767.80000  1.37394e-12      63.3385
       767.90000  1.37394e-12      63.4072
       768.00000  1.37394e-12      63.4622
       768.10000  1.37394e-12      63.5171
       768.20000  1.37394e-12      63.5721
       768.30000  1.37394e-12      63.6133
       768.40000  1.37394e-12      63.6683
       768.50000  5.79437e-13      26.8685
       768.60000  5.79437e-13      26.8859
       768.70000  5.79437e-13      26.9032
       768.80000  5.79129e-13      26.9063
       768.90000  5.79129e-13      26.9237
       769.00000  5.79129e-13      26.9353
       769.10000  5.79129e-13      26.9527
       769.20000  5.79129e-13      26.9642
       769.30000  5.79129e-13      26.9758
       769.40000  5.79129e-13      26.9874
       769.50000  8.19422e-14      3.81932
       769.60000  8.19422e-14      3.82096
       769.70000  8.19422e-14      3.82178
       769.80000  8.19422e-14      3.82342
       769.90000  8.19422e-14      3.82424
       770.00000  8.19422e-14      3.82424
       770.10000  8.19422e-14      3.82506
       770.20000  8.19422e-14      3.82588
       770.30000  8.19422e-14      3.82588
       770.40000  8.19422e-14      3.82588
       770.50000  8.76219e-13      40.9107
       770.60000  8.76219e-13      40.9107
       770.70000  8.76219e-13      40.9107
       770.80000  8.76219e-13      40.9107
       770.90000  8.76219e-13      40.9019
       771.00000  8.76219e-13      40.8932
       771.10000  8.76219e-13      40.9282
       771.20000  8.76219e-13      40.9545
       771.30000  8.73538e-13      40.8554
       771.40000  8.73538e-13      40.8816
       771.50000  9.97683e-13      46.7215
       771.60000  9.97683e-13      46.7415
       771.70000  9.97683e-13      46.7714
       771.80000  9.97683e-13      46.7913
       771.90000  9.97683e-13      46.8013
       772.00000  9.97683e-13      46.8213
       772.10000  9.97683e-13      46.8312
       772.20000  9.97683e-13      46.8412
       772.30000  9.97683e-13      46.8512
       772.40000  9.97683e-13      46.8612
       772.50000  1.21386e-12      57.0150
       772.60000  1.21386e-12      57.0150
       772.70000  1.21386e-12      57.0150
       772.80000  1.21386e-12      57.0029
       772.90000  1.21386e-12      57.0029
       773.00000  1.21386e-12      56.9907
       773.10000  1.21386e-12      56.9179
       773.20000  1.21386e-12      56.8572
       773.30000  1.21386e-12      56.7844
       773.40000  1.21386e-12      56.7237
       773.50000  8.01531e-13      37.4155
       773.60000  8.01531e-13      37.3834
       773.70000  8.01531e-13      37.3514
       773.80000  7.98360e-13      37.1717
       773.90000  7.98360e-13      37.1397
       774.00000  7.98360e-13      37.1078
       774.10000  7.98360e-13      37.0838
       774.20000  7.98360e-13      37.0599
       774.30000  7.98360e-13      37.0439
       774.40000  7.98360e-13      37.0200
       774.50000  5.69444e-13      26.3937
       774.60000  5.69444e-13      26.3880
       774.70000  5.69444e-13      26.3766
       774.80000  5.69444e-13      26.3709
       774.90000  5.69444e-13      26.3652
       775.00000  5.69444e-13      26.3595
       775.10000  5.69444e-13      26.3595
       775.20000  5.69444e-13      26.3595
       775.30000  5.69444e-13      26.3595
       775.40000  5.69444e-13      26.3595
       775.50000  1.27558e-12      59.0595
       775.60000  1.27558e-12      59.0723
       775.70000  1.27558e-12      59.0850
       775.80000  1.27558e-12      59.0978
       775.90000  1.27558e-12      59.1233
       776.00000  1.27558e-12      59.1488
       776.10000  1.27558e-12      59.1743
       776.20000  1.27558e-12      59.2126
       776.30000  1.27235e-12      59.1006
       776.40000  1.27235e-12      59.1388
       776.50000  2.67231e-12      124.289
       776.60000  2.67231e-12      124.396
       776.70000  2.67231e-12      124.503
       776.80000  2.67231e-12      124.610
       776.90000  2.67231e-12      124.744
       777.00000  2.67231e-12      124.851
       777.10000  2.67231e-12      124.797
       777.20000  2.67231e-12      124.770
       777.30000  2.67231e-12      124.717
       777.40000  2.67231e-12      124.663
       777.50000  4.70138e-12      219.225
       777.60000  4.70138e-12      219.178
       777.70000  4.70138e-12      219.084
       777.80000  4.70138e-12      219.037
       777.90000  4.70138e-12      218.990
       778.00000  4.70138e-12      218.896
       778.10000  4.70138e-12      218.849
       778.20000  4.70138e-12      218.802
       778.30000  4.70138e-12      218.755
       778.40000  4.70138e-12      218.708
       778.50000  8.95329e-13      41.6507
       778.60000  8.95329e-13      41.6417
       778.70000  8.95329e-13      41.6328
       778.80000  8.93061e-13      41.5273
       778.90000  8.93061e-13      41.5273
       779.00000  8.93061e-13      41.5184
       779.10000  8.93061e-13      41.5362
       779.20000  8.93061e-13      41.5452
       779.30000  8.93061e-13      41.5630
       779.40000  8.93061e-13      41.5720
       779.50000  2.73116e-12      127.163
       779.60000  2.73116e-12      127.190
       779.70000  2.73116e-12      127.218
       779.80000  2.73116e-12      127.245
       779.90000  2.73116e-12      127.272
       780.00000  2.73116e-12      127.300
       780.10000  2.73116e-12      127.300
       780.20000  2.73116e-12      127.327
       780.30000  2.73116e-12      127.327
       780.40000  2.73116e-12      127.327
       780.50000  3.47703e-12      162.099
       780.60000  3.47703e-12      162.099
       780.70000  3.47703e-12      162.099
       780.80000  3.47703e-12      162.099
       780.90000  3.47703e-12      162.099
       781.00000  3.47703e-12      162.065
       781.10000  3.47703e-12      162.065
       781.20000  3.47703e-12      162.030
       781.30000  3.45770e-12      161.094
       781.40000  3.45770e-12      161.060
       781.50000  7.43557e-14      3.46275
       781.60000  7.43557e-14      3.46200
       781.70000  7.43557e-14      3.46126
       781.80000  7.43557e-14      3.46052
       781.90000  7.43557e-14      3.45903
       782.00000  7.43557e-14      3.45828
       782.10000  7.43557e-14      3.45680
       782.20000  7.43557e-14      3.45531
       782.30000  7.43557e-14      3.45457
       782.40000  7.43557e-14      3.45308
       782.50000  4.33789e-12      201.365
       782.60000  4.33789e-12      201.235
       782.70000  4.33789e-12      201.148
       782.80000  4.33789e-12      201.061
       782.90000  4.33789e-12      200.931
       783.00000  4.33789e-12      200.844
       783.10000  4.33789e-12      200.931
       783.20000  4.33789e-12      201.018
       783.30000  4.33789e-12      201.105
       783.40000  4.33789e-12      201.148
       783.50000  6.38943e-13      29.6406
       783.60000  6.38943e-13      29.6533
       783.70000  6.38943e-13      29.6597
       783.80000  6.35686e-13      29.5212
       783.90000  6.35686e-13      29.5340
       784.00000  6.35686e-13      29.5403
       784.10000  6.35686e-13      29.5467
       784.20000  6.35686e-13      29.5594
       784.30000  6.35686e-13      29.5657
       784.40000  6.35686e-13      29.5721
       784.50000  1.72584e-12      80.3035
       784.60000  1.72584e-12      80.3208
       784.70000  1.72584e-12      80.3381
       784.80000  1.72584e-12      80.3553
       784.90000  1.72584e-12      80.3726
       785.00000  1.72584e-12      80.3726
       785.10000  1.72584e-12      80.3726
       785.20000  1.72584e-12      80.3726
       785.30000  1.72584e-12      80.3726
       785.40000  1.72584e-12      80.3726
       785.50000  8.98221e-13      41.8302
       785.60000  8.98221e-13      41.8302
       785.70000  8.98221e-13      41.8302
       785.80000  8.98221e-13      41.8302
       785.90000  8.98221e-13      41.8302
       786.00000  8.98221e-13      41.8302
       786.10000  8.98221e-13      41.8302
       786.20000  8.98221e-13      41.8302
       786.30000  8.96715e-13      41.7600
       786.40000  8.96715e-13      41.7600
       786.50000  1.24120e-12      57.8028
       786.60000  1.24120e-12      57.8028
       786.70000  1.24120e-12      57.8028
       786.80000  1.24120e-12      57.8028
       786.90000  1.24120e-12      57.8028
       787.00000  1.24120e-12      57.8028
       787.10000  1.24120e-12      57.8028
       787.20000  1.24120e-12      57.8028
       787.30000  1.24120e-12      57.8028
       787.40000  1.24120e-12      57.8028
       787.50000  9.88914e-13      46.0537
       787.60000  9.88914e-13      46.0537
       787.70000  9.88914e-13      46.0537
       787.80000  9.88914e-13      46.0537
       787.90000  9.88914e-13      46.0537
       788.00000  9.88914e-13      46.0537
       788.10000  9.88914e-13      46.0537
       788.20000  9.88914e-13      46.0537
       788.30000  9.88914e-13      46.0537
       788.40000  9.88914e-13      46.0537
       788.50000  4.81587e-13      22.4275
       788.60000  4.81587e-13      22.4275
       788.70000  4.81587e-13      22.4275
       788.80000  4.81671e-13      22.4314
       788.90000  4.81671e-13      22.4314
       789.00000  4.81671e-13      22.4314
       789.10000  4.81671e-13      22.4218
       789.20000  4.81671e-13      22.4073
       789.30000  4.81671e-13      22.3929
       789.40000  4.81671e-13      22.3832
       789.50000  7.48915e-13      34.7796
       789.60000  7.48915e-13      34.7571
       789.70000  7.48915e-13      34.7422
       789.80000  7.48915e-13      34.7197
       789.90000  7.48915e-13      34.6972
       790.00000  7.48915e-13      34.6823
       790.10000  7.48915e-13      34.6598
       790.20000  7.48915e-13      34.6448
       790.30000  7.48915e-13      34.6223
       790.40000  7.48915e-13      34.6074
       790.50000  5.36229e-13      24.7630
       790.60000  5.36229e-13      24.7470
       790.70000  5.36229e-13      24.7362
       790.80000  5.36229e-13      24.7201
       790.90000  5.36229e-13      24.7094
       791.00000  5.36229e-13      24.6933
       791.10000  5.36229e-13      24.6772
       791.20000  5.36229e-13      24.6665
       791.30000  5.34666e-13      24.5786
       791.40000  5.34666e-13      24.5625
       791.50000  4.26752e-13      19.5922
       791.60000  4.26752e-13      19.5794
       791.70000  4.26752e-13      19.5709
       791.80000  4.26752e-13      19.5581
       791.90000  4.26752e-13      19.5495
       792.00000  4.26752e-13      19.5367
       792.10000  4.26752e-13      19.5282
       792.20000  4.26752e-13      19.5197
       792.30000  4.26752e-13      19.5068
       792.40000  4.26752e-13      19.4983
       792.50000  3.15604e-13      14.4136
       792.60000  3.15604e-13      14.4073
       792.70000  3.15604e-13      14.4010
       792.80000  3.15604e-13      14.3947
       792.90000  3.15604e-13      14.3884
       793.00000  3.15604e-13      14.3821
       793.10000  3.15604e-13      14.3726
       793.20000  3.15604e-13      14.3600
       793.30000  3.15604e-13      14.3505
       793.40000  3.15604e-13      14.3410
       793.50000  5.63025e-13      25.5670
       793.60000  5.63025e-13      25.5557
       793.70000  5.63025e-13      25.5388
       793.80000  5.61419e-13      25.4603
       793.90000  5.61419e-13      25.4491
       794.00000  5.61419e-13      25.4435
       794.10000  5.61419e-13      25.4323
       794.20000  5.61419e-13      25.4323
       794.30000  5.61419e-13      25.4266
       794.40000  5.61419e-13      25.4266
       794.50000  5.62531e-13      25.4770
       794.60000  5.62531e-13      25.4770
       794.70000  5.62531e-13      25.4827
       794.80000  5.62531e-13      25.4827
       794.90000  5.62531e-13      25.4883
       795.00000  5.62531e-13      25.4995
       795.10000  5.62531e-13      25.5389
       795.20000  5.62531e-13      25.5783
       795.30000  5.62531e-13      25.6177
       795.40000  5.62531e-13      25.6570
       795.50000  5.42276e-13      24.7657
       795.60000  5.42276e-13      24.7983
       795.70000  5.42276e-13      24.8254
       795.80000  5.42276e-13      24.8525
       795.90000  5.42276e-13      24.8796
       796.00000  5.42276e-13      24.9013
       796.10000  5.42276e-13      24.9230
       796.20000  5.42276e-13      24.9447
       796.30000  5.41554e-13      24.9277
       796.40000  5.41554e-13      24.9440
       796.50000  1.98728e-13      9.15936
       796.60000  1.98728e-13      9.16334
       796.70000  1.98728e-13      9.16731
       796.80000  1.98728e-13      9.16930
       796.90000  1.98728e-13      9.17129
       797.00000  1.98728e-13      9.17327
       797.10000  1.98728e-13      9.17526
       797.20000  1.98728e-13      9.17526
       797.30000  1.98728e-13      9.17526
       797.40000  1.98728e-13      9.17327
       797.50000  3.75027e-13      17.3075
       797.60000  3.75027e-13      17.3038
       797.70000  3.75027e-13      17.2963
       797.80000  3.75027e-13      17.2888
       797.90000  3.75027e-13      17.2813
       798.00000  3.75027e-13      17.2700
       798.10000  3.75027e-13      17.2588
       798.20000  3.75027e-13      17.2475
       798.30000  3.75027e-13      17.2325
       798.40000  3.75027e-13      17.2175
       798.50000  1.06316e-13      4.87673
       798.60000  1.06316e-13      4.87141
       798.70000  1.06316e-13      4.86610
       798.80000  1.06073e-13      4.84967
       798.90000  1.06073e-13      4.84330
       799.00000  1.06073e-13      4.83694
       799.10000  1.06073e-13      4.84012
       799.20000  1.06073e-13      4.84437
       799.30000  1.06073e-13      4.84861
       799.40000  1.06073e-13      4.85179
       799.50000  2.27158e-13      10.3970
       799.60000  2.27158e-13      10.4038
       799.70000  2.27158e-13      10.4106
       799.80000  2.27158e-13      10.4152
       799.90000  2.27158e-13      10.4197
       800.00000  2.27158e-13      10.4243
       800.10000  2.27158e-13      10.4288
       800.20000  2.27158e-13      10.4334
       800.30000  2.27158e-13      10.4379
       800.40000  2.27158e-13      10.4402
       800.50000  1.94752e-13      8.95274
       800.60000  1.94752e-13      8.95469
       800.70000  1.94752e-13      8.95469
       800.80000  1.94752e-13      8.95664
       800.90000  1.94752e-13      8.95664
       801.00000  1.94752e-13      8.95664
       801.10000  1.94752e-13      8.95274
       801.20000  1.94752e-13      8.94885
       801.30000  1.94180e-13      8.91870
       801.40000  1.94180e-13      8.91481
       801.50000  1.49710e-13      6.87019
       801.60000  1.49710e-13      6.86720
       801.70000  1.49710e-13      6.86421
       801.80000  1.49710e-13      6.86121
       801.90000  1.49710e-13      6.85822
       802.00000  1.49710e-13      6.85522
       802.10000  1.49710e-13      6.85223
       802.20000  1.49710e-13      6.84924
       802.30000  1.49710e-13      6.84624
       802.40000  1.49710e-13      6.84325
       802.50000  7.24359e-14      3.30959
       802.60000  7.24359e-14      3.30815
       802.70000  7.24359e-14      3.30670
       802.80000  7.24359e-14      3.30452
       802.90000  7.24359e-14      3.30307
       803.00000  7.24359e-14      3.30163
       803.10000  7.24359e-14      3.30018
       803.20000  7.24359e-14      3.29873
       803.30000  7.24359e-14      3.29728
       803.40000  7.24359e-14      3.29511
       803.50000  2.08196e-13      9.46667
       803.60000  2.08196e-13      9.46251
       803.70000  2.08196e-13      9.45835
       803.80000  2.07549e-13      9.42481
       803.90000  2.07549e-13      9.41858
       804.00000  2.07549e-13      9.41443
       804.10000  2.07549e-13      9.41028
       804.20000  2.07549e-13      9.40613
       804.30000  2.07549e-13      9.39990
       804.40000  2.07549e-13      9.39575
       804.50000  1.48463e-13      6.71795
       804.60000  1.48463e-13      6.71350
       804.70000  1.48463e-13      6.71053
       804.80000  1.48463e-13      6.70756
       804.90000  1.48463e-13      6.70311
       805.00000  1.48463e-13      6.70014
       805.10000  1.48463e-13      6.70607
       805.20000  1.48463e-13      6.71350
       805.30000  1.48463e-13      6.71795
       805.40000  1.48463e-13      6.72389
       805.50000  2.25429e-13      10.2164
       805.60000  2.25429e-13      10.2232
       805.70000  2.25429e-13      10.2300
       805.80000  2.25429e-13      10.2345
       805.90000  2.25429e-13      10.2390
       806.00000  2.25429e-13      10.2435
       806.10000  2.25429e-13      10.2458
       806.20000  2.25429e-13      10.2480
       806.30000  2.24988e-13      10.2302
       806.40000  2.24988e-13      10.2325
       806.50000  2.46395e-13      11.2060
       806.60000  2.46395e-13      11.2060
       806.70000  2.46395e-13      11.2036
       806.80000  2.46395e-13      11.2036
       806.90000  2.46395e-13      11.2011
       807.00000  2.46395e-13      11.1962
       807.10000  2.46395e-13      11.1765
       807.20000  2.46395e-13      11.1543
       807.30000  2.46395e-13      11.1346
       807.40000  2.46395e-13      11.1173
       807.50000  1.38481e-13      6.23857
       807.60000  1.38481e-13      6.22888
       807.70000  1.38481e-13      6.22057
       807.80000  1.38481e-13      6.21365
       807.90000  1.38481e-13      6.20672
       808.00000  1.38481e-13      6.19980
       808.10000  1.38481e-13      6.19426
       808.20000  1.38481e-13      6.18872
       808.30000  1.38481e-13      6.18318
       808.40000  1.38481e-13      6.17903
       808.50000  1.11350e-13      4.96622
       808.60000  1.11350e-13      4.96400
       808.70000  1.11350e-13      4.96177
       808.80000  1.11245e-13      4.95596
       808.90000  1.11245e-13      4.95485
       809.00000  1.11245e-13      4.95485
       809.10000  1.11245e-13      4.95485
       809.20000  1.11245e-13      4.95596
       809.30000  1.11245e-13      4.95708
       809.40000  1.11245e-13      4.95819
       809.50000  9.60038e-14      4.28081
       809.60000  9.60038e-14      4.28369
       809.70000  9.60038e-14      4.28657
       809.80000  9.60038e-14      4.28945
       809.90000  9.60038e-14      4.29329
       810.00000  9.60038e-14      4.29713
       810.10000  9.60038e-14      4.30193
       810.20000  9.60038e-14      4.30673
       810.30000  9.60038e-14      4.31153
       810.40000  9.60038e-14      4.31729
       810.50000  2.11526e-13      9.52713
       810.60000  2.11526e-13      9.53982
       810.70000  2.11526e-13      9.55674
       810.80000  2.11526e-13      9.57367
       810.90000  2.11526e-13      9.59059
       811.00000  2.11526e-13      9.60963
       811.10000  2.11526e-13      9.61174
       811.20000  2.11526e-13      9.61597
       811.30000  2.11387e-13      9.61175
       811.40000  2.11387e-13      9.61598
       811.50000  1.74626e-13      7.94547
       811.60000  1.74626e-13      7.94722
       811.70000  1.74626e-13      7.94897
       811.80000  1.74626e-13      7.95071
       811.90000  1.74626e-13      7.95246
       812.00000  1.74626e-13      7.95420
       812.10000  1.74626e-13      7.95420
       812.20000  1.74626e-13      7.95595
       812.30000  1.74626e-13      7.95770
       812.40000  1.74626e-13      7.95770
       812.50000  2.93673e-13      13.3827
       812.60000  2.93673e-13      13.3856
       812.70000  2.93673e-13      13.3856
       812.80000  2.93673e-13      13.3856
       812.90000  2.93673e-13      13.3856
       813.00000  2.93673e-13      13.3856
       813.10000  2.93673e-13      13.3797
       813.20000  2.93673e-13      13.3768
       813.30000  2.93673e-13      13.3709
       813.40000  2.93673e-13      13.3680
       813.50000  1.98491e-13      9.03133
       813.60000  1.98491e-13      9.02934
       813.70000  1.98491e-13      9.02736
       813.80000  1.98469e-13      9.02438
       813.90000  1.98469e-13      9.02240
       814.00000  1.98469e-13      9.01843
       814.10000  1.98469e-13      9.01644
       814.20000  1.98469e-13      9.01446
       814.30000  1.98469e-13      9.01247
       814.40000  1.98469e-13      9.01247
       814.50000  1.39857e-13      6.34950
       814.60000  1.39857e-13      6.34810
       814.70000  1.39857e-13      6.34671
       814.80000  1.39857e-13      6.34531
       814.90000  1.39857e-13      6.34531
       815.00000  1.39857e-13      6.34391
       815.10000  1.39857e-13      6.34950
       815.20000  1.39857e-13      6.35370
       815.30000  1.39857e-13      6.35789
       815.40000  1.39857e-13      6.36069
       815.50000  2.46680e-13      11.2264
       815.60000  2.46680e-13      11.2289
       815.70000  2.46680e-13      11.2338
       815.80000  2.46680e-13      11.2338
       815.90000  2.46680e-13      11.2363
       816.00000  2.46680e-13      11.2363
       816.10000  2.46680e-13      11.2363
       816.20000  2.46680e-13      11.2338
       816.30000  2.46673e-13      11.2310
       816.40000  2.46673e-13      11.2286
       816.50000  3.63994e-13      16.5617
       816.60000  3.63994e-13      16.5545
       816.70000  3.63994e-13      16.5435
       816.80000  3.63994e-13      16.5326
       816.90000  3.63994e-13      16.5217
       817.00000  3.63994e-13      16.5071
       817.10000  3.63994e-13      16.4562
       817.20000  3.63994e-13      16.4089
       817.30000  3.63994e-13      16.3652
       817.40000  3.63994e-13      16.3215
       817.50000  2.57062e-13      11.4984
       817.60000  2.57062e-13      11.4727
       817.70000  2.57062e-13      11.4470
       817.80000  2.57062e-13      11.4213
       817.90000  2.57062e-13      11.4007
       818.00000  2.57062e-13      11.3776
       818.10000  2.57062e-13      11.3596
       818.20000  2.57062e-13      11.3416
       818.30000  2.57062e-13      11.3236
       818.40000  2.57062e-13      11.3107
       818.50000  4.01184e-13      17.6280
       818.60000  4.01184e-13      17.6120
       818.70000  4.01184e-13      17.5959
       818.80000  4.01123e-13      17.5772
       818.90000  4.01123e-13      17.5692
       819.00000  4.01123e-13      17.5572
       819.10000  4.01123e-13      17.5532
       819.20000  4.01123e-13      17.5491
       819.30000  4.01123e-13      17.5451
       819.40000  4.01123e-13      17.5451
       819.50000  1.59774e-13      6.99013
       819.60000  1.59774e-13      6.99173
       819.70000  1.59774e-13      6.99493
       819.80000  1.59774e-13      6.99972
       819.90000  1.59774e-13      7.00451
       820.00000  1.59774e-13      7.01090
       820.10000  1.59774e-13      7.01730
       820.20000  1.59774e-13      7.02528
       820.30000  1.59774e-13      7.03487
       820.40000  1.59774e-13      7.04446
       820.50000  1.13136e-13      4.99608
       820.60000  1.13136e-13      5.00400
       820.70000  1.13136e-13      5.01305
       820.80000  1.13136e-13      5.02210
       820.90000  1.13136e-13      5.03228
       821.00000  1.13136e-13      5.04360
       821.10000  1.13136e-13      5.04133
       821.20000  1.13136e-13      5.04020
       821.30000  1.13460e-13      5.05238
       821.40000  1.13460e-13      5.05125
       821.50000  4.10694e-13      18.2759
       821.60000  4.10694e-13      18.2718
       821.70000  4.10694e-13      18.2677
       821.80000  4.10694e-13      18.2594
       821.90000  4.10694e-13      18.2553
       822.00000  4.10694e-13      18.2512
       822.10000  4.10694e-13      18.2512
       822.20000  4.10694e-13      18.2471
       822.30000  4.10694e-13      18.2430
       822.40000  4.10694e-13      18.2430
       822.50000  1.43549e-13      6.37503
       822.60000  1.43549e-13      6.37503
       822.70000  1.43549e-13      6.37359
       822.80000  1.43549e-13      6.37359
       822.90000  1.43549e-13      6.37359
       823.00000  1.43549e-13      6.37359
       823.10000  1.43549e-13      6.37359
       823.20000  1.43549e-13      6.37359
       823.30000  1.43549e-13      6.37359
       823.40000  1.43549e-13      6.37359
       823.50000  2.23870e-13      9.94206
       823.60000  2.23870e-13      9.94206
       823.70000  2.23870e-13      9.94430
       823.80000  2.24481e-13      9.97143
       823.90000  2.24481e-13      9.97367
       824.00000  2.24481e-13      9.97592
       824.10000  2.24481e-13      9.97816
       824.20000  2.24481e-13      9.98041
       824.30000  2.24481e-13      9.98265
       824.40000  2.24481e-13      9.98714
       824.50000  1.27957e-13      5.69407
       824.60000  1.27957e-13      5.69663
       824.70000  1.27957e-13      5.69791
       824.80000  1.27957e-13      5.70047
       824.90000  1.27957e-13      5.70303
       825.00000  1.27957e-13      5.70559
       825.10000  1.27957e-13      5.70814
       825.20000  1.27957e-13      5.71070
       825.30000  1.27957e-13      5.71454
       825.40000  1.27957e-13      5.71710
       825.50000  1.44593e-13      6.46476
       825.60000  1.44593e-13      6.46765
       825.70000  1.44593e-13      6.47199
       825.80000  1.44593e-13      6.47633
       825.90000  1.44593e-13      6.48067
       826.00000  1.44593e-13      6.48501
       826.10000  1.44593e-13      6.48934
       826.20000  1.44593e-13      6.49224
       826.30000  1.44689e-13      6.50089
       826.40000  1.44689e-13      6.50378
       826.50000  1.40962e-13      6.33765
       826.60000  1.40962e-13      6.34047
       826.70000  1.40962e-13      6.34329
       826.80000  1.40962e-13      6.34470
       826.90000  1.40962e-13      6.34611
       827.00000  1.40962e-13      6.34752
       827.10000  1.40962e-13      6.34752
       827.20000  1.40962e-13      6.34892
       827.30000  1.40962e-13      6.34892
       827.40000  1.40962e-13      6.34892
       827.50000  6.27336e-14      2.82552
       827.60000  6.27336e-14      2.82552
       827.70000  6.27336e-14      2.82490
       827.80000  6.27336e-14      2.82427
       827.90000  6.27336e-14      2.82364
       828.00000  6.27336e-14      2.82301
       828.10000  6.27336e-14      2.82113
       828.20000  6.27336e-14      2.81862
       828.30000  6.27336e-14      2.81611
       828.40000  6.27336e-14      2.81360
       828.50000  1.18885e-13      5.32841
       828.60000  1.18885e-13      5.32366
       828.70000  1.18885e-13      5.32009
       828.80000  1.18788e-13      5.31221
       828.90000  1.18788e-13      5.30746
       829.00000  1.18788e-13      5.30390
       829.10000  1.18788e-13      5.30033
       829.20000  1.18788e-13      5.29677
       829.30000  1.18788e-13      5.29321
       829.40000  1.18788e-13      5.28964
       829.50000  1.23570e-13      5.49886
       829.60000  1.23570e-13      5.49515
       829.70000  1.23570e-13      5.49144
       829.80000  1.23570e-13      5.48774
       829.90000  1.23570e-13      5.48526
       830.00000  1.23570e-13      5.48156
       830.10000  1.23570e-13      5.47909
       830.20000  1.23570e-13      5.47538
       830.30000  1.23570e-13      5.47291
       830.40000  1.23570e-13      5.46920
       830.50000  6.54218e-14      2.89426
       830.60000  6.54218e-14      2.89295
       830.70000  6.54218e-14      2.89099
       830.80000  6.54218e-14      2.88968
       830.90000  6.54218e-14      2.88837
       831.00000  6.54218e-14      2.88706
       831.10000  6.54218e-14      2.88576
       831.20000  6.54218e-14      2.88445
       831.30000  6.55991e-14      2.89161
       831.40000  6.55991e-14      2.89030
       831.50000  1.65974e-13      7.30949
       831.60000  1.65974e-13      7.30783
       831.70000  1.65974e-13      7.30451
       831.80000  1.65974e-13      7.30119
       831.90000  1.65974e-13      7.29953
       832.00000  1.65974e-13      7.29787
       832.10000  1.65974e-13      7.29123
       832.20000  1.65974e-13      7.28459
       832.30000  1.65974e-13      7.27961
       832.40000  1.65974e-13      7.27463
       832.50000  9.49569e-14      4.15911
       832.60000  9.49569e-14      4.15722
       832.70000  9.49569e-14      4.15532
       832.80000  9.49569e-14      4.15247
       832.90000  9.49569e-14      4.15152
       833.00000  9.49569e-14      4.14962
       833.10000  9.49569e-14      4.14772
       833.20000  9.49569e-14      4.14677
       833.30000  9.49569e-14      4.14582
       833.40000  9.49569e-14      4.14487
       833.50000  6.46316e-14      2.82117
       833.60000  6.46316e-14      2.82052
       833.70000  6.46316e-14      2.82052
       833.80000  6.46991e-14      2.82347
       833.90000  6.46991e-14      2.82411
       834.00000  6.46991e-14      2.82411
       834.10000  6.46991e-14      2.82735
       834.20000  6.46991e-14      2.82994
       834.30000  6.46991e-14      2.83317
       834.40000  6.46991e-14      2.83576
       834.50000  2.57396e-13      11.2920
       834.60000  2.57396e-13      11.3022
       834.70000  2.57396e-13      11.3100
       834.80000  2.57396e-13      11.3177
       834.90000  2.57396e-13      11.3280
       835.00000  2.57396e-13      11.3357
       835.10000  2.57396e-13      11.3409
       835.20000  2.57396e-13      11.3486
       835.30000  2.57396e-13      11.3537
       835.40000  2.57396e-13      11.3589
       835.50000  7.26348e-14      3.20683
       835.60000  7.26348e-14      3.20828
       835.70000  7.26348e-14      3.20900
       835.80000  7.26348e-14      3.21046
       835.90000  7.26348e-14      3.21118
       836.00000  7.26348e-14      3.21191
       836.10000  7.26348e-14      3.21046
       836.20000  7.26348e-14      3.20973
       836.30000  7.26019e-14      3.20683
       836.40000  7.26019e-14      3.20610
       836.50000  1.54184e-13      6.80722
       836.60000  1.54184e-13      6.80414
       836.70000  1.54184e-13      6.80259
       836.80000  1.54184e-13      6.80105
       836.90000  1.54184e-13      6.79797
       837.00000  1.54184e-13      6.79643
       837.10000  1.54184e-13      6.79489
       837.20000  1.54184e-13      6.79334
       837.30000  1.54184e-13      6.79180
       837.40000  1.54184e-13      6.79026
       837.50000  1.64498e-13      7.24285
       837.60000  1.64498e-13      7.24120
       837.70000  1.64498e-13      7.23956
       837.80000  1.64498e-13      7.23791
       837.90000  1.64498e-13      7.23791
       838.00000  1.64498e-13      7.23627
       838.10000  1.64498e-13      7.23462
       838.20000  1.64498e-13      7.23462
       838.30000  1.64498e-13      7.23462
       838.40000  1.64498e-13      7.23462
       838.50000  9.90728e-14      4.35623
       838.60000  9.90728e-14      4.35623
       838.70000  9.90728e-14      4.35623
       838.80000  9.87732e-14      4.34207
       838.90000  9.87732e-14      4.34207
       839.00000  9.87732e-14      4.34207
       839.10000  9.87732e-14      4.34108
       839.20000  9.87732e-14      4.34108
       839.30000  9.87732e-14      4.34108
       839.40000  9.87732e-14      4.34010
       839.50000  1.08630e-13      4.77320
       839.60000  1.08630e-13      4.77320
       839.70000  1.08630e-13      4.77211
       839.80000  1.08630e-13      4.77211
       839.90000  1.08630e-13      4.77211
       840.00000  1.08630e-13      4.77103
       840.10000  1.08630e-13      4.77103
       840.20000  1.08630e-13      4.77103
       840.30000  1.08630e-13      4.76994
       840.40000  1.08630e-13      4.76994
       840.50000  6.10526e-14      2.68082
       840.60000  6.10526e-14      2.68021
       840.70000  6.10526e-14      2.68021
       840.80000  6.10526e-14      2.68021
       840.90000  6.10526e-14      2.67960
       841.00000  6.10526e-14      2.67960
       841.10000  6.10526e-14      2.67960
       841.20000  6.10526e-14      2.67960
       841.30000  6.10494e-14      2.67885
       841.40000  6.10494e-14      2.67885
       841.50000  5.98469e-14      2.62608
       841.60000  5.98469e-14      2.62549
       841.70000  5.98469e-14      2.62549
       841.80000  5.98469e-14      2.62549
       841.90000  5.98469e-14      2.62489
       842.00000  5.98469e-14      2.62489
       842.10000  5.98469e-14      2.62249
       842.20000  5.98469e-14      2.62070
       842.30000  5.98469e-14      2.61890
       842.40000  5.98469e-14      2.61651
       842.50000  8.12478e-14      3.54972
       842.60000  8.12478e-14      3.54809
       842.70000  8.12478e-14      3.54565
       842.80000  8.12478e-14      3.54403
       842.90000  8.12478e-14      3.54159
       843.00000  8.12478e-14      3.53997
       843.10000  8.12478e-14      3.53834
       843.20000  8.12478e-14      3.53672
       843.30000  8.12478e-14      3.53590
       843.40000  8.12478e-14      3.53428
       843.50000  1.43354e-13      6.23448
       843.60000  1.43354e-13      6.23304
       843.70000  1.43354e-13      6.23161
       843.80000  1.43561e-13      6.23916
       843.90000  1.43561e-13      6.23916
       844.00000  1.43561e-13      6.23773
       844.10000  1.43561e-13      6.24203
       844.20000  1.43561e-13      6.24490
       844.30000  1.43561e-13      6.24778
       844.40000  1.43561e-13      6.25065
       844.50000  8.66951e-14      3.77644
       844.60000  8.66951e-14      3.77817
       844.70000  8.66951e-14      3.77904
       844.80000  8.66951e-14      3.78077
       844.90000  8.66951e-14      3.78164
       845.00000  8.66951e-14      3.78337
       845.10000  8.66951e-14      3.78424
       845.20000  8.66951e-14      3.78511
       845.30000  8.66951e-14      3.78684
       845.40000  8.66951e-14      3.78771
       845.50000  5.22563e-14      2.28308
       845.60000  5.22563e-14      2.28360
       845.70000  5.22563e-14      2.28412
       845.80000  5.22563e-14      2.28465
       845.90000  5.22563e-14      2.28465
       846.00000  5.22563e-14      2.28517
       846.10000  5.22563e-14      2.28517
       846.20000  5.22563e-14      2.28517
       846.30000  5.23938e-14      2.29118
       846.40000  5.23938e-14      2.29171
       846.50000  1.12874e-13      4.93711
       846.60000  1.12874e-13      4.93598
       846.70000  1.12874e-13      4.93598
       846.80000  1.12874e-13      4.93598
       846.90000  1.12874e-13      4.93485
       847.00000  1.12874e-13      4.93485
       847.10000  1.12874e-13      4.93372
       847.20000  1.12874e-13      4.93372
       847.30000  1.12874e-13      4.93259
       847.40000  1.12874e-13      4.93147
       847.50000  9.30021e-14      4.06233
       847.60000  9.30021e-14      4.06140
       847.70000  9.30021e-14      4.06047
       847.80000  9.30021e-14      4.05954
       847.90000  9.30021e-14      4.05768
       848.00000  9.30021e-14      4.05675
       848.10000  9.30021e-14      4.03722
       848.20000  9.30021e-14      4.01955
       848.30000  9.30021e-14      4.00188
       848.40000  9.30021e-14      3.98514
       848.50000  1.38259e-14     0.590089
       848.60000  1.38259e-14     0.588015
       848.70000  1.38259e-14     0.585941
       848.80000  1.38787e-14     0.586235
       848.90000  1.38787e-14     0.584431
       849.00000  1.38787e-14     0.582765
