PDS_VERSION_ID         = PDS3
RECORD_TYPE            = STREAM
OBJECT                 = TEXT
  PUBLICATION_DATE     = 2014-04-25
  INTERCHANGE_FORMAT   = ASCII
  NOTE                 = "System transmission vs. wavelength."
END_OBJECT             = TEXT
END
    
The systrans directory contains the non-wavelength-integrated system 
transmission values (QE*optics*filter1*filter2) for each filter combination. 
The naming convention for these files is as follows:

<camera><filter 1><filter 2>_systrans.tab

where <camera> is "issna" or "isswa," and <filter 1> and <filter 2> represent
the filter names. For polarized filter combinations, values are given for the
parallel orientation of the filter (full transmission), with values for the 
perpendicular (blocking) orientation provided in files with subscript 
"_b_systrans.tab". 

Columns in systrans files are as follows:

 1st column: Wavelength (nm)  
 2nd column: Transmitted Flux
 3rd column: Transmitted Flux * Solar Flux (phot per cm^2-s-angstrom at 1 AU)

The solar spectrum used for this calculation is provided in solarflux.tab.

\begindata
       600.00000  4.57549e-10      24369.1
       600.10000  4.57549e-10      24332.4
       600.20000  4.57549e-10      24291.3
       600.30000  4.57549e-10      24240.9
       600.40000  4.57549e-10      24181.5
       600.50000  6.55190e-10      34541.6
       600.60000  6.55190e-10      34587.5
       600.70000  6.55190e-10      34626.8
       600.80000  6.55190e-10      34666.1
       600.90000  6.55190e-10      34692.3
       601.00000  6.55190e-10      34712.0
       601.10000  6.55190e-10      34718.5
       601.20000  6.55190e-10      34725.1
       601.30000  6.55105e-10      34720.5
       601.40000  6.55105e-10      34707.4
       601.50000  5.41914e-10      28699.8
       601.60000  5.41914e-10      28575.1
       601.70000  5.41914e-10      28472.2
       601.80000  5.41914e-10      28380.0
       601.90000  5.41914e-10      28309.6
       602.00000  5.41914e-10      28255.4
       602.10000  5.41914e-10      28212.0
       602.20000  5.41914e-10      28190.4
       602.30000  5.41914e-10      28185.0
       602.40000  5.41914e-10      28195.8
       602.50000  5.57303e-10      29018.7
       602.60000  5.57303e-10      29063.3
       602.70000  5.57303e-10      29124.6
       602.80000  5.57303e-10      29202.7
       602.90000  5.57303e-10      29297.4
       603.00000  5.57303e-10      29408.9
       603.10000  5.57303e-10      29537.0
       603.20000  5.57303e-10      29681.9
       603.30000  5.57303e-10      29843.6
       603.40000  5.57303e-10      30021.9
       603.50000  6.65313e-10      36073.3
       603.60000  6.65313e-10      36060.0
       603.70000  6.65313e-10      36046.7
       603.80000  6.65030e-10      36018.0
       603.90000  6.65030e-10      35998.1
       604.00000  6.65030e-10      35984.8
       604.10000  6.65030e-10      35964.8
       604.20000  6.65030e-10      35951.5
       604.30000  6.65030e-10      35931.6
       604.40000  6.65030e-10      35918.3
       604.50000  3.23155e-10      17443.9
       604.60000  3.23155e-10      17431.0
       604.70000  3.23155e-10      17418.0
       604.80000  3.23155e-10      17405.1
       604.90000  3.23155e-10      17392.2
       605.00000  3.23155e-10      17382.5
       605.10000  3.23155e-10      17372.8
       605.20000  3.23155e-10      17366.3
       605.30000  3.23155e-10      17356.6
       605.40000  3.23155e-10      17350.2
       605.50000  1.85310e-10      9945.56
       605.60000  1.85310e-10      9943.71
       605.70000  1.85310e-10      9940.00
       605.80000  1.85310e-10      9938.15
       605.90000  1.85310e-10      9938.15
       606.00000  1.85310e-10      9936.30
       606.10000  1.85310e-10      9936.30
       606.20000  1.85310e-10      9936.30
       606.30000  1.85315e-10      9936.57
       606.40000  1.85315e-10      9938.42
       606.50000  5.68313e-10      30484.3
       606.60000  5.68313e-10      30495.7
       606.70000  5.68313e-10      30501.4
       606.80000  5.68313e-10      30512.7
       606.90000  5.68313e-10      30512.7
       607.00000  5.68313e-10      30518.4
       607.10000  5.68313e-10      30518.4
       607.20000  5.68313e-10      30518.4
       607.30000  5.68313e-10      30512.7
       607.40000  5.68313e-10      30507.0
       607.50000  3.39193e-10      18204.5
       607.60000  3.39193e-10      18184.1
       607.70000  3.39193e-10      18167.2
       607.80000  3.39193e-10      18153.6
       607.90000  3.39193e-10      18140.0
       608.00000  3.39193e-10      18126.5
       608.10000  3.39193e-10      18116.3
       608.20000  3.39193e-10      18106.1
       608.30000  3.39193e-10      18099.3
       608.40000  3.39193e-10      18092.6
       608.50000  3.02348e-10      16124.2
       608.60000  3.02348e-10      16121.2
       608.70000  3.02348e-10      16118.1
       608.80000  3.02282e-10      16114.7
       608.90000  3.02282e-10      16117.7
       609.00000  3.02282e-10      16120.7
       609.10000  3.02282e-10      16123.7
       609.20000  3.02282e-10      16129.8
       609.30000  3.02282e-10      16135.8
       609.40000  3.02282e-10      16144.9
       609.50000  3.73836e-10      19981.5
       609.60000  3.73836e-10      19891.8
       609.70000  3.73836e-10      19813.3
       609.80000  3.73836e-10      19746.0
       609.90000  3.73836e-10      19689.9
       610.00000  3.73836e-10      19641.3
       610.10000  3.73836e-10      19600.2
       610.20000  3.73836e-10      19570.3
       610.30000  3.73836e-10      19551.6
       610.40000  3.73836e-10      19544.1
       610.50000  2.84552e-10      14873.6
       610.60000  2.84552e-10      14947.5
       610.70000  2.84552e-10      15013.0
       610.80000  2.84552e-10      15072.7
       610.90000  2.84552e-10      15124.0
       611.00000  2.84552e-10      15166.6
       611.10000  2.84552e-10      15203.6
       611.20000  2.84552e-10      15232.1
       611.30000  2.84553e-10      15254.9
       611.40000  2.84553e-10      15269.1
       611.50000  4.26328e-10      22885.3
       611.60000  4.26328e-10      22885.3
       611.70000  4.26328e-10      22872.5
       611.80000  4.26328e-10      22851.2
       611.90000  4.26328e-10      22817.1
       612.00000  4.26328e-10      22774.4
       612.10000  4.26328e-10      22719.0
       612.20000  4.26328e-10      22650.8
       612.30000  4.26328e-10      22574.1
       612.40000  4.26328e-10      22484.5
       612.50000  4.25148e-10      22324.5
       612.60000  4.25148e-10      22269.2
       612.70000  4.25148e-10      22218.2
       612.80000  4.25148e-10      22175.7
       612.90000  4.25148e-10      22141.7
       613.00000  4.25148e-10      22111.9
       613.10000  4.25148e-10      22090.7
       613.20000  4.25148e-10      22073.7
       613.30000  4.25148e-10      22065.2
       613.40000  4.25148e-10      22065.2
       613.50000  9.12705e-11      4737.85
       613.60000  9.12705e-11      4751.54
       613.70000  9.12705e-11      4763.41
       613.80000  9.11708e-11      4769.15
       613.90000  9.11708e-11      4780.09
       614.00000  9.11708e-11      4790.12
       614.10000  9.11708e-11      4798.32
       614.20000  9.11708e-11      4806.53
       614.30000  9.11708e-11      4813.82
       614.40000  9.11708e-11      4820.20
       614.50000  3.27718e-10      17346.1
       614.60000  3.27718e-10      17362.5
       614.70000  3.27718e-10      17375.6
       614.80000  3.27718e-10      17385.5
       614.90000  3.27718e-10      17392.0
       615.00000  3.27718e-10      17395.3
       615.10000  3.27718e-10      17398.6
       615.20000  3.27718e-10      17395.3
       615.30000  3.27718e-10      17392.0
       615.40000  3.27718e-10      17385.5
       615.50000  2.50872e-10      13298.7
       615.60000  2.50872e-10      13150.7
       615.70000  2.50872e-10      13015.2
       615.80000  2.50872e-10      12897.3
       615.90000  2.50872e-10      12797.0
       616.00000  2.50872e-10      12709.2
       616.10000  2.50872e-10      12638.9
       616.20000  2.50872e-10      12583.7
       616.30000  2.50907e-10      12545.4
       616.40000  2.50907e-10      12522.8
       616.50000  5.56567e-11      2775.60
       616.60000  5.56567e-11      2799.53
       616.70000  5.56567e-11      2821.80
       616.80000  5.56567e-11      2842.39
       616.90000  5.56567e-11      2861.87
       617.00000  5.56567e-11      2880.24
       617.10000  5.56567e-11      2896.93
       617.20000  5.56567e-11      2911.96
       617.30000  5.56567e-11      2925.87
       617.40000  5.56567e-11      2938.68
       617.50000  3.83495e-10      20325.2
       617.60000  3.83495e-10      20390.4
       617.70000  3.83495e-10      20448.0
       617.80000  3.83495e-10      20497.8
       617.90000  3.83495e-10      20532.3
       618.00000  3.83495e-10      20563.0
       618.10000  3.83495e-10      20582.2
       618.20000  3.83495e-10      20589.8
       618.30000  3.83495e-10      20589.8
       618.40000  3.83495e-10      20578.3
       618.50000  1.42464e-10      7637.48
       618.60000  1.42464e-10      7623.24
       618.70000  1.42464e-10      7608.99
       618.80000  1.42320e-10      7591.37
       618.90000  1.42320e-10      7581.41
       619.00000  1.42320e-10      7574.29
       619.10000  1.42320e-10      7568.60
       619.20000  1.42320e-10      7565.75
       619.30000  1.42320e-10      7564.33
       619.40000  1.42320e-10      7564.33
       619.50000  4.51612e-11      2401.22
       619.60000  4.51612e-11      2409.80
       619.70000  4.51612e-11      2417.48
       619.80000  4.51612e-11      2424.25
       619.90000  4.51612e-11      2430.12
       620.00000  4.51612e-11      2434.64
       620.10000  4.51612e-11      2438.25
       620.20000  4.51612e-11      2440.96
       620.30000  4.51612e-11      2442.77
       620.40000  4.51612e-11      2443.22
       620.50000  3.75575e-10      20318.6
       620.60000  3.75575e-10      20236.0
       620.70000  3.75575e-10      20157.1
       620.80000  3.75575e-10      20089.5
       620.90000  3.75575e-10      20029.4
       621.00000  3.75575e-10      19976.8
       621.10000  3.75575e-10      19931.7
       621.20000  3.75575e-10      19897.9
       621.30000  3.75093e-10      19842.4
       621.40000  3.75093e-10      19819.9
       621.50000  3.71603e-10      19624.3
       621.60000  3.71603e-10      19691.2
       621.70000  3.71603e-10      19750.7
       621.80000  3.71603e-10      19799.0
       621.90000  3.71603e-10      19843.6
       622.00000  3.71603e-10      19877.0
       622.10000  3.71603e-10      19903.0
       622.20000  3.71603e-10      19917.9
       622.30000  3.71603e-10      19929.0
       622.40000  3.71603e-10      19929.0
       622.50000  3.06772e-11      1644.61
       622.60000  3.06772e-11      1643.38
       622.70000  3.06772e-11      1641.54
       622.80000  3.06772e-11      1639.09
       622.90000  3.06772e-11      1635.71
       623.00000  3.06772e-11      1632.03
       623.10000  3.06772e-11      1627.43
       623.20000  3.06772e-11      1621.91
       623.30000  3.06772e-11      1616.08
       623.40000  3.06772e-11      1609.33
       623.50000  3.42129e-10      17869.4
       623.60000  3.42129e-10      17866.0
       623.70000  3.42129e-10      17866.0
       623.80000  3.41392e-10      17820.7
       623.90000  3.41392e-10      17817.3
       624.00000  3.41392e-10      17810.4
       624.10000  3.41392e-10      17800.2
       624.20000  3.41392e-10      17790.0
       624.30000  3.41392e-10      17779.7
       624.40000  3.41392e-10      17766.1
       624.50000  3.60327e-10      18737.0
       624.60000  3.60327e-10      18664.9
       624.70000  3.60327e-10      18607.3
       624.80000  3.60327e-10      18556.8
       624.90000  3.60327e-10      18517.2
       625.00000  3.60327e-10      18488.4
       625.10000  3.60327e-10      18470.3
       625.20000  3.60327e-10      18459.5
       625.30000  3.60327e-10      18463.1
       625.40000  3.60327e-10      18473.9
       625.50000  2.44393e-10      12544.7
       625.60000  2.44393e-10      12564.3
       625.70000  2.44393e-10      12593.6
       625.80000  2.44393e-10      12627.8
       625.90000  2.44393e-10      12669.3
       626.00000  2.44393e-10      12718.2
       626.10000  2.44393e-10      12774.4
       626.20000  2.44393e-10      12835.5
       626.30000  2.44008e-10      12886.0
       626.40000  2.44008e-10      12961.7
       626.50000  2.25941e-10      12076.6
       626.60000  2.25941e-10      12078.8
       626.70000  2.25941e-10      12081.1
       626.80000  2.25941e-10      12083.3
       626.90000  2.25941e-10      12085.6
       627.00000  2.25941e-10      12087.9
       627.10000  2.25941e-10      12090.1
       627.20000  2.25941e-10      12090.1
       627.30000  2.25941e-10      12092.4
       627.40000  2.25941e-10      12094.6
       627.50000  1.96809e-10      10537.1
       627.60000  1.96809e-10      10545.0
       627.70000  1.96809e-10      10550.9
       627.80000  1.96809e-10      10554.8
       627.90000  1.96809e-10      10558.8
       628.00000  1.96809e-10      10560.7
       628.10000  1.96809e-10      10562.7
       628.20000  1.96809e-10      10562.7
       628.30000  1.96809e-10      10560.7
       628.40000  1.96809e-10      10558.8
       628.50000  2.98154e-10      15990.0
       628.60000  2.98154e-10      15981.1
       628.70000  2.98154e-10      15972.1
       628.80000  2.97524e-10      15926.5
       628.90000  2.97524e-10      15911.6
       629.00000  2.97524e-10      15896.7
       629.10000  2.97524e-10      15878.9
       629.20000  2.97524e-10      15861.0
       629.30000  2.97524e-10      15840.2
       629.40000  2.97524e-10      15816.4
       629.50000  2.54375e-10      13502.2
       629.60000  2.54375e-10      13474.3
       629.70000  2.54375e-10      13446.3
       629.80000  2.54375e-10      13420.8
       629.90000  2.54375e-10      13397.9
       630.00000  2.54375e-10      13375.1
       630.10000  2.54375e-10      13352.2
       630.20000  2.54375e-10      13334.4
       630.30000  2.54375e-10      13314.0
       630.40000  2.54375e-10      13298.7
       630.50000  7.68397e-11      4012.57
       630.60000  7.68397e-11      4007.96
       630.70000  7.68397e-11      4004.11
       630.80000  7.68397e-11      4001.04
       630.90000  7.68397e-11      3997.97
       631.00000  7.68397e-11      3995.66
       631.10000  7.68397e-11      3997.97
       631.20000  7.68397e-11      4000.27
       631.30000  7.68359e-11      4003.15
       631.40000  7.68359e-11      4005.46
       631.50000  1.61550e-10      8426.46
       631.60000  1.61550e-10      8431.31
       631.70000  1.61550e-10      8436.15
       631.80000  1.61550e-10      8439.39
       631.90000  1.61550e-10      8444.23
       632.00000  1.61550e-10      8449.08
       632.10000  1.61550e-10      8453.92
       632.20000  1.61550e-10      8457.16
       632.30000  1.61550e-10      8462.00
       632.40000  1.61550e-10      8466.85
       632.50000  1.17418e-10      6156.22
       632.60000  1.17418e-10      6158.57
       632.70000  1.17418e-10      6162.10
       632.80000  1.17418e-10      6164.44
       632.90000  1.17418e-10      6166.79
       633.00000  1.17418e-10      6170.31
       633.10000  1.17418e-10      6172.66
       633.20000  1.17418e-10      6175.01
       633.30000  1.17418e-10      6177.36
       633.40000  1.17418e-10      6179.71
       633.50000  3.36918e-11      1773.87
       633.60000  3.36918e-11      1774.55
       633.70000  3.36918e-11      1775.22
       633.80000  3.36866e-11      1775.28
       633.90000  3.36866e-11      1775.96
       634.00000  3.36866e-11      1776.63
       634.10000  3.36866e-11      1776.97
       634.20000  3.36866e-11      1777.64
       634.30000  3.36866e-11      1777.98
       634.40000  3.36866e-11      1778.65
       634.50000  1.71061e-10      9033.73
       634.60000  1.71061e-10      9035.44
       634.70000  1.71061e-10      9038.86
       634.80000  1.71061e-10      9040.57
       634.90000  1.71061e-10      9042.28
       635.00000  1.71061e-10      9043.99
       635.10000  1.71061e-10      9045.70
       635.20000  1.71061e-10      9045.70
       635.30000  1.71061e-10      9047.41
       635.40000  1.71061e-10      9047.41
       635.50000  2.91139e-10      15401.3
       635.60000  2.91139e-10      15404.2
       635.70000  2.91139e-10      15404.2
       635.80000  2.91139e-10      15407.1
       635.90000  2.91139e-10      15407.1
       636.00000  2.91139e-10      15410.0
       636.10000  2.91139e-10      15410.0
       636.20000  2.91139e-10      15412.9
       636.30000  2.89414e-10      15321.6
       636.40000  2.89414e-10      15324.5
       636.50000  1.66916e-10      8838.19
       636.60000  1.66916e-10      8839.86
       636.70000  1.66916e-10      8839.86
       636.80000  1.66916e-10      8841.53
       636.90000  1.66916e-10      8841.53
       637.00000  1.66916e-10      8841.53
       637.10000  1.66916e-10      8843.20
       637.20000  1.66916e-10      8843.20
       637.30000  1.66916e-10      8844.87
       637.40000  1.66916e-10      8844.87
       637.50000  2.16849e-10      11490.8
       637.60000  2.16849e-10      11493.0
       637.70000  2.16849e-10      11493.0
       637.80000  2.16849e-10      11495.2
       637.90000  2.16849e-10      11495.2
       638.00000  2.16849e-10      11495.2
       638.10000  2.16849e-10      11497.3
       638.20000  2.16849e-10      11497.3
       638.30000  2.16849e-10      11497.3
       638.40000  2.16849e-10      11499.5
       638.50000  1.16834e-10      6195.70
       638.60000  1.16834e-10      6195.70
       638.70000  1.16834e-10      6196.87
       638.80000  1.16068e-10      6156.23
       638.90000  1.16068e-10      6156.23
       639.00000  1.16068e-10      6156.23
       639.10000  1.16068e-10      6146.95
       639.20000  1.16068e-10      6137.66
       639.30000  1.16068e-10      6128.37
       639.40000  1.16068e-10      6120.25
       639.50000  1.65940e-10      8736.75
       639.60000  1.65940e-10      8726.80
       639.70000  1.65940e-10      8715.18
       639.80000  1.65940e-10      8705.22
       639.90000  1.65940e-10      8696.93
       640.00000  1.65940e-10      8686.97
       640.10000  1.65940e-10      8678.67
       640.20000  1.65940e-10      8672.04
       640.30000  1.65940e-10      8665.40
       640.40000  1.65940e-10      8658.76
       640.50000  1.71314e-10      8932.30
       640.60000  1.71314e-10      8927.16
       640.70000  1.71314e-10      8922.02
       640.80000  1.71314e-10      8918.60
       640.90000  1.71314e-10      8913.46
       641.00000  1.71314e-10      8911.75
       641.10000  1.71314e-10      8915.17
       641.20000  1.71314e-10      8918.60
       641.30000  1.70155e-10      8861.67
       641.40000  1.70155e-10      8865.08
       641.50000  9.83741e-11      5127.26
       641.60000  9.83741e-11      5129.23
       641.70000  9.83741e-11      5131.20
       641.80000  9.83741e-11      5133.16
       641.90000  9.83741e-11      5135.13
       642.00000  9.83741e-11      5137.10
       642.10000  9.83741e-11      5138.08
       642.20000  9.83741e-11      5140.05
       642.30000  9.83741e-11      5142.02
       642.40000  9.83741e-11      5143.98
       642.50000  1.09150e-10      5709.66
       642.60000  1.09150e-10      5711.85
       642.70000  1.09150e-10      5714.03
       642.80000  1.09150e-10      5716.21
       642.90000  1.09150e-10      5718.39
       643.00000  1.09150e-10      5720.58
       643.10000  1.09150e-10      5721.67
       643.20000  1.09150e-10      5723.85
       643.30000  1.09150e-10      5726.04
       643.40000  1.09150e-10      5728.22
       643.50000  1.25489e-10      6588.18
       643.60000  1.25489e-10      6590.69
       643.70000  1.25489e-10      6591.95
       643.80000  1.25322e-10      6585.67
       643.90000  1.25322e-10      6588.18
       644.00000  1.25322e-10      6590.69
       644.10000  1.25322e-10      6593.19
       644.20000  1.25322e-10      6594.45
       644.30000  1.25322e-10      6596.95
       644.40000  1.25322e-10      6599.46
       644.50000  1.22439e-10      6450.08
       644.60000  1.22439e-10      6451.30
       644.70000  1.22439e-10      6453.75
       644.80000  1.22439e-10      6456.20
       644.90000  1.22439e-10      6458.65
       645.00000  1.22439e-10      6459.87
       645.10000  1.22439e-10      6458.65
       645.20000  1.22439e-10      6456.20
       645.30000  1.22439e-10      6454.98
       645.40000  1.22439e-10      6452.53
       645.50000  1.40631e-10      7407.01
       645.60000  1.40631e-10      7404.20
       645.70000  1.40631e-10      7401.38
       645.80000  1.40631e-10      7397.17
       645.90000  1.40631e-10      7392.95
       646.00000  1.40631e-10      7388.73
       646.10000  1.40631e-10      7384.51
       646.20000  1.40631e-10      7380.29
       646.30000  1.40544e-10      7370.14
       646.40000  1.40544e-10      7364.52
       646.50000  1.64543e-11      861.710
       646.60000  1.64543e-11      860.888
       646.70000  1.64543e-11      860.229
       646.80000  1.64543e-11      859.571
       646.90000  1.64543e-11      858.749
       647.00000  1.64543e-11      858.090
       647.10000  1.64543e-11      855.787
       647.20000  1.64543e-11      853.648
       647.30000  1.64543e-11      851.673
       647.40000  1.64543e-11      849.699
       647.50000  8.64961e-11      4457.14
       647.60000  8.64961e-11      4449.36
       647.70000  8.64961e-11      4440.71
       647.80000  8.64961e-11      4433.79
       647.90000  8.64961e-11      4426.87
       648.00000  8.64961e-11      4420.82
       648.10000  8.64961e-11      4415.63
       648.20000  8.64961e-11      4411.30
       648.30000  8.64961e-11      4406.98
       648.40000  8.64961e-11      4403.52
       648.50000  1.23552e-10      6286.31
       648.60000  1.23552e-10      6283.84
       648.70000  1.23552e-10      6281.36
       648.80000  1.23679e-10      6286.63
       648.90000  1.23679e-10      6286.63
       649.00000  1.23679e-10      6287.86
       649.10000  1.23679e-10      6289.10
       649.20000  1.23679e-10      6292.81
       649.30000  1.23679e-10      6295.29
       649.40000  1.23679e-10      6300.23
       649.50000  1.60532e-10      8185.53
       649.60000  1.60532e-10      8193.55
       649.70000  1.60532e-10      8203.19
       649.80000  1.60532e-10      8214.42
       649.90000  1.60532e-10      8225.66
       650.00000  1.60532e-10      8238.50
       650.10000  1.60532e-10      8252.95
       650.20000  1.60532e-10      8269.00
       650.30000  1.60532e-10      8286.66
       650.40000  1.60532e-10      8304.32
       650.50000  9.94011e-11      5153.95
       650.60000  9.94011e-11      5166.87
       650.70000  9.94011e-11      5179.79
       650.80000  9.94011e-11      5194.70
       650.90000  9.94011e-11      5209.61
       651.00000  9.94011e-11      5225.52
       651.10000  9.94011e-11      5229.49
       651.20000  9.94011e-11      5233.47
       651.30000  9.92765e-11      5229.89
       651.40000  9.92765e-11      5232.86
       651.50000  4.02449e-11      2122.52
       651.60000  4.02449e-11      2122.92
       651.70000  4.02449e-11      2123.73
       651.80000  4.02449e-11      2124.13
       651.90000  4.02449e-11      2124.13
       652.00000  4.02449e-11      2124.13
       652.10000  4.02449e-11      2123.73
       652.20000  4.02449e-11      2123.32
       652.30000  4.02449e-11      2122.92
       652.40000  4.02449e-11      2122.12
       652.50000  1.18401e-10      6239.76
       652.60000  1.18401e-10      6236.21
       652.70000  1.18401e-10      6232.65
       652.80000  1.18401e-10      6226.73
       652.90000  1.18401e-10      6222.00
       653.00000  1.18401e-10      6216.08
       653.10000  1.18401e-10      6211.34
       653.20000  1.18401e-10      6206.60
       653.30000  1.18401e-10      6199.50
       653.40000  1.18401e-10      6192.40
       653.50000  4.90003e-11      2559.78
       653.60000  4.90003e-11      2556.35
       653.70000  4.90003e-11      2552.43
       653.80000  4.89406e-11      2544.91
       653.90000  4.89406e-11      2540.51
       654.00000  4.89406e-11      2535.61
       654.10000  4.89406e-11      2530.72
       654.20000  4.89406e-11      2524.85
       654.30000  4.89406e-11      2518.97
       654.40000  4.89406e-11      2513.10
       654.50000  1.27173e-10      6513.82
       654.60000  1.27173e-10      6496.01
       654.70000  1.27173e-10      6476.94
       654.80000  1.27173e-10      6457.86
       654.90000  1.27173e-10      6437.51
       655.00000  1.27173e-10      6415.89
       655.10000  1.27173e-10      6354.85
       655.20000  1.27173e-10      6296.35
       655.30000  1.27173e-10      6241.67
       655.40000  1.27173e-10      6190.80
       655.50000  1.64612e-10      7950.76
       655.60000  1.64612e-10      7893.14
       655.70000  1.64612e-10      7838.82
       655.80000  1.64612e-10      7789.44
       655.90000  1.64612e-10      7743.35
       656.00000  1.64612e-10      7702.19
       656.10000  1.64612e-10      7665.98
       656.20000  1.64612e-10      7633.06
       656.30000  1.64487e-10      7599.29
       656.40000  1.64487e-10      7574.61
       656.50000  9.96898e-11      4578.75
       656.60000  9.96898e-11      4569.78
       656.70000  9.96898e-11      4562.80
       656.80000  9.96898e-11      4558.82
       656.90000  9.96898e-11      4556.82
       657.00000  9.96898e-11      4557.82
       657.10000  9.96898e-11      4596.70
       657.20000  9.96898e-11      4634.58
       657.30000  9.96898e-11      4671.47
       657.40000  9.96898e-11      4707.35
       657.50000  1.52254e-10      7241.18
       657.60000  1.52254e-10      7292.94
       657.70000  1.52254e-10      7341.66
       657.80000  1.52254e-10      7388.86
       657.90000  1.52254e-10      7433.02
       658.00000  1.52254e-10      7477.17
       658.10000  1.52254e-10      7519.80
       658.20000  1.52254e-10      7559.39
       658.30000  1.52254e-10      7597.45
       658.40000  1.52254e-10      7633.99
       658.50000  1.25623e-10      6326.40
       658.60000  1.25623e-10      6354.03
       658.70000  1.25623e-10      6379.16
       658.80000  1.25493e-10      6397.63
       658.90000  1.25493e-10      6420.22
       659.00000  1.25493e-10      6440.30
       659.10000  1.25493e-10      6460.38
       659.20000  1.25493e-10      6479.20
       659.30000  1.25493e-10      6495.52
       659.40000  1.25493e-10      6510.57
       659.50000  9.75580e-11      5072.04
       659.60000  9.75580e-11      5081.80
       659.70000  9.75580e-11      5089.60
       659.80000  9.75580e-11      5097.41
       659.90000  9.75580e-11      5103.26
       660.00000  9.75580e-11      5108.14
       660.10000  9.75580e-11      5112.04
       660.20000  9.75580e-11      5113.99
       660.30000  9.75580e-11      5115.94
       660.40000  9.75580e-11      5115.94
       660.50000  1.58260e-10      8297.56
       660.60000  1.58260e-10      8294.40
       660.70000  1.58260e-10      8289.65
       660.80000  1.58260e-10      8281.74
       660.90000  1.58260e-10      8273.83
       661.00000  1.58260e-10      8262.75
       661.10000  1.58260e-10      8258.00
       661.20000  1.58260e-10      8251.67
       661.30000  1.57867e-10      8226.44
       661.40000  1.57867e-10      8221.71
       661.50000  9.73318e-11      5066.12
       661.60000  9.73318e-11      5064.17
       661.70000  9.73318e-11      5061.25
       661.80000  9.73318e-11      5059.31
       661.90000  9.73318e-11      5057.36
       662.00000  9.73318e-11      5055.42
       662.10000  9.73318e-11      5053.47
       662.20000  9.73318e-11      5051.52
       662.30000  9.73318e-11      5050.55
       662.40000  9.73318e-11      5049.58
       662.50000  1.38388e-10      7176.78
       662.60000  1.38388e-10      7176.78
       662.70000  1.38388e-10      7175.40
       662.80000  1.38388e-10      7174.01
       662.90000  1.38388e-10      7174.01
       663.00000  1.38388e-10      7174.01
       663.10000  1.38388e-10      7179.55
       663.20000  1.38388e-10      7183.70
       663.30000  1.38388e-10      7189.23
       663.40000  1.38388e-10      7193.39
       663.50000  7.78902e-11      4051.07
       663.60000  7.78902e-11      4053.41
       663.70000  7.78902e-11      4054.96
       663.80000  7.77241e-11      4048.65
       663.90000  7.77241e-11      4050.20
       664.00000  7.77241e-11      4050.98
       664.10000  7.77241e-11      4052.53
       664.20000  7.77241e-11      4053.31
       664.30000  7.77241e-11      4054.09
       664.40000  7.77241e-11      4054.87
       664.50000  9.06504e-11      4729.23
       664.60000  9.06504e-11      4729.23
       664.70000  9.06504e-11      4729.23
       664.80000  9.06504e-11      4729.23
       664.90000  9.06504e-11      4729.23
       665.00000  9.06504e-11      4728.33
       665.10000  9.06504e-11      4727.42
       665.20000  9.06504e-11      4726.51
       665.30000  9.06504e-11      4724.70
       665.40000  9.06504e-11      4722.89
       665.50000  4.93442e-11      2569.85
       665.60000  4.93442e-11      2568.86
       665.70000  4.93442e-11      2567.38
       665.80000  4.93442e-11      2566.39
       665.90000  4.93442e-11      2564.91
       666.00000  4.93442e-11      2562.94
       666.10000  4.93442e-11      2561.46
       666.20000  4.93442e-11      2559.49
       666.30000  4.92203e-11      2551.09
       666.40000  4.92203e-11      2549.12
       666.50000  4.87696e-11      2523.34
       666.60000  4.87696e-11      2520.90
       666.70000  4.87696e-11      2518.46
       666.80000  4.87696e-11      2516.03
       666.90000  4.87696e-11      2513.59
       667.00000  4.87696e-11      2510.66
       667.10000  4.87696e-11      2513.59
       667.20000  4.87696e-11      2516.03
       667.30000  4.87696e-11      2518.46
       667.40000  4.87696e-11      2520.90
       667.50000  6.52477e-11      3375.92
       667.60000  6.52477e-11      3378.53
       667.70000  6.52477e-11      3381.14
       667.80000  6.52477e-11      3383.09
       667.90000  6.52477e-11      3385.05
       668.00000  6.52477e-11      3387.01
       668.10000  6.52477e-11      3388.97
       668.20000  6.52477e-11      3390.27
       668.30000  6.52477e-11      3391.58
       668.40000  6.52477e-11      3392.23
       668.50000  7.20901e-11      3748.69
       668.60000  7.20901e-11      3749.41
       668.70000  7.20901e-11      3749.41
       668.80000  7.19722e-11      3743.28
       668.90000  7.19722e-11      3743.28
       669.00000  7.19722e-11      3742.56
       669.10000  7.19722e-11      3737.52
       669.20000  7.19722e-11      3732.48
       669.30000  7.19722e-11      3728.16
       669.40000  7.19722e-11      3723.84
       669.50000  3.88020e-11      2005.29
       669.60000  3.88020e-11      2002.96
       669.70000  3.88020e-11      2001.02
       669.80000  3.88020e-11      1999.08
       669.90000  3.88020e-11      1997.14
       670.00000  3.88020e-11      1995.59
       670.10000  3.88020e-11      1994.04
       670.20000  3.88020e-11      1992.48
       670.30000  3.88020e-11      1990.93
       670.40000  3.88020e-11      1989.77
       670.50000  9.93329e-11      5090.81
       670.60000  9.93329e-11      5087.83
       670.70000  9.93329e-11      5085.85
       670.80000  9.93329e-11      5083.86
       670.90000  9.93329e-11      5081.87
       671.00000  9.93329e-11      5080.88
       671.10000  9.93329e-11      5078.89
       671.20000  9.93329e-11      5078.89
       671.30000  9.93367e-11      5078.09
       671.40000  9.93367e-11      5078.09
       671.50000  4.80158e-11      2454.57
       671.60000  4.80158e-11      2454.57
       671.70000  4.80158e-11      2454.57
       671.80000  4.80158e-11      2455.05
       671.90000  4.80158e-11      2455.53
       672.00000  4.80158e-11      2456.49
       672.10000  4.80158e-11      2457.45
       672.20000  4.80158e-11      2458.41
       672.30000  4.80158e-11      2459.37
       672.40000  4.80158e-11      2460.81
       672.50000  6.23183e-11      3195.68
       672.60000  6.23183e-11      3197.55
       672.70000  6.23183e-11      3199.42
       672.80000  6.23183e-11      3201.91
       672.90000  6.23183e-11      3204.40
       673.00000  6.23183e-11      3207.52
       673.10000  6.23183e-11      3206.27
       673.20000  6.23183e-11      3205.03
       673.30000  6.23183e-11      3203.78
       673.40000  6.23183e-11      3203.16
       673.50000  1.07544e-10      5525.60
       673.60000  1.07544e-10      5524.52
       673.70000  1.07544e-10      5523.45
       673.80000  1.07587e-10      5523.50
       673.90000  1.07587e-10      5522.43
       674.00000  1.07587e-10      5521.35
       674.10000  1.07587e-10      5520.27
       674.20000  1.07587e-10      5519.20
       674.30000  1.07587e-10      5518.12
       674.40000  1.07587e-10      5517.05
       674.50000  5.32428e-11      2729.76
       674.60000  5.32428e-11      2729.76
       674.70000  5.32428e-11      2729.22
       674.80000  5.32428e-11      2729.22
       674.90000  5.32428e-11      2728.69
       675.00000  5.32428e-11      2728.69
       675.10000  5.32428e-11      2729.22
       675.20000  5.32428e-11      2729.76
       675.30000  5.32428e-11      2730.29
       675.40000  5.32428e-11      2730.82
       675.50000  6.34648e-11      3255.11
       675.60000  6.34648e-11      3255.74
       675.70000  6.34648e-11      3256.38
       675.80000  6.34648e-11      3256.38
       675.90000  6.34648e-11      3257.01
       676.00000  6.34648e-11      3257.01
       676.10000  6.34648e-11      3257.65
       676.20000  6.34648e-11      3257.65
       676.30000  6.34000e-11      3254.32
       676.40000  6.34000e-11      3254.32
       676.50000  4.14875e-11      2129.97
       676.60000  4.14875e-11      2129.97
       676.70000  4.14875e-11      2129.97
       676.80000  4.14875e-11      2129.55
       676.90000  4.14875e-11      2129.55
       677.00000  4.14875e-11      2129.55
       677.10000  4.14875e-11      2129.55
       677.20000  4.14875e-11      2129.14
       677.30000  4.14875e-11      2129.14
       677.40000  4.14875e-11      2128.72
       677.50000  6.63498e-11      3404.41
       677.60000  6.63498e-11      3403.75
       677.70000  6.63498e-11      3403.75
       677.80000  6.63498e-11      3403.08
       677.90000  6.63498e-11      3402.42
       678.00000  6.63498e-11      3401.76
       678.10000  6.63498e-11      3401.09
       678.20000  6.63498e-11      3400.43
       678.30000  6.63498e-11      3399.76
       678.40000  6.63498e-11      3399.10
       678.50000  4.06621e-11      2082.30
       678.60000  4.06621e-11      2081.90
       678.70000  4.06621e-11      2081.49
       678.80000  4.06590e-11      2080.52
       678.90000  4.06590e-11      2080.11
       679.00000  4.06590e-11      2079.30
       679.10000  4.06590e-11      2079.30
       679.20000  4.06590e-11      2079.71
       679.30000  4.06590e-11      2079.71
       679.40000  4.06590e-11      2079.71
       679.50000  1.50205e-11      768.300
       679.60000  1.50205e-11      768.300
       679.70000  1.50205e-11      768.300
       679.80000  1.50205e-11      768.300
       679.90000  1.50205e-11      768.300
       680.00000  1.50205e-11      768.150
       680.10000  1.50205e-11      768.150
       680.20000  1.50205e-11      768.150
       680.30000  1.50205e-11      768.000
       680.40000  1.50205e-11      768.000
       680.50000  4.10907e-11      2100.56
       680.60000  4.10907e-11      2100.56
       680.70000  4.10907e-11      2100.14
       680.80000  4.10907e-11      2099.73
       680.90000  4.10907e-11      2099.32
       681.00000  4.10907e-11      2099.32
       681.10000  4.10907e-11      2098.91
       681.20000  4.10907e-11      2098.50
       681.30000  4.10868e-11      2098.30
       681.40000  4.10868e-11      2097.89
       681.50000  3.28625e-11      1677.63
       681.60000  3.28625e-11      1677.30
       681.70000  3.28625e-11      1676.97
       681.80000  3.28625e-11      1676.32
       681.90000  3.28625e-11      1675.99
       682.00000  3.28625e-11      1675.66
       682.10000  3.28625e-11      1675.00
       682.20000  3.28625e-11      1674.35
       682.30000  3.28625e-11      1674.02
       682.40000  3.28625e-11      1673.36
       682.50000  5.18661e-11      2639.99
       682.60000  5.18661e-11      2638.95
       682.70000  5.18661e-11      2637.91
       682.80000  5.18661e-11      2636.87
       682.90000  5.18661e-11      2635.32
       683.00000  5.18661e-11      2634.28
       683.10000  5.18661e-11      2633.24
       683.20000  5.18661e-11      2631.69
       683.30000  5.18661e-11      2630.13
       683.40000  5.18661e-11      2628.58
       683.50000  3.89021e-11      1970.78
       683.60000  3.89021e-11      1969.61
       683.70000  3.89021e-11      1968.44
       683.80000  3.88722e-11      1965.38
       683.90000  3.88722e-11      1964.21
       684.00000  3.88722e-11      1963.05
       684.10000  3.88722e-11      1961.49
       684.20000  3.88722e-11      1960.33
       684.30000  3.88722e-11      1958.77
       684.40000  3.88722e-11      1957.61
       684.50000  1.81836e-11      915.001
       684.60000  1.81836e-11      914.274
       684.70000  1.81836e-11      913.546
       684.80000  1.81836e-11      912.819
       684.90000  1.81836e-11      911.910
       685.00000  1.81836e-11      911.183
       685.10000  1.81836e-11      911.910
       685.20000  1.81836e-11      912.819
       685.30000  1.81836e-11      913.546
       685.40000  1.81836e-11      914.092
       685.50000  4.43008e-11      2228.77
       685.60000  4.43008e-11      2230.55
       685.70000  4.43008e-11      2231.88
       685.80000  4.43008e-11      2233.20
       685.90000  4.43008e-11      2234.53
       686.00000  4.43008e-11      2235.86
       686.10000  4.43008e-11      2237.19
       686.20000  4.43008e-11      2238.08
       686.30000  4.42543e-11      2237.05
       686.40000  4.42543e-11      2237.94
       686.50000  3.11034e-11      1573.52
       686.60000  3.11034e-11      1574.14
       686.70000  3.11034e-11      1574.77
       686.80000  3.11034e-11      1575.08
       686.90000  3.11034e-11      1575.70
       687.00000  3.11034e-11      1576.01
       687.10000  3.11034e-11      1576.32
       687.20000  3.11034e-11      1576.32
       687.30000  3.11034e-11      1576.32
       687.40000  3.11034e-11      1576.32
       687.50000  9.92311e-12      502.903
       687.60000  9.92311e-12      502.903
       687.70000  9.92311e-12      502.903
       687.80000  9.92311e-12      502.903
       687.90000  9.92311e-12      502.903
       688.00000  9.92311e-12      502.804
       688.10000  9.92311e-12      502.804
       688.20000  9.92311e-12      502.804
       688.30000  9.92311e-12      502.705
       688.40000  9.92311e-12      502.705
       688.50000  3.95556e-11      2003.49
       688.60000  3.95556e-11      2003.10
       688.70000  3.95556e-11      2003.10
       688.80000  3.95052e-11      2000.15
       688.90000  3.95052e-11      1999.75
       689.00000  3.95052e-11      1999.36
       689.10000  3.95052e-11      1998.96
       689.20000  3.95052e-11      1998.57
       689.30000  3.95052e-11      1998.17
       689.40000  3.95052e-11      1997.78
       689.50000  3.48359e-11      1761.30
       689.60000  3.48359e-11      1760.95
       689.70000  3.48359e-11      1760.26
       689.80000  3.48359e-11      1759.91
       689.90000  3.48359e-11      1759.56
       690.00000  3.48359e-11      1758.86
       690.10000  3.48359e-11      1758.17
       690.20000  3.48359e-11      1757.82
       690.30000  3.48359e-11      1757.12
       690.40000  3.48359e-11      1756.43
       690.50000  9.08927e-12      458.190
       690.60000  9.08927e-12      458.008
       690.70000  9.08927e-12      457.827
       690.80000  9.08927e-12      457.645
       690.90000  9.08927e-12      457.463
       691.00000  9.08927e-12      457.281
       691.10000  9.08927e-12      457.463
       691.20000  9.08927e-12      457.554
       691.30000  9.08059e-12      457.299
       691.40000  9.08059e-12      457.389
       691.50000  1.78065e-11      897.089
       691.60000  1.78065e-11      897.445
       691.70000  1.78065e-11      897.624
       691.80000  1.78065e-11      897.802
       691.90000  1.78065e-11      897.980
       692.00000  1.78065e-11      897.980
       692.10000  1.78065e-11      898.158
       692.20000  1.78065e-11      898.336
       692.30000  1.78065e-11      898.336
       692.40000  1.78065e-11      898.336
       692.50000  2.47479e-12      124.878
       692.60000  2.47479e-12      124.878
       692.70000  2.47479e-12      124.878
       692.80000  2.47479e-12      124.878
       692.90000  2.47479e-12      124.878
       693.00000  2.47479e-12      124.853
       693.10000  2.47479e-12      124.853
       693.20000  2.47479e-12      124.828
       693.30000  2.47479e-12      124.804
       693.40000  2.47479e-12      124.779
       693.50000  2.89692e-11      1460.34
       693.60000  2.89692e-11      1460.05
       693.70000  2.89692e-11      1459.76
       693.80000  2.88542e-11      1453.68
       693.90000  2.88542e-11      1453.10
       694.00000  2.88542e-11      1452.81
       694.10000  2.88542e-11      1452.52
       694.20000  2.88542e-11      1451.95
       694.30000  2.88542e-11      1451.66
       694.40000  2.88542e-11      1451.08
       694.50000  1.65172e-11      830.319
       694.60000  1.65172e-11      830.154
       694.70000  1.65172e-11      829.824
       694.80000  1.65172e-11      829.493
       694.90000  1.65172e-11      829.163
       695.00000  1.65172e-11      828.833
       695.10000  1.65172e-11      828.502
       695.20000  1.65172e-11      828.172
       695.30000  1.65172e-11      827.676
       695.40000  1.65172e-11      827.346
       695.50000  1.11980e-11      560.686
       695.60000  1.11980e-11      560.350
       695.70000  1.11980e-11      560.126
       695.80000  1.11980e-11      559.790
       695.90000  1.11980e-11      559.454
       696.00000  1.11980e-11      559.230
       696.10000  1.11980e-11      558.894
       696.20000  1.11980e-11      558.558
       696.30000  1.11870e-11      557.674
       696.40000  1.11870e-11      557.339
       696.50000  2.58565e-11      1287.39
       696.60000  2.58565e-11      1286.62
       696.70000  2.58565e-11      1285.58
       696.80000  2.58565e-11      1284.81
       696.90000  2.58565e-11      1284.03
       697.00000  2.58565e-11      1283.00
       697.10000  2.58565e-11      1284.81
       697.20000  2.58565e-11      1286.10
       697.30000  2.58565e-11      1287.65
       697.40000  2.58565e-11      1288.94
       697.50000  7.57289e-12      377.887
       697.60000  7.57289e-12      378.190
       697.70000  7.57289e-12      378.493
       697.80000  7.57289e-12      378.720
       697.90000  7.57289e-12      378.948
       698.00000  7.57289e-12      379.099
       698.10000  7.57289e-12      379.250
       698.20000  7.57289e-12      379.402
       698.30000  7.57289e-12      379.478
       698.40000  7.57289e-12      379.553
       698.50000  1.42964e-11      716.680
       698.60000  1.42964e-11      716.680
       698.70000  1.42964e-11      716.537
       698.80000  1.42720e-11      715.171
       698.90000  1.42720e-11      715.029
       699.00000  1.42720e-11      714.743
       699.10000  1.42720e-11      713.459
       699.20000  1.42720e-11      712.031
       699.30000  1.42720e-11      710.890
       699.40000  1.42720e-11      709.605
       699.50000  2.56043e-11      1271.00
       699.60000  2.56043e-11      1268.95
       699.70000  2.56043e-11      1267.16
       699.80000  2.56043e-11      1265.36
       699.90000  2.56043e-11      1263.57
       700.00000  2.56043e-11      1262.04
       700.10000  2.56043e-11      1260.50
       700.20000  2.56043e-11      1258.96
       700.30000  2.56043e-11      1257.68
       700.40000  2.56043e-11      1256.40
       700.50000  1.27486e-11      624.934
       700.60000  1.27486e-11      624.424
       700.70000  1.27486e-11      623.914
       700.80000  1.27486e-11      623.532
       700.90000  1.27486e-11      623.150
       701.00000  1.27486e-11      622.767
       701.10000  1.27486e-11      622.640
       701.20000  1.27486e-11      622.512
       701.30000  1.27399e-11      621.960
       701.40000  1.27399e-11      621.960
       701.50000  1.73094e-11      845.045
       701.60000  1.73094e-11      845.045
       701.70000  1.73094e-11      845.045
       701.80000  1.73094e-11      845.218
       701.90000  1.73094e-11      845.218
       702.00000  1.73094e-11      845.392
       702.10000  1.73094e-11      845.738
       702.20000  1.73094e-11      845.911
       702.30000  1.73094e-11      846.257
       702.40000  1.73094e-11      846.430
       702.50000  5.18497e-12      253.649
       702.60000  5.18497e-12      253.804
       702.70000  5.18497e-12      253.908
       702.80000  5.18497e-12      254.063
       702.90000  5.18497e-12      254.219
       703.00000  5.18497e-12      254.374
       703.10000  5.18497e-12      254.841
       703.20000  5.18497e-12      255.308
       703.30000  5.18497e-12      255.723
       703.40000  5.18497e-12      256.137
       703.50000  1.73183e-11      856.738
       703.60000  1.73183e-11      858.123
       703.70000  1.73183e-11      859.162
       703.80000  1.72717e-11      858.059
       703.90000  1.72717e-11      859.095
       704.00000  1.72717e-11      859.959
       704.10000  1.72717e-11      860.995
       704.20000  1.72717e-11      861.859
       704.30000  1.72717e-11      862.550
       704.40000  1.72717e-11      863.241
       704.50000  9.76312e-12      488.351
       704.60000  9.76312e-12      488.742
       704.70000  9.76312e-12      489.034
       704.80000  9.76312e-12      489.230
       704.90000  9.76312e-12      489.523
       705.00000  9.76312e-12      489.718
       705.10000  9.76312e-12      489.816
       705.20000  9.76312e-12      489.913
       705.30000  9.76312e-12      490.011
       705.40000  9.76312e-12      490.108
       705.50000  9.85599e-12      494.771
       705.60000  9.85599e-12      494.771
       705.70000  9.85599e-12      494.672
       705.80000  9.85599e-12      494.574
       705.90000  9.85599e-12      494.475
       706.00000  9.85599e-12      494.278
       706.10000  9.85599e-12      494.081
       706.20000  9.85599e-12      493.785
       706.30000  9.86340e-12      493.860
       706.40000  9.86340e-12      493.565
       706.50000  2.33037e-11      1165.19
       706.60000  2.33037e-11      1164.25
       706.70000  2.33037e-11      1163.32
       706.80000  2.33037e-11      1162.16
       706.90000  2.33037e-11      1160.99
       707.00000  2.33037e-11      1159.83
       707.10000  2.33037e-11      1158.89
       707.20000  2.33037e-11      1158.20
       707.30000  2.33037e-11      1157.26
       707.40000  2.33037e-11      1156.56
       707.50000  7.23751e-12      358.980
       707.60000  7.23751e-12      358.763
       707.70000  7.23751e-12      358.619
       707.80000  7.23751e-12      358.401
       707.90000  7.23751e-12      358.257
       708.00000  7.23751e-12      358.112
       708.10000  7.23751e-12      357.967
       708.20000  7.23751e-12      357.822
       708.30000  7.23751e-12      357.678
       708.40000  7.23751e-12      357.533
       708.50000  1.12288e-11      554.589
       708.60000  1.12288e-11      554.365
       708.70000  1.12288e-11      554.253
       708.80000  1.11906e-11      552.254
       708.90000  1.11906e-11      552.142
       709.00000  1.11906e-11      552.142
       709.10000  1.11906e-11      552.366
       709.20000  1.11906e-11      552.589
       709.30000  1.11906e-11      552.701
       709.40000  1.11906e-11      552.925
       709.50000  1.52617e-11      754.233
       709.60000  1.52617e-11      754.538
       709.70000  1.52617e-11      754.691
       709.80000  1.52617e-11      754.843
       709.90000  1.52617e-11      754.996
       710.00000  1.52617e-11      755.149
       710.10000  1.52617e-11      755.301
       710.20000  1.52617e-11      755.454
       710.30000  1.52617e-11      755.454
       710.40000  1.52617e-11      755.607
       710.50000  7.78367e-12      385.370
       710.60000  7.78367e-12      385.370
       710.70000  7.78367e-12      385.370
       710.80000  7.78367e-12      385.370
       710.90000  7.78367e-12      385.370
       711.00000  7.78367e-12      385.370
       711.10000  7.78367e-12      385.370
       711.20000  7.78367e-12      385.292
       711.30000  7.78536e-12      385.375
       711.40000  7.78536e-12      385.297
       711.50000  1.74884e-11      865.328
       711.60000  1.74884e-11      865.153
       711.70000  1.74884e-11      864.978
       711.80000  1.74884e-11      864.803
       711.90000  1.74884e-11      864.628
       712.00000  1.74884e-11      864.279
       712.10000  1.74884e-11      864.104
       712.20000  1.74884e-11      863.754
       712.30000  1.74884e-11      863.579
       712.40000  1.74884e-11      863.229
       712.50000  2.81200e-12      138.744
       712.60000  2.81200e-12      138.688
       712.70000  2.81200e-12      138.604
       712.80000  2.81200e-12      138.547
       712.90000  2.81200e-12      138.491
       713.00000  2.81200e-12      138.407
       713.10000  2.81200e-12      138.407
       713.20000  2.81200e-12      138.407
       713.30000  2.81200e-12      138.407
       713.40000  2.81200e-12      138.379
       713.50000  1.66678e-11      820.222
       713.60000  1.66678e-11      820.222
       713.70000  1.66678e-11      820.056
       713.80000  1.66639e-11      819.864
       713.90000  1.66639e-11      819.698
       714.00000  1.66639e-11      819.698
       714.10000  1.66639e-11      819.531
       714.20000  1.66639e-11      819.364
       714.30000  1.66639e-11      819.364
       714.40000  1.66639e-11      819.198
       714.50000  5.78204e-12      284.187
       714.60000  5.78204e-12      284.129
       714.70000  5.78204e-12      284.129
       714.80000  5.78204e-12      284.071
       714.90000  5.78204e-12      284.014
       715.00000  5.78204e-12      283.956
       715.10000  5.78204e-12      283.898
       715.20000  5.78204e-12      283.898
       715.30000  5.78204e-12      283.898
       715.40000  5.78204e-12      283.840
       715.50000  1.37084e-11      672.808
       715.60000  1.37084e-11      672.671
       715.70000  1.37084e-11      672.534
       715.80000  1.37084e-11      672.397
       715.90000  1.37084e-11      672.260
       716.00000  1.37084e-11      671.985
       716.10000  1.37084e-11      671.848
       716.20000  1.37084e-11      671.574
       716.30000  1.36886e-11      670.332
       716.40000  1.36886e-11      670.058
       716.50000  9.41790e-12      460.818
       716.60000  9.41790e-12      460.629
       716.70000  9.41790e-12      460.441
       716.80000  9.41790e-12      460.159
       716.90000  9.41790e-12      459.970
       717.00000  9.41790e-12      459.688
       717.10000  9.41790e-12      459.405
       717.20000  9.41790e-12      459.123
       717.30000  9.41790e-12      458.840
       717.40000  9.41790e-12      458.557
       717.50000  1.18268e-11      575.492
       717.60000  1.18268e-11      575.019
       717.70000  1.18268e-11      574.664
       717.80000  1.18268e-11      574.191
       717.90000  1.18268e-11      573.718
       718.00000  1.18268e-11      573.245
       718.10000  1.18268e-11      572.772
       718.20000  1.18268e-11      572.299
       718.30000  1.18268e-11      571.826
       718.40000  1.18268e-11      571.235
       718.50000  9.32626e-12      450.085
       718.60000  9.32626e-12      449.619
       718.70000  9.32626e-12      449.153
       718.80000  9.28796e-12      446.844
       718.90000  9.28796e-12      446.379
       719.00000  9.28796e-12      445.915
       719.10000  9.28796e-12      445.915
       719.20000  9.28796e-12      445.915
       719.30000  9.28796e-12      445.915
       719.40000  9.28796e-12      446.008
       719.50000  1.40593e-11      675.125
       719.60000  1.40593e-11      675.266
       719.70000  1.40593e-11      675.266
       719.80000  1.40593e-11      675.407
       719.90000  1.40593e-11      675.547
       720.00000  1.40593e-11      675.828
       720.10000  1.40593e-11      675.969
       720.20000  1.40593e-11      676.109
       720.30000  1.40593e-11      676.391
       720.40000  1.40593e-11      676.531
       720.50000  8.01822e-12      385.997
       720.60000  8.01822e-12      386.158
       720.70000  8.01822e-12      386.318
       720.80000  8.01822e-12      386.478
       720.90000  8.01822e-12      386.719
       721.00000  8.01822e-12      386.879
       721.10000  8.01822e-12      387.280
       721.20000  8.01822e-12      387.681
       721.30000  8.00190e-12      387.292
       721.40000  8.00190e-12      387.612
       721.50000  1.49392e-11      724.402
       721.60000  1.49392e-11      725.000
       721.70000  1.49392e-11      725.597
       721.80000  1.49392e-11      726.344
       721.90000  1.49392e-11      726.942
       722.00000  1.49392e-11      727.390
       722.10000  1.49392e-11      727.987
       722.20000  1.49392e-11      728.585
       722.30000  1.49392e-11      729.033
       722.40000  1.49392e-11      729.481
       722.50000  9.82081e-12      479.845
       722.60000  9.82081e-12      480.238
       722.70000  9.82081e-12      480.434
       722.80000  9.82081e-12      480.729
       722.90000  9.82081e-12      481.023
       723.00000  9.82081e-12      481.220
       723.10000  9.82081e-12      481.514
       723.20000  9.82081e-12      481.711
       723.30000  9.82081e-12      481.907
       723.40000  9.82081e-12      482.104
       723.50000  1.31317e-11      644.897
       723.60000  1.31317e-11      645.029
       723.70000  1.31317e-11      645.291
       723.80000  1.30914e-11      643.442
       723.90000  1.30914e-11      643.573
       724.00000  1.30914e-11      643.704
       724.10000  1.30914e-11      643.835
       724.20000  1.30914e-11      643.966
       724.30000  1.30914e-11      644.097
       724.40000  1.30914e-11      644.228
       724.50000  3.77768e-12      185.899
       724.60000  3.77768e-12      185.899
       724.70000  3.77768e-12      185.899
       724.80000  3.77768e-12      185.899
       724.90000  3.77768e-12      185.899
       725.00000  3.77768e-12      185.899
       725.10000  3.77768e-12      185.975
       725.20000  3.77768e-12      186.051
       725.30000  3.77768e-12      186.088
       725.40000  3.77768e-12      186.164
       725.50000  1.19479e-11      588.914
       725.60000  1.19479e-11      589.034
       725.70000  1.19479e-11      589.034
       725.80000  1.19479e-11      589.153
       725.90000  1.19479e-11      589.153
       726.00000  1.19479e-11      589.153
       726.10000  1.19479e-11      589.153
       726.20000  1.19479e-11      589.153
       726.30000  1.19168e-11      587.501
       726.40000  1.19168e-11      587.381
       726.50000  1.51259e-11      745.406
       726.60000  1.51259e-11      745.255
       726.70000  1.51259e-11      745.104
       726.80000  1.51259e-11      744.801
       726.90000  1.51259e-11      744.499
       727.00000  1.51259e-11      744.196
       727.10000  1.51259e-11      743.137
       727.20000  1.51259e-11      742.079
       727.30000  1.51259e-11      741.020
       727.40000  1.51259e-11      740.112
       727.50000  9.74736e-12      476.354
       727.60000  9.74736e-12      475.769
       727.70000  9.74736e-12      475.281
       727.80000  9.74736e-12      474.794
       727.90000  9.74736e-12      474.307
       728.00000  9.74736e-12      473.917
       728.10000  9.74736e-12      473.527
       728.20000  9.74736e-12      473.137
       728.30000  9.74736e-12      472.747
       728.40000  9.74736e-12      472.455
       728.50000  9.11387e-12      441.476
       728.60000  9.11387e-12      441.293
       728.70000  9.11387e-12      441.020
       728.80000  9.11579e-12      441.022
       728.90000  9.11579e-12      440.840
       729.00000  9.11579e-12      440.748
       729.10000  9.11579e-12      440.657
       729.20000  9.11579e-12      440.566
       729.30000  9.11579e-12      440.566
       729.40000  9.11579e-12      440.475
       729.50000  1.10631e-11      534.679
       729.60000  1.10631e-11      534.679
       729.70000  1.10631e-11      534.790
       729.80000  1.10631e-11      534.900
       729.90000  1.10631e-11      535.121
       730.00000  1.10631e-11      535.343
       730.10000  1.10631e-11      535.564
       730.20000  1.10631e-11      535.785
       730.30000  1.10631e-11      536.117
       730.40000  1.10631e-11      536.449
       730.50000  7.21380e-12      350.013
       730.60000  7.21380e-12      350.302
       730.70000  7.21380e-12      350.591
       730.80000  7.21380e-12      350.879
       730.90000  7.21380e-12      351.240
       731.00000  7.21380e-12      351.601
       731.10000  7.21380e-12      351.528
       731.20000  7.21380e-12      351.456
       731.30000  7.20849e-12      351.125
       731.40000  7.20849e-12      351.125
       731.50000  1.00723e-11      490.519
       731.60000  1.00723e-11      490.418
       731.70000  1.00723e-11      490.317
       731.80000  1.00723e-11      490.317
       731.90000  1.00723e-11      490.217
       732.00000  1.00723e-11      490.116
       732.10000  1.00723e-11      490.015
       732.20000  1.00723e-11      489.914
       732.30000  1.00723e-11      489.914
       732.40000  1.00723e-11      489.814
       732.50000  8.66229e-12      421.161
       732.60000  8.66229e-12      421.074
       732.70000  8.66229e-12      420.988
       732.80000  8.66229e-12      420.901
       732.90000  8.66229e-12      420.814
       733.00000  8.66229e-12      420.728
       733.10000  8.66229e-12      420.641
       733.20000  8.66229e-12      420.468
       733.30000  8.66229e-12      420.381
       733.40000  8.66229e-12      420.208
       733.50000  4.69089e-12      227.508
       733.60000  4.69089e-12      227.461
       733.70000  4.69089e-12      227.367
       733.80000  4.68314e-12      226.945
       733.90000  4.68314e-12      226.898
       734.00000  4.68314e-12      226.851
       734.10000  4.68314e-12      226.804
       734.20000  4.68314e-12      226.758
       734.30000  4.68314e-12      226.711
       734.40000  4.68314e-12      226.711
       734.50000  1.20099e-11      581.280
       734.60000  1.20099e-11      581.160
       734.70000  1.20099e-11      581.160
       734.80000  1.20099e-11      581.040
       734.90000  1.20099e-11      581.040
       735.00000  1.20099e-11      580.919
       735.10000  1.20099e-11      580.919
       735.20000  1.20099e-11      580.919
       735.30000  1.20099e-11      580.919
       735.40000  1.20099e-11      580.799
       735.50000  1.09410e-11      529.106
       735.60000  1.09410e-11      529.106
       735.70000  1.09410e-11      529.106
       735.80000  1.09410e-11      529.216
       735.90000  1.09410e-11      529.216
       736.00000  1.09410e-11      529.216
       736.10000  1.09410e-11      529.216
       736.20000  1.09410e-11      529.325
       736.30000  1.09201e-11      528.315
       736.40000  1.09201e-11      528.424
       736.50000  1.01613e-11      491.705
       736.60000  1.01613e-11      491.807
       736.70000  1.01613e-11      491.909
       736.80000  1.01613e-11      491.909
       736.90000  1.01613e-11      492.010
       737.00000  1.01613e-11      492.112
       737.10000  1.01613e-11      491.604
       737.20000  1.01613e-11      490.994
       737.30000  1.01613e-11      490.486
       737.40000  1.01613e-11      489.978
       737.50000  7.65125e-12      368.484
       737.60000  7.65125e-12      368.102
       737.70000  7.65125e-12      367.719
       737.80000  7.65125e-12      367.336
       737.90000  7.65125e-12      367.030
       738.00000  7.65125e-12      366.648
       738.10000  7.65125e-12      366.265
       738.20000  7.65125e-12      365.883
       738.30000  7.65125e-12      365.577
       738.40000  7.65125e-12      365.271
       738.50000  6.44506e-12      307.365
       738.60000  6.44506e-12      307.107
       738.70000  6.44506e-12      306.850
       738.80000  6.41799e-12      305.304
       738.90000  6.41799e-12      305.047
       739.00000  6.41799e-12      304.790
       739.10000  6.41799e-12      304.277
       739.20000  6.41799e-12      303.828
       739.30000  6.41799e-12      303.443
       739.40000  6.41799e-12      303.058
       739.50000  8.62703e-12      406.851
       739.60000  8.62703e-12      406.419
       739.70000  8.62703e-12      406.074
       739.80000  8.62703e-12      405.643
       739.90000  8.62703e-12      405.384
       740.00000  8.62703e-12      405.039
       740.10000  8.62703e-12      404.866
       740.20000  8.62703e-12      404.608
       740.30000  8.62703e-12      404.435
       740.40000  8.62703e-12      404.349
       740.50000  1.10402e-11      517.341
       740.60000  1.10402e-11      517.231
       740.70000  1.10402e-11      517.231
       740.80000  1.10402e-11      517.231
       740.90000  1.10402e-11      517.341
       741.00000  1.10402e-11      517.452
       741.10000  1.10402e-11      517.673
       741.20000  1.10402e-11      517.894
       741.30000  1.10326e-11      517.762
       741.40000  1.10326e-11      518.093
       741.50000  7.10253e-12      333.748
       741.60000  7.10253e-12      334.032
       741.70000  7.10253e-12      334.387
       741.80000  7.10253e-12      334.671
       741.90000  7.10253e-12      335.097
       742.00000  7.10253e-12      335.452
       742.10000  7.10253e-12      335.878
       742.20000  7.10253e-12      336.376
       742.30000  7.10253e-12      336.873
       742.40000  7.10253e-12      337.370
       742.50000  8.52157e-12      405.456
       742.60000  8.52157e-12      406.138
       742.70000  8.52157e-12      406.905
       742.80000  8.52157e-12      407.672
       742.90000  8.52157e-12      408.524
       743.00000  8.52157e-12      409.376
       743.10000  8.52157e-12      409.206
       743.20000  8.52157e-12      409.120
       743.30000  8.52157e-12      409.035
       743.40000  8.52157e-12      408.865
       743.50000  1.11138e-11      533.127
       743.60000  1.11138e-11      533.016
       743.70000  1.11138e-11      532.904
       743.80000  1.11088e-11      532.555
       743.90000  1.11088e-11      532.444
       744.00000  1.11088e-11      532.333
       744.10000  1.11088e-11      532.333
       744.20000  1.11088e-11      532.222
       744.30000  1.11088e-11      532.222
       744.40000  1.11088e-11      532.222
       744.50000  1.05532e-11      505.500
       744.60000  1.05532e-11      505.500
       744.70000  1.05532e-11      505.500
       744.80000  1.05532e-11      505.500
       744.90000  1.05532e-11      505.605
       745.00000  1.05532e-11      505.605
       745.10000  1.05532e-11      505.922
       745.20000  1.05532e-11      506.239
       745.30000  1.05532e-11      506.450
       745.40000  1.05532e-11      506.766
       745.50000  5.36601e-12      257.783
       745.60000  5.36601e-12      257.891
       745.70000  5.36601e-12      257.998
       745.80000  5.36601e-12      258.105
       745.90000  5.36601e-12      258.159
       746.00000  5.36601e-12      258.266
       746.10000  5.36601e-12      258.320
       746.20000  5.36601e-12      258.374
       746.30000  5.34154e-12      257.249
       746.40000  5.34154e-12      257.302
       746.50000  1.01571e-11      489.370
       746.60000  1.01571e-11      489.370
       746.70000  1.01571e-11      489.472
       746.80000  1.01571e-11      489.472
       746.90000  1.01571e-11      489.472
       747.00000  1.01571e-11      489.472
       747.10000  1.01571e-11      489.167
       747.20000  1.01571e-11      488.964
       747.30000  1.01571e-11      488.761
       747.40000  1.01571e-11      488.557
       747.50000  2.82595e-12      135.872
       747.60000  2.82595e-12      135.815
       747.70000  2.82595e-12      135.759
       747.80000  2.82595e-12      135.702
       747.90000  2.82595e-12      135.646
       748.00000  2.82595e-12      135.589
       748.10000  2.82595e-12      135.561
       748.20000  2.82595e-12      135.504
       748.30000  2.82595e-12      135.448
       748.40000  2.82595e-12      135.420
       748.50000  6.97465e-12      334.086
       748.60000  6.97465e-12      333.946
       748.70000  6.97465e-12      333.876
       748.80000  6.95006e-12      332.560
       748.90000  6.95006e-12      332.491
       749.00000  6.95006e-12      332.421
       749.10000  6.95006e-12      332.282
       749.20000  6.95006e-12      332.213
       749.30000  6.95006e-12      332.143
       749.40000  6.95006e-12      332.074
       749.50000  4.68536e-12      223.820
       749.60000  4.68536e-12      223.773
       749.70000  4.68536e-12      223.679
       749.80000  4.68536e-12      223.632
       749.90000  4.68536e-12      223.632
       750.00000  4.68536e-12      223.585
       750.10000  4.68536e-12      223.538
       750.20000  4.68536e-12      223.492
       750.30000  4.68536e-12      223.445
       750.40000  4.68536e-12      223.445
       750.50000  7.88569e-12      375.990
       750.60000  7.88569e-12      375.911
       750.70000  7.88569e-12      375.911
       750.80000  7.88569e-12      375.832
       750.90000  7.88569e-12      375.832
       751.00000  7.88569e-12      375.753
       751.10000  7.88569e-12      375.753
       751.20000  7.88569e-12      375.753
       751.30000  7.86805e-12      374.834
       751.40000  7.86805e-12      374.834
       751.50000  8.49857e-12      404.872
       751.60000  8.49857e-12      404.872
       751.70000  8.49857e-12      404.872
       751.80000  8.49857e-12      404.872
       751.90000  8.49857e-12      404.872
       752.00000  8.49857e-12      404.872
       752.10000  8.49857e-12      404.872
       752.20000  8.49857e-12      404.872
       752.30000  8.49857e-12      404.872
       752.40000  8.49857e-12      404.872
       752.50000  1.97402e-12      94.0620
       752.60000  1.97402e-12      94.0620
       752.70000  1.97402e-12      94.0620
       752.80000  1.97402e-12      94.0818
       752.90000  1.97402e-12      94.0818
       753.00000  1.97402e-12      94.1015
       753.10000  1.97402e-12      94.1015
       753.20000  1.97402e-12      94.1015
       753.30000  1.97402e-12      94.1015
       753.40000  1.97402e-12      94.1015
       753.50000  7.61717e-12      363.111
       753.60000  7.61717e-12      363.111
       753.70000  7.61717e-12      363.111
       753.80000  7.61333e-12      362.927
       753.90000  7.61333e-12      362.927
       754.00000  7.61333e-12      362.927
       754.10000  7.61333e-12      362.927
       754.20000  7.61333e-12      362.851
       754.30000  7.61333e-12      362.851
       754.40000  7.61333e-12      362.851
       754.50000  7.70695e-12      367.313
       754.60000  7.70695e-12      367.313
       754.70000  7.70695e-12      367.236
       754.80000  7.70695e-12      367.236
       754.90000  7.70695e-12      367.159
       755.00000  7.70695e-12      367.159
       755.10000  7.70695e-12      367.082
       755.20000  7.70695e-12      367.082
       755.30000  7.70695e-12      367.005
       755.40000  7.70695e-12      367.005
       755.50000  2.89138e-12      137.659
       755.60000  2.89138e-12      137.630
       755.70000  2.89138e-12      137.630
       755.80000  2.89138e-12      137.601
       755.90000  2.89138e-12      137.572
       756.00000  2.89138e-12      137.572
       756.10000  2.89138e-12      137.543
       756.20000  2.89138e-12      137.514
       756.30000  2.88677e-12      137.266
       756.40000  2.88677e-12      137.266
       756.50000  4.94805e-12      235.230
       756.60000  4.94805e-12      235.181
       756.70000  4.94805e-12      235.131
       756.80000  4.94805e-12      235.131
       756.90000  4.94805e-12      235.082
       757.00000  4.94805e-12      235.032
       757.10000  4.94805e-12      234.983
       757.20000  4.94805e-12      234.933
       757.30000  4.94805e-12      234.933
       757.40000  4.94805e-12      234.884
       757.50000  1.30156e-11      617.720
       757.60000  1.30156e-11      617.589
       757.70000  1.30156e-11      617.459
       757.80000  1.30156e-11      617.329
       757.90000  1.30156e-11      617.199
       758.00000  1.30156e-11      617.199
       758.10000  1.30156e-11      617.069
       758.20000  1.30156e-11      616.939
       758.30000  1.30156e-11      616.808
       758.40000  1.30156e-11      616.678
       758.50000  4.16568e-13      19.7328
       758.60000  4.16568e-13      19.7287
       758.70000  4.16568e-13      19.7245
       758.80000  4.15445e-13      19.6671
       758.90000  4.15445e-13      19.6630
       759.00000  4.15445e-13      19.6588
       759.10000  4.15445e-13      19.6588
       759.20000  4.15445e-13      19.6547
       759.30000  4.15445e-13      19.6547
       759.40000  4.15445e-13      19.6505
       759.50000  4.03361e-12      190.790
       759.60000  4.03361e-12      190.790
       759.70000  4.03361e-12      190.750
       759.80000  4.03361e-12      190.750
       759.90000  4.03361e-12      190.750
       760.00000  4.03361e-12      190.750
       760.10000  4.03361e-12      190.750
       760.20000  4.03361e-12      190.750
       760.30000  4.03361e-12      190.790
       760.40000  4.03361e-12      190.790
       760.50000  4.57891e-12      216.583
       760.60000  4.57891e-12      216.628
       760.70000  4.57891e-12      216.628
       760.80000  4.57891e-12      216.674
       760.90000  4.57891e-12      216.674
       761.00000  4.57891e-12      216.720
       761.10000  4.57891e-12      216.903
       761.20000  4.57891e-12      217.040
       761.30000  4.56939e-12      216.726
       761.40000  4.56939e-12      216.863
       761.50000  5.56911e-12      264.477
       761.60000  5.56911e-12      264.589
       761.70000  5.56911e-12      264.700
       761.80000  5.56911e-12      264.811
       761.90000  5.56911e-12      264.923
       762.00000  5.56911e-12      264.978
       762.10000  5.56911e-12      265.090
       762.20000  5.56911e-12      265.145
       762.30000  5.56911e-12      265.201
       762.40000  5.56911e-12      265.201
       762.50000  4.74589e-12      225.999
       762.60000  4.74589e-12      226.047
       762.70000  4.74589e-12      226.047
       762.80000  4.74589e-12      225.999
       762.90000  4.74589e-12      225.999
       763.00000  4.74589e-12      225.952
       763.10000  4.74589e-12      225.905
       763.20000  4.74589e-12      225.857
       763.30000  4.74589e-12      225.762
       763.40000  4.74589e-12      225.667
       763.50000  3.12395e-12      148.481
       763.60000  3.12395e-12      148.419
       763.70000  3.12395e-12      148.356
       763.80000  3.11595e-12      147.883
       763.90000  3.11595e-12      147.790
       764.00000  3.11595e-12      147.696
       764.10000  3.11595e-12      147.603
       764.20000  3.11595e-12      147.478
       764.30000  3.11595e-12      147.353
       764.40000  3.11595e-12      147.229
       764.50000  5.76352e-12      272.096
       764.60000  5.76352e-12      271.865
       764.70000  5.76352e-12      271.577
       764.80000  5.76352e-12      271.289
       764.90000  5.76352e-12      271.001
       765.00000  5.76352e-12      270.655
       765.10000  5.76352e-12      270.021
       765.20000  5.76352e-12      269.387
       765.30000  5.76352e-12      268.811
       765.40000  5.76352e-12      268.234
       765.50000  8.09563e-12      376.042
       765.60000  8.09563e-12      375.395
       765.70000  8.09563e-12      374.666
       765.80000  8.09563e-12      374.099
       765.90000  8.09563e-12      373.532
       766.00000  8.09563e-12      372.966
       766.10000  8.09563e-12      372.480
       766.20000  8.09563e-12      371.994
       766.30000  8.09542e-12      371.580
       766.40000  8.09542e-12      371.256
       766.50000  2.20068e-12      100.835
       766.60000  2.20068e-12      100.747
       766.70000  2.20068e-12      100.703
       766.80000  2.20068e-12      100.637
       766.90000  2.20068e-12      100.593
       767.00000  2.20068e-12      100.571
       767.10000  2.20068e-12      100.681
       767.20000  2.20068e-12      100.813
       767.30000  2.20068e-12      100.923
       767.40000  2.20068e-12      101.033
       767.50000  3.14449e-12      144.521
       767.60000  3.14449e-12      144.678
       767.70000  3.14449e-12      144.835
       767.80000  3.14449e-12      144.961
       767.90000  3.14449e-12      145.118
       768.00000  3.14449e-12      145.244
       768.10000  3.14449e-12      145.370
       768.20000  3.14449e-12      145.496
       768.30000  3.14449e-12      145.590
       768.40000  3.14449e-12      145.716
       768.50000  8.38333e-12      388.735
       768.60000  8.38333e-12      388.986
       768.70000  8.38333e-12      389.238
       768.80000  8.37887e-12      389.282
       768.90000  8.37887e-12      389.534
       769.00000  8.37887e-12      389.701
       769.10000  8.37887e-12      389.953
       769.20000  8.37887e-12      390.120
       769.30000  8.37887e-12      390.288
       769.40000  8.37887e-12      390.455
       769.50000  1.34625e-12      62.7486
       769.60000  1.34625e-12      62.7755
       769.70000  1.34625e-12      62.7890
       769.80000  1.34625e-12      62.8159
       769.90000  1.34625e-12      62.8293
       770.00000  1.34625e-12      62.8293
       770.10000  1.34625e-12      62.8428
       770.20000  1.34625e-12      62.8563
       770.30000  1.34625e-12      62.8563
       770.40000  1.34625e-12      62.8563
       770.50000  3.68725e-12      172.158
       770.60000  3.68725e-12      172.158
       770.70000  3.68725e-12      172.158
       770.80000  3.68725e-12      172.158
       770.90000  3.68725e-12      172.121
       771.00000  3.68725e-12      172.084
       771.10000  3.68725e-12      172.231
       771.20000  3.68725e-12      172.342
       771.30000  3.67596e-12      171.925
       771.40000  3.67596e-12      172.035
       771.50000  4.67917e-12      219.126
       771.60000  4.67917e-12      219.219
       771.70000  4.67917e-12      219.360
       771.80000  4.67917e-12      219.453
       771.90000  4.67917e-12      219.500
       772.00000  4.67917e-12      219.594
       772.10000  4.67917e-12      219.640
       772.20000  4.67917e-12      219.687
       772.30000  4.67917e-12      219.734
       772.40000  4.67917e-12      219.781
       772.50000  4.73084e-12      222.207
       772.60000  4.73084e-12      222.207
       772.70000  4.73084e-12      222.207
       772.80000  4.73084e-12      222.160
       772.90000  4.73084e-12      222.160
       773.00000  4.73084e-12      222.113
       773.10000  4.73084e-12      221.829
       773.20000  4.73084e-12      221.592
       773.30000  4.73084e-12      221.309
       773.40000  4.73084e-12      221.072
       773.50000  4.94452e-12      230.810
       773.60000  4.94452e-12      230.612
       773.70000  4.94452e-12      230.414
       773.80000  4.92495e-12      229.306
       773.90000  4.92495e-12      229.109
       774.00000  4.92495e-12      228.912
       774.10000  4.92495e-12      228.764
       774.20000  4.92495e-12      228.616
       774.30000  4.92495e-12      228.518
       774.40000  4.92495e-12      228.370
       774.50000  4.34614e-12      201.444
       774.60000  4.34614e-12      201.400
       774.70000  4.34614e-12      201.313
       774.80000  4.34614e-12      201.270
       774.90000  4.34614e-12      201.226
       775.00000  4.34614e-12      201.183
       775.10000  4.34614e-12      201.183
       775.20000  4.34614e-12      201.183
       775.30000  4.34614e-12      201.183
       775.40000  4.34614e-12      201.183
       775.50000  2.70987e-12      125.467
       775.60000  2.70987e-12      125.494
       775.70000  2.70987e-12      125.521
       775.80000  2.70987e-12      125.548
       775.90000  2.70987e-12      125.603
       776.00000  2.70987e-12      125.657
       776.10000  2.70987e-12      125.711
       776.20000  2.70987e-12      125.792
       776.30000  2.70300e-12      125.554
       776.40000  2.70300e-12      125.636
       776.50000  2.50592e-12      116.550
       776.60000  2.50592e-12      116.650
       776.70000  2.50592e-12      116.751
       776.80000  2.50592e-12      116.851
       776.90000  2.50592e-12      116.976
       777.00000  2.50592e-12      117.076
       777.10000  2.50592e-12      117.026
       777.20000  2.50592e-12      117.001
       777.30000  2.50592e-12      116.951
       777.40000  2.50592e-12      116.901
       777.50000  4.54994e-12      212.164
       777.60000  4.54994e-12      212.118
       777.70000  4.54994e-12      212.027
       777.80000  4.54994e-12      211.982
       777.90000  4.54994e-12      211.936
       778.00000  4.54994e-12      211.845
       778.10000  4.54994e-12      211.800
       778.20000  4.54994e-12      211.754
       778.30000  4.54994e-12      211.709
       778.40000  4.54994e-12      211.663
       778.50000  4.42253e-12      205.736
       778.60000  4.42253e-12      205.692
       778.70000  4.42253e-12      205.647
       778.80000  4.41132e-12      205.127
       778.90000  4.41132e-12      205.127
       779.00000  4.41132e-12      205.082
       779.10000  4.41132e-12      205.171
       779.20000  4.41132e-12      205.215
       779.30000  4.41132e-12      205.303
       779.40000  4.41132e-12      205.347
       779.50000  1.63546e-12      76.1470
       779.60000  1.63546e-12      76.1633
       779.70000  1.63546e-12      76.1797
       779.80000  1.63546e-12      76.1960
       779.90000  1.63546e-12      76.2124
       780.00000  1.63546e-12      76.2287
       780.10000  1.63546e-12      76.2287
       780.20000  1.63546e-12      76.2451
       780.30000  1.63546e-12      76.2451
       780.40000  1.63546e-12      76.2451
       780.50000  3.33418e-12      155.439
       780.60000  3.33418e-12      155.439
       780.70000  3.33418e-12      155.439
       780.80000  3.33418e-12      155.439
       780.90000  3.33418e-12      155.439
       781.00000  3.33418e-12      155.406
       781.10000  3.33418e-12      155.406
       781.20000  3.33418e-12      155.373
       781.30000  3.31564e-12      154.476
       781.40000  3.31564e-12      154.443
       781.50000  3.90817e-12      182.003
       781.60000  3.90817e-12      181.964
       781.70000  3.90817e-12      181.925
       781.80000  3.90817e-12      181.886
       781.90000  3.90817e-12      181.808
       782.00000  3.90817e-12      181.769
       782.10000  3.90817e-12      181.691
       782.20000  3.90817e-12      181.613
       782.30000  3.90817e-12      181.574
       782.40000  3.90817e-12      181.495
       782.50000  2.60084e-12      120.731
       782.60000  2.60084e-12      120.653
       782.70000  2.60084e-12      120.601
       782.80000  2.60084e-12      120.549
       782.90000  2.60084e-12      120.471
       783.00000  2.60084e-12      120.419
       783.10000  2.60084e-12      120.471
       783.20000  2.60084e-12      120.523
       783.30000  2.60084e-12      120.575
       783.40000  2.60084e-12      120.601
       783.50000  1.09165e-12      50.6415
       783.60000  1.09165e-12      50.6633
       783.70000  1.09165e-12      50.6742
       783.80000  1.08608e-12      50.4376
       783.90000  1.08608e-12      50.4594
       784.00000  1.08608e-12      50.4702
       784.10000  1.08608e-12      50.4811
       784.20000  1.08608e-12      50.5028
       784.30000  1.08608e-12      50.5137
       784.40000  1.08608e-12      50.5245
       784.50000  4.98573e-12      231.986
       784.60000  4.98573e-12      232.036
       784.70000  4.98573e-12      232.086
       784.80000  4.98573e-12      232.135
       784.90000  4.98573e-12      232.185
       785.00000  4.98573e-12      232.185
       785.10000  4.98573e-12      232.185
       785.20000  4.98573e-12      232.185
       785.30000  4.98573e-12      232.185
       785.40000  4.98573e-12      232.185
       785.50000  3.34193e-12      155.634
       785.60000  3.34193e-12      155.634
       785.70000  3.34193e-12      155.634
       785.80000  3.34193e-12      155.634
       785.90000  3.34193e-12      155.634
       786.00000  3.34193e-12      155.634
       786.10000  3.34193e-12      155.634
       786.20000  3.34193e-12      155.634
       786.30000  3.33632e-12      155.373
       786.40000  3.33632e-12      155.373
       786.50000  5.54692e-13      25.8320
       786.60000  5.54692e-13      25.8320
       786.70000  5.54692e-13      25.8320
       786.80000  5.54692e-13      25.8320
       786.90000  5.54692e-13      25.8320
       787.00000  5.54692e-13      25.8320
       787.10000  5.54692e-13      25.8320
       787.20000  5.54692e-13      25.8320
       787.30000  5.54692e-13      25.8320
       787.40000  5.54692e-13      25.8320
       787.50000  3.47430e-12      161.798
       787.60000  3.47430e-12      161.798
       787.70000  3.47430e-12      161.798
       787.80000  3.47430e-12      161.798
       787.90000  3.47430e-12      161.798
       788.00000  3.47430e-12      161.798
       788.10000  3.47430e-12      161.798
       788.20000  3.47430e-12      161.798
       788.30000  3.47430e-12      161.798
       788.40000  3.47430e-12      161.798
       788.50000  3.01425e-12      140.373
       788.60000  3.01425e-12      140.373
       788.70000  3.01425e-12      140.373
       788.80000  3.01477e-12      140.398
       788.90000  3.01477e-12      140.398
       789.00000  3.01477e-12      140.398
       789.10000  3.01477e-12      140.338
       789.20000  3.01477e-12      140.247
       789.30000  3.01477e-12      140.157
       789.40000  3.01477e-12      140.096
       789.50000  2.08470e-12      96.8133
       789.60000  2.08470e-12      96.7508
       789.70000  2.08470e-12      96.7091
       789.80000  2.08470e-12      96.6465
       789.90000  2.08470e-12      96.5840
       790.00000  2.08470e-12      96.5423
       790.10000  2.08470e-12      96.4798
       790.20000  2.08470e-12      96.4381
       790.30000  2.08470e-12      96.3755
       790.40000  2.08470e-12      96.3338
       790.50000  3.42672e-12      158.246
       790.60000  3.42672e-12      158.143
       790.70000  3.42672e-12      158.075
       790.80000  3.42672e-12      157.972
       790.90000  3.42672e-12      157.903
       791.00000  3.42672e-12      157.800
       791.10000  3.42672e-12      157.698
       791.20000  3.42672e-12      157.629
       791.30000  3.41673e-12      157.067
       791.40000  3.41673e-12      156.965
       791.50000  3.59070e-12      164.849
       791.60000  3.59070e-12      164.741
       791.70000  3.59070e-12      164.670
       791.80000  3.59070e-12      164.562
       791.90000  3.59070e-12      164.490
       792.00000  3.59070e-12      164.382
       792.10000  3.59070e-12      164.311
       792.20000  3.59070e-12      164.239
       792.30000  3.59070e-12      164.131
       792.40000  3.59070e-12      164.059
       792.50000  4.81860e-12      220.066
       792.60000  4.81860e-12      219.969
       792.70000  4.81860e-12      219.873
       792.80000  4.81860e-12      219.777
       792.90000  4.81860e-12      219.680
       793.00000  4.81860e-12      219.584
       793.10000  4.81860e-12      219.439
       793.20000  4.81860e-12      219.247
       793.30000  4.81860e-12      219.102
       793.40000  4.81860e-12      218.957
       793.50000  7.03623e-12      319.515
       793.60000  7.03623e-12      319.375
       793.70000  7.03623e-12      319.163
       793.80000  7.01616e-12      318.183
       793.90000  7.01616e-12      318.042
       794.00000  7.01616e-12      317.972
       794.10000  7.01616e-12      317.832
       794.20000  7.01616e-12      317.832
       794.30000  7.01616e-12      317.762
       794.40000  7.01616e-12      317.762
       794.50000  5.69787e-12      258.056
       794.60000  5.69787e-12      258.056
       794.70000  5.69787e-12      258.113
       794.80000  5.69787e-12      258.113
       794.90000  5.69787e-12      258.170
       795.00000  5.69787e-12      258.284
       795.10000  5.69787e-12      258.683
       795.20000  5.69787e-12      259.082
       795.30000  5.69787e-12      259.481
       795.40000  5.69787e-12      259.880
       795.50000  5.84839e-12      267.096
       795.60000  5.84839e-12      267.447
       795.70000  5.84839e-12      267.739
       795.80000  5.84839e-12      268.032
       795.90000  5.84839e-12      268.324
       796.00000  5.84839e-12      268.558
       796.10000  5.84839e-12      268.792
       796.20000  5.84839e-12      269.026
       796.30000  5.84061e-12      268.843
       796.40000  5.84061e-12      269.018
       796.50000  5.41349e-12      249.508
       796.60000  5.41349e-12      249.616
       796.70000  5.41349e-12      249.724
       796.80000  5.41349e-12      249.778
       796.90000  5.41349e-12      249.833
       797.00000  5.41349e-12      249.887
       797.10000  5.41349e-12      249.941
       797.20000  5.41349e-12      249.941
       797.30000  5.41349e-12      249.941
       797.40000  5.41349e-12      249.887
       797.50000  5.37394e-12      248.008
       797.60000  5.37394e-12      247.954
       797.70000  5.37394e-12      247.846
       797.80000  5.37394e-12      247.739
       797.90000  5.37394e-12      247.631
       798.00000  5.37394e-12      247.470
       798.10000  5.37394e-12      247.309
       798.20000  5.37394e-12      247.148
       798.30000  5.37394e-12      246.933
       798.40000  5.37394e-12      246.718
       798.50000  4.96316e-12      227.660
       798.60000  4.96316e-12      227.412
       798.70000  4.96316e-12      227.164
       798.80000  4.95181e-12      226.397
       798.90000  4.95181e-12      226.100
       799.00000  4.95181e-12      225.803
       799.10000  4.95181e-12      225.951
       799.20000  4.95181e-12      226.149
       799.30000  4.95181e-12      226.347
       799.40000  4.95181e-12      226.496
       799.50000  4.97972e-12      227.922
       799.60000  4.97972e-12      228.071
       799.70000  4.97972e-12      228.221
       799.80000  4.97972e-12      228.320
       799.90000  4.97972e-12      228.420
       800.00000  4.97972e-12      228.519
       800.10000  4.97972e-12      228.619
       800.20000  4.97972e-12      228.718
       800.30000  4.97972e-12      228.818
       800.40000  4.97972e-12      228.868
       800.50000  2.52288e-12      115.977
       800.60000  2.52288e-12      116.002
       800.70000  2.52288e-12      116.002
       800.80000  2.52288e-12      116.027
       800.90000  2.52288e-12      116.027
       801.00000  2.52288e-12      116.027
       801.10000  2.52288e-12      115.977
       801.20000  2.52288e-12      115.927
       801.30000  2.51548e-12      115.536
       801.40000  2.51548e-12      115.486
       801.50000  9.40514e-13      43.1602
       801.60000  9.40514e-13      43.1414
       801.70000  9.40514e-13      43.1226
       801.80000  9.40514e-13      43.1038
       801.90000  9.40514e-13      43.0850
       802.00000  9.40514e-13      43.0661
       802.10000  9.40514e-13      43.0473
       802.20000  9.40514e-13      43.0285
       802.30000  9.40514e-13      43.0097
       802.40000  9.40514e-13      42.9909
       802.50000  6.29043e-12      287.410
       802.60000  6.29043e-12      287.284
       802.70000  6.29043e-12      287.158
       802.80000  6.29043e-12      286.970
       802.90000  6.29043e-12      286.844
       803.00000  6.29043e-12      286.718
       803.10000  6.29043e-12      286.592
       803.20000  6.29043e-12      286.466
       803.30000  6.29043e-12      286.341
       803.40000  6.29043e-12      286.152
       803.50000  4.62455e-12      210.278
       803.60000  4.62455e-12      210.186
       803.70000  4.62455e-12      210.093
       803.80000  4.61018e-12      209.348
       803.90000  4.61018e-12      209.210
       804.00000  4.61018e-12      209.118
       804.10000  4.61018e-12      209.025
       804.20000  4.61018e-12      208.933
       804.30000  4.61018e-12      208.795
       804.40000  4.61018e-12      208.703
       804.50000  2.09227e-12      94.6751
       804.60000  2.09227e-12      94.6124
       804.70000  2.09227e-12      94.5705
       804.80000  2.09227e-12      94.5287
       804.90000  2.09227e-12      94.4659
       805.00000  2.09227e-12      94.4241
       805.10000  2.09227e-12      94.5078
       805.20000  2.09227e-12      94.6124
       805.30000  2.09227e-12      94.6751
       805.40000  2.09227e-12      94.7588
       805.50000  3.12754e-12      141.740
       805.60000  3.12754e-12      141.834
       805.70000  3.12754e-12      141.928
       805.80000  3.12754e-12      141.990
       805.90000  3.12754e-12      142.053
       806.00000  3.12754e-12      142.115
       806.10000  3.12754e-12      142.147
       806.20000  3.12754e-12      142.178
       806.30000  3.12142e-12      141.931
       806.40000  3.12142e-12      141.962
       806.50000  4.60999e-12      209.662
       806.60000  4.60999e-12      209.662
       806.70000  4.60999e-12      209.616
       806.80000  4.60999e-12      209.616
       806.90000  4.60999e-12      209.570
       807.00000  4.60999e-12      209.478
       807.10000  4.60999e-12      209.109
       807.20000  4.60999e-12      208.694
       807.30000  4.60999e-12      208.325
       807.40000  4.60999e-12      208.003
       807.50000  4.62604e-12      208.403
       807.60000  4.62604e-12      208.079
       807.70000  4.62604e-12      207.802
       807.80000  4.62604e-12      207.570
       807.90000  4.62604e-12      207.339
       808.00000  4.62604e-12      207.108
       808.10000  4.62604e-12      206.923
       808.20000  4.62604e-12      206.738
       808.30000  4.62604e-12      206.553
       808.40000  4.62604e-12      206.414
       808.50000  3.21434e-12      143.360
       808.60000  3.21434e-12      143.295
       808.70000  3.21434e-12      143.231
       808.80000  3.21130e-12      143.064
       808.90000  3.21130e-12      143.031
       809.00000  3.21130e-12      143.031
       809.10000  3.21130e-12      143.031
       809.20000  3.21130e-12      143.064
       809.30000  3.21130e-12      143.096
       809.40000  3.21130e-12      143.128
       809.50000  3.09228e-12      137.885
       809.60000  3.09228e-12      137.978
       809.70000  3.09228e-12      138.070
       809.80000  3.09228e-12      138.163
       809.90000  3.09228e-12      138.287
       810.00000  3.09228e-12      138.411
       810.10000  3.09228e-12      138.565
       810.20000  3.09228e-12      138.720
       810.30000  3.09228e-12      138.874
       810.40000  3.09228e-12      139.060
       810.50000  5.71599e-12      257.448
       810.60000  5.71599e-12      257.791
       810.70000  5.71599e-12      258.249
       810.80000  5.71599e-12      258.706
       810.90000  5.71599e-12      259.163
       811.00000  5.71599e-12      259.678
       811.10000  5.71599e-12      259.735
       811.20000  5.71599e-12      259.849
       811.30000  5.71223e-12      259.735
       811.40000  5.71223e-12      259.849
       811.50000  3.89598e-12      177.267
       811.60000  3.89598e-12      177.306
       811.70000  3.89598e-12      177.345
       811.80000  3.89598e-12      177.384
       811.90000  3.89598e-12      177.423
       812.00000  3.89598e-12      177.462
       812.10000  3.89598e-12      177.462
       812.20000  3.89598e-12      177.501
       812.30000  3.89598e-12      177.540
       812.40000  3.89598e-12      177.540
       812.50000  9.87824e-13      45.0151
       812.60000  9.87824e-13      45.0250
       812.70000  9.87824e-13      45.0250
       812.80000  9.87824e-13      45.0250
       812.90000  9.87824e-13      45.0250
       813.00000  9.87824e-13      45.0250
       813.10000  9.87824e-13      45.0053
       813.20000  9.87824e-13      44.9954
       813.30000  9.87824e-13      44.9756
       813.40000  9.87824e-13      44.9658
       813.50000  4.01059e-12      182.482
       813.60000  4.01059e-12      182.442
       813.70000  4.01059e-12      182.402
       813.80000  4.01015e-12      182.341
       813.90000  4.01015e-12      182.301
       814.00000  4.01015e-12      182.221
       814.10000  4.01015e-12      182.181
       814.20000  4.01015e-12      182.141
       814.30000  4.01015e-12      182.101
       814.40000  4.01015e-12      182.101
       814.50000  9.51968e-13      43.2194
       814.60000  9.51968e-13      43.2098
       814.70000  9.51968e-13      43.2003
       814.80000  9.51968e-13      43.1908
       814.90000  9.51968e-13      43.1908
       815.00000  9.51968e-13      43.1813
       815.10000  9.51968e-13      43.2194
       815.20000  9.51968e-13      43.2479
       815.30000  9.51968e-13      43.2765
       815.40000  9.51968e-13      43.2955
       815.50000  2.65412e-12      120.789
       815.60000  2.65412e-12      120.816
       815.70000  2.65412e-12      120.869
       815.80000  2.65412e-12      120.869
       815.90000  2.65412e-12      120.895
       816.00000  2.65412e-12      120.895
       816.10000  2.65412e-12      120.895
       816.20000  2.65412e-12      120.869
       816.30000  2.65405e-12      120.839
       816.40000  2.65405e-12      120.812
       816.50000  3.04765e-12      138.668
       816.60000  3.04765e-12      138.607
       816.70000  3.04765e-12      138.515
       816.80000  3.04765e-12      138.424
       816.90000  3.04765e-12      138.333
       817.00000  3.04765e-12      138.211
       817.10000  3.04765e-12      137.784
       817.20000  3.04765e-12      137.388
       817.30000  3.04765e-12      137.022
       817.40000  3.04765e-12      136.656
       817.50000  1.28380e-12      57.4242
       817.60000  1.28380e-12      57.2959
       817.70000  1.28380e-12      57.1675
       817.80000  1.28380e-12      57.0391
       817.90000  1.28380e-12      56.9364
       818.00000  1.28380e-12      56.8209
       818.10000  1.28380e-12      56.7310
       818.20000  1.28380e-12      56.6411
       818.30000  1.28380e-12      56.5513
       818.40000  1.28380e-12      56.4871
       818.50000  1.78740e-12      78.5383
       818.60000  1.78740e-12      78.4668
       818.70000  1.78740e-12      78.3953
       818.80000  1.78713e-12      78.3119
       818.90000  1.78713e-12      78.2762
       819.00000  1.78713e-12      78.2225
       819.10000  1.78713e-12      78.2047
       819.20000  1.78713e-12      78.1868
       819.30000  1.78713e-12      78.1689
       819.40000  1.78713e-12      78.1689
       819.50000  1.52376e-12      66.6647
       819.60000  1.52376e-12      66.6799
       819.70000  1.52376e-12      66.7104
       819.80000  1.52376e-12      66.7561
       819.90000  1.52376e-12      66.8018
       820.00000  1.52376e-12      66.8628
       820.10000  1.52376e-12      66.9237
       820.20000  1.52376e-12      66.9999
       820.30000  1.52376e-12      67.0913
       820.40000  1.52376e-12      67.1828
       820.50000  8.12478e-14      3.58790
       820.60000  8.12478e-14      3.59359
       820.70000  8.12478e-14      3.60009
       820.80000  8.12478e-14      3.60659
       820.90000  8.12478e-14      3.61390
       821.00000  8.12478e-14      3.62203
       821.10000  8.12478e-14      3.62040
       821.20000  8.12478e-14      3.61959
       821.30000  8.14807e-14      3.62834
       821.40000  8.14807e-14      3.62752
       821.50000  6.60354e-12      293.858
       821.60000  6.60354e-12      293.792
       821.70000  6.60354e-12      293.726
       821.80000  6.60354e-12      293.594
       821.90000  6.60354e-12      293.527
       822.00000  6.60354e-12      293.461
       822.10000  6.60354e-12      293.461
       822.20000  6.60354e-12      293.395
       822.30000  6.60354e-12      293.329
       822.40000  6.60354e-12      293.329
       822.50000  2.83432e-12      125.872
       822.60000  2.83432e-12      125.872
       822.70000  2.83432e-12      125.844
       822.80000  2.83432e-12      125.844
       822.90000  2.83432e-12      125.844
       823.00000  2.83432e-12      125.844
       823.10000  2.83432e-12      125.844
       823.20000  2.83432e-12      125.844
       823.30000  2.83432e-12      125.844
       823.40000  2.83432e-12      125.844
       823.50000  2.45862e-12      109.187
       823.60000  2.45862e-12      109.187
       823.70000  2.45862e-12      109.212
       823.80000  2.46532e-12      109.510
       823.90000  2.46532e-12      109.534
       824.00000  2.46532e-12      109.559
       824.10000  2.46532e-12      109.584
       824.20000  2.46532e-12      109.608
       824.30000  2.46532e-12      109.633
       824.40000  2.46532e-12      109.682
       824.50000  1.83482e-12      81.6495
       824.60000  1.83482e-12      81.6862
       824.70000  1.83482e-12      81.7046
       824.80000  1.83482e-12      81.7413
       824.90000  1.83482e-12      81.7780
       825.00000  1.83482e-12      81.8147
       825.10000  1.83482e-12      81.8514
       825.20000  1.83482e-12      81.8881
       825.30000  1.83482e-12      81.9431
       825.40000  1.83482e-12      81.9798
       825.50000  3.03466e-12      135.679
       825.60000  3.03466e-12      135.740
       825.70000  3.03466e-12      135.831
       825.80000  3.03466e-12      135.922
       825.90000  3.03466e-12      136.013
       826.00000  3.03466e-12      136.104
       826.10000  3.03466e-12      136.195
       826.20000  3.03466e-12      136.256
       826.30000  3.03667e-12      136.438
       826.40000  3.03667e-12      136.498
       826.50000  9.10609e-13      40.9410
       826.60000  9.10609e-13      40.9592
       826.70000  9.10609e-13      40.9774
       826.80000  9.10609e-13      40.9865
       826.90000  9.10609e-13      40.9956
       827.00000  9.10609e-13      41.0047
       827.10000  9.10609e-13      41.0047
       827.20000  9.10609e-13      41.0138
       827.30000  9.10609e-13      41.0138
       827.40000  9.10609e-13      41.0138
       827.50000  3.70426e-12      166.840
       827.60000  3.70426e-12      166.840
       827.70000  3.70426e-12      166.803
       827.80000  3.70426e-12      166.766
       827.90000  3.70426e-12      166.729
       828.00000  3.70426e-12      166.691
       828.10000  3.70426e-12      166.580
       828.20000  3.70426e-12      166.432
       828.30000  3.70426e-12      166.284
       828.40000  3.70426e-12      166.136
       828.50000  1.13877e-12      51.0396
       828.60000  1.13877e-12      50.9941
       828.70000  1.13877e-12      50.9599
       828.80000  1.13784e-12      50.8844
       828.90000  1.13784e-12      50.8389
       829.00000  1.13784e-12      50.8048
       829.10000  1.13784e-12      50.7706
       829.20000  1.13784e-12      50.7365
       829.30000  1.13784e-12      50.7024
       829.40000  1.13784e-12      50.6682
       829.50000  3.78875e-12      168.599
       829.60000  3.78875e-12      168.486
       829.70000  3.78875e-12      168.372
       829.80000  3.78875e-12      168.258
       829.90000  3.78875e-12      168.183
       830.00000  3.78875e-12      168.069
       830.10000  3.78875e-12      167.993
       830.20000  3.78875e-12      167.880
       830.30000  3.78875e-12      167.804
       830.40000  3.78875e-12      167.690
       830.50000  2.27721e-12      100.744
       830.60000  2.27721e-12      100.698
       830.70000  2.27721e-12      100.630
       830.80000  2.27721e-12      100.584
       830.90000  2.27721e-12      100.539
       831.00000  2.27721e-12      100.493
       831.10000  2.27721e-12      100.448
       831.20000  2.27721e-12      100.402
       831.30000  2.28338e-12      100.651
       831.40000  2.28338e-12      100.606
       831.50000  2.79763e-12      123.208
       831.60000  2.79763e-12      123.180
       831.70000  2.79763e-12      123.124
       831.80000  2.79763e-12      123.068
       831.90000  2.79763e-12      123.040
       832.00000  2.79763e-12      123.012
       832.10000  2.79763e-12      122.900
       832.20000  2.79763e-12      122.788
       832.30000  2.79763e-12      122.704
       832.40000  2.79763e-12      122.620
       832.50000  2.33343e-12      102.204
       832.60000  2.33343e-12      102.158
       832.70000  2.33343e-12      102.111
       832.80000  2.33343e-12      102.041
       832.90000  2.33343e-12      102.018
       833.00000  2.33343e-12      101.971
       833.10000  2.33343e-12      101.924
       833.20000  2.33343e-12      101.901
       833.30000  2.33343e-12      101.878
       833.40000  2.33343e-12      101.854
       833.50000  3.25767e-12      142.197
       833.60000  3.25767e-12      142.165
       833.70000  3.25767e-12      142.165
       833.80000  3.26107e-12      142.313
       833.90000  3.26107e-12      142.346
       834.00000  3.26107e-12      142.346
       834.10000  3.26107e-12      142.509
       834.20000  3.26107e-12      142.639
       834.30000  3.26107e-12      142.802
       834.40000  3.26107e-12      142.933
       834.50000  3.51958e-12      154.404
       834.60000  3.51958e-12      154.545
       834.70000  3.51958e-12      154.650
       834.80000  3.51958e-12      154.756
       834.90000  3.51958e-12      154.897
       835.00000  3.51958e-12      155.002
       835.10000  3.51958e-12      155.073
       835.20000  3.51958e-12      155.178
       835.30000  3.51958e-12      155.249
       835.40000  3.51958e-12      155.319
       835.50000  3.31419e-12      146.322
       835.60000  3.31419e-12      146.388
       835.70000  3.31419e-12      146.421
       835.80000  3.31419e-12      146.487
       835.90000  3.31419e-12      146.521
       836.00000  3.31419e-12      146.554
       836.10000  3.31419e-12      146.487
       836.20000  3.31419e-12      146.454
       836.30000  3.31269e-12      146.322
       836.40000  3.31269e-12      146.289
       836.50000  4.23623e-12      187.029
       836.60000  4.23623e-12      186.945
       836.70000  4.23623e-12      186.902
       836.80000  4.23623e-12      186.860
       836.90000  4.23623e-12      186.775
       837.00000  4.23623e-12      186.733
       837.10000  4.23623e-12      186.691
       837.20000  4.23623e-12      186.648
       837.30000  4.23623e-12      186.606
       837.40000  4.23623e-12      186.564
       837.50000  5.07027e-12      223.244
       837.60000  5.07027e-12      223.193
       837.70000  5.07027e-12      223.143
       837.80000  5.07027e-12      223.092
       837.90000  5.07027e-12      223.092
       838.00000  5.07027e-12      223.041
       838.10000  5.07027e-12      222.990
       838.20000  5.07027e-12      222.990
       838.30000  5.07027e-12      222.990
       838.40000  5.07027e-12      222.990
       838.50000  3.45405e-12      151.874
       838.60000  3.45405e-12      151.874
       838.70000  3.45405e-12      151.874
       838.80000  3.44360e-12      151.381
       838.90000  3.44360e-12      151.381
       839.00000  3.44360e-12      151.381
       839.10000  3.44360e-12      151.346
       839.20000  3.44360e-12      151.346
       839.30000  3.44360e-12      151.346
       839.40000  3.44360e-12      151.312
       839.50000  3.78023e-12      166.103
       839.60000  3.78023e-12      166.103
       839.70000  3.78023e-12      166.065
       839.80000  3.78023e-12      166.065
       839.90000  3.78023e-12      166.065
       840.00000  3.78023e-12      166.027
       840.10000  3.78023e-12      166.027
       840.20000  3.78023e-12      166.027
       840.30000  3.78023e-12      165.990
       840.40000  3.78023e-12      165.990
       840.50000  3.93624e-12      172.840
       840.60000  3.93624e-12      172.801
       840.70000  3.93624e-12      172.801
       840.80000  3.93624e-12      172.801
       840.90000  3.93624e-12      172.762
       841.00000  3.93624e-12      172.762
       841.10000  3.93624e-12      172.762
       841.20000  3.93624e-12      172.762
       841.30000  3.93603e-12      172.713
       841.40000  3.93603e-12      172.713
       841.50000  4.81980e-12      211.493
       841.60000  4.81980e-12      211.445
       841.70000  4.81980e-12      211.445
       841.80000  4.81980e-12      211.445
       841.90000  4.81980e-12      211.397
       842.00000  4.81980e-12      211.397
       842.10000  4.81980e-12      211.204
       842.20000  4.81980e-12      211.059
       842.30000  4.81980e-12      210.915
       842.40000  4.81980e-12      210.722
       842.50000  2.61036e-12      114.047
       842.60000  2.61036e-12      113.994
       842.70000  2.61036e-12      113.916
       842.80000  2.61036e-12      113.864
       842.90000  2.61036e-12      113.785
       843.00000  2.61036e-12      113.733
       843.10000  2.61036e-12      113.681
       843.20000  2.61036e-12      113.629
       843.30000  2.61036e-12      113.603
       843.40000  2.61036e-12      113.551
       843.50000  2.22749e-12      96.8736
       843.60000  2.22749e-12      96.8513
       843.70000  2.22749e-12      96.8291
       843.80000  2.23070e-12      96.9464
       843.90000  2.23070e-12      96.9464
       844.00000  2.23070e-12      96.9241
       844.10000  2.23070e-12      96.9910
       844.20000  2.23070e-12      97.0356
       844.30000  2.23070e-12      97.0802
       844.40000  2.23070e-12      97.1248
       844.50000  3.98834e-12      173.732
       844.60000  3.98834e-12      173.812
       844.70000  3.98834e-12      173.852
       844.80000  3.98834e-12      173.931
       844.90000  3.98834e-12      173.971
       845.00000  3.98834e-12      174.051
       845.10000  3.98834e-12      174.091
       845.20000  3.98834e-12      174.131
       845.30000  3.98834e-12      174.211
       845.40000  3.98834e-12      174.251
       845.50000  2.53023e-12      110.546
       845.60000  2.53023e-12      110.571
       845.70000  2.53023e-12      110.596
       845.80000  2.53023e-12      110.621
       845.90000  2.53023e-12      110.621
       846.00000  2.53023e-12      110.647
       846.10000  2.53023e-12      110.647
       846.20000  2.53023e-12      110.647
       846.30000  2.53689e-12      110.938
       846.40000  2.53689e-12      110.963
       846.50000  1.89013e-12      82.6745
       846.60000  1.89013e-12      82.6556
       846.70000  1.89013e-12      82.6556
       846.80000  1.89013e-12      82.6556
       846.90000  1.89013e-12      82.6367
       847.00000  1.89013e-12      82.6367
       847.10000  1.89013e-12      82.6178
       847.20000  1.89013e-12      82.6178
       847.30000  1.89013e-12      82.5989
       847.40000  1.89013e-12      82.5800
       847.50000  1.85776e-12      81.1469
       847.60000  1.85776e-12      81.1283
       847.70000  1.85776e-12      81.1097
       847.80000  1.85776e-12      81.0912
       847.90000  1.85776e-12      81.0540
       848.00000  1.85776e-12      81.0354
       848.10000  1.85776e-12      80.6453
       848.20000  1.85776e-12      80.2923
       848.30000  1.85776e-12      79.9394
       848.40000  1.85776e-12      79.6050
       848.50000  2.78360e-12      118.804
       848.60000  2.78360e-12      118.386
       848.70000  2.78360e-12      117.969
       848.80000  2.79422e-12      118.028
       848.90000  2.79422e-12      117.665
       849.00000  2.79422e-12      117.329
       849.10000  2.79422e-12      116.994
       849.20000  2.79422e-12      116.715
       849.30000  2.79422e-12      116.463
       849.40000  2.79422e-12      116.212
       849.50000  2.98813e-12      124.067
       849.60000  2.98813e-12      123.858
       849.70000  2.98813e-12      123.709
       849.80000  2.98813e-12      123.559
       849.90000  2.98813e-12      123.440
       850.00000  2.98813e-12      123.350
       850.10000  2.98813e-12      124.007
       850.20000  2.98813e-12      124.635
       850.30000  2.98813e-12      125.203
       850.40000  2.98813e-12      125.711
       850.50000  3.50646e-12      148.078
       850.60000  3.50646e-12      148.569
       850.70000  3.50646e-12      148.989
       850.80000  3.50646e-12      149.375
       850.90000  3.50646e-12      149.691
       851.00000  3.50646e-12      149.971
       851.10000  3.50646e-12      150.182
       851.20000  3.50646e-12      150.357
       851.30000  3.51017e-12      150.621
       851.40000  3.51017e-12      150.656
       851.50000  2.71482e-12      116.520
       851.60000  2.71482e-12      116.466
       851.70000  2.71482e-12      116.384
       851.80000  2.71482e-12      116.248
       851.90000  2.71482e-12      116.058
       852.00000  2.71482e-12      115.841
       852.10000  2.71482e-12      115.570
       852.20000  2.71482e-12      115.271
       852.30000  2.71482e-12      114.918
       852.40000  2.71482e-12      114.538
       852.50000  2.15530e-12      90.5659
       852.60000  2.15530e-12      90.1995
       852.70000  2.15530e-12      89.7684
       852.80000  2.15530e-12      89.3374
       852.90000  2.15530e-12      88.8417
       853.00000  2.15530e-12      88.3244
       853.10000  2.15530e-12      87.7640
       853.20000  2.15530e-12      87.1821
       853.30000  2.15530e-12      86.5570
       853.40000  2.15530e-12      85.9104
       853.50000  2.56662e-12      101.484
       853.60000  2.56662e-12      100.611
       853.70000  2.56662e-12      99.7131
       853.80000  2.57005e-12      98.8954
       853.90000  2.57005e-12      97.9188
       854.00000  2.57005e-12      96.8908
       854.10000  2.57005e-12      97.6104
       854.20000  2.57005e-12      98.3300
       854.30000  2.57005e-12      99.0239
       854.40000  2.57005e-12      99.6921
       854.50000  2.86890e-12      112.002
       854.60000  2.86890e-12      112.719
       854.70000  2.86890e-12      113.408
       854.80000  2.86890e-12      114.067
       854.90000  2.86890e-12      114.727
       855.00000  2.86890e-12      115.358
       855.10000  2.86890e-12      115.961
       855.20000  2.86890e-12      116.535
       855.30000  2.86890e-12      117.108
       855.40000  2.86890e-12      117.625
       855.50000  2.19672e-12      90.4830
       855.60000  2.19672e-12      90.8565
       855.70000  2.19672e-12      91.2299
       855.80000  2.19672e-12      91.5814
       855.90000  2.19672e-12      91.9109
       856.00000  2.19672e-12      92.2184
       856.10000  2.19672e-12      92.4601
       856.20000  2.19672e-12      92.6797
       856.30000  2.19919e-12      93.0038
       856.40000  2.19919e-12      93.2237
       856.50000  3.24289e-12      137.758
       856.60000  3.24289e-12      138.050
       856.70000  3.24289e-12      138.309
       856.80000  3.24289e-12      138.569
       856.90000  3.24289e-12      138.796
       857.00000  3.24289e-12      139.023
       857.10000  3.24289e-12      139.250
       857.20000  3.24289e-12      139.444
       857.30000  3.24289e-12      139.639
       857.40000  3.24289e-12      139.801
       857.50000  1.76619e-12      76.2286
       857.60000  1.76619e-12      76.3169
       857.70000  1.76619e-12      76.3875
       857.80000  1.76619e-12      76.4582
       857.90000  1.76619e-12      76.5112
       858.00000  1.76619e-12      76.5818
       858.10000  1.76619e-12      76.6171
       858.20000  1.76619e-12      76.6525
       858.30000  1.76619e-12      76.6878
       858.40000  1.76619e-12      76.7054
       858.50000  2.88585e-12      125.361
       858.60000  2.88585e-12      125.390
       858.70000  2.88585e-12      125.390
       858.80000  2.89458e-12      125.769
       858.90000  2.89458e-12      125.741
       859.00000  2.89458e-12      125.712
       859.10000  2.89458e-12      125.683
       859.20000  2.89458e-12      125.625
       859.30000  2.89458e-12      125.567
       859.40000  2.89458e-12      125.480
       859.50000  1.21484e-12      52.6267
       859.60000  1.21484e-12      52.5903
       859.70000  1.21484e-12      52.5417
       859.80000  1.21484e-12      52.4810
       859.90000  1.21484e-12      52.4324
       860.00000  1.21484e-12      52.3716
       860.10000  1.21484e-12      52.3595
       860.20000  1.21484e-12      52.3473
       860.30000  1.21484e-12      52.3473
       860.40000  1.21484e-12      52.3473
       860.50000  2.73485e-12      117.817
       860.60000  2.73485e-12      117.817
       860.70000  2.73485e-12      117.817
       860.80000  2.73485e-12      117.817
       860.90000  2.73485e-12      117.817
       861.00000  2.73485e-12      117.817
       861.10000  2.73485e-12      117.817
       861.20000  2.73485e-12      117.817
       861.30000  2.74384e-12      118.204
       861.40000  2.74384e-12      118.232
       861.50000  3.64388e-12      157.015
       861.60000  3.64388e-12      157.015
       861.70000  3.64388e-12      157.051
       861.80000  3.64388e-12      157.088
       861.90000  3.64388e-12      157.088
       862.00000  3.64388e-12      157.124
       862.10000  3.64388e-12      157.634
       862.20000  3.64388e-12      158.071
       862.30000  3.64388e-12      158.472
       862.40000  3.64388e-12      158.837
       862.50000  3.51364e-12      153.440
       862.60000  3.51364e-12      153.686
       862.70000  3.51364e-12      153.897
       862.80000  3.51364e-12      154.073
       862.90000  3.51364e-12      154.178
       863.00000  3.51364e-12      154.249
       863.10000  3.51364e-12      154.284
       863.20000  3.51364e-12      154.284
       863.30000  3.51364e-12      154.214
       863.40000  3.51364e-12      154.108
       863.50000  2.88702e-12      126.509
       863.60000  2.88702e-12      126.336
       863.70000  2.88702e-12      126.134
       863.80000  2.89509e-12      126.255
       863.90000  2.89509e-12      125.994
       864.00000  2.89509e-12      125.676
       864.10000  2.89509e-12      125.329
       864.20000  2.89509e-12      124.952
       864.30000  2.89509e-12      124.518
       864.40000  2.89509e-12      124.084
       864.50000  1.48495e-12      63.3775
       864.60000  1.48495e-12      63.1102
       864.70000  1.48495e-12      62.8132
       864.80000  1.48495e-12      62.5162
       864.90000  1.48495e-12      62.1747
       865.00000  1.48495e-12      61.8331
       865.10000  1.48495e-12      61.4619
       865.20000  1.48495e-12      61.0758
       865.30000  1.48495e-12      60.6749
       865.40000  1.48495e-12      60.2442
       865.50000  2.35588e-12      94.8714
       865.60000  2.35588e-12      94.1411
       865.70000  2.35588e-12      93.3872
       865.80000  2.35588e-12      92.5862
       865.90000  2.35588e-12      91.7617
       866.00000  2.35588e-12      90.9135
       866.10000  2.35588e-12      91.2434
       866.20000  2.35588e-12      91.5496
       866.30000  2.36285e-12      92.1510
       866.40000  2.36285e-12      92.4582
       866.50000  1.95225e-12      76.6451
       866.60000  1.95225e-12      76.8989
       866.70000  1.95225e-12      77.1527
       866.80000  1.95225e-12      77.4065
       866.90000  1.95225e-12      77.6408
       867.00000  1.95225e-12      77.8751
       867.10000  1.95225e-12      78.1093
       867.20000  1.95225e-12      78.3436
       867.30000  1.95225e-12      78.5779
       867.40000  1.95225e-12      78.7926
       867.50000  4.25830e-12      172.333
       867.60000  4.25830e-12      172.802
       867.70000  4.25830e-12      173.270
       867.80000  4.25830e-12      173.739
       867.90000  4.25830e-12      174.164
       868.00000  4.25830e-12      174.590
       868.10000  4.25830e-12      175.059
       868.20000  4.25830e-12      175.527
       868.30000  4.25830e-12      175.953
       868.40000  4.25830e-12      176.379
       868.50000  1.91876e-12      79.6667
       868.60000  1.91876e-12      79.8394
       868.70000  1.91876e-12      80.0313
       868.80000  1.92356e-12      80.3857
       868.90000  1.92356e-12      80.5588
       869.00000  1.92356e-12      80.7127
       869.10000  1.92356e-12      80.8666
       869.20000  1.92356e-12      81.0204
       869.30000  1.92356e-12      81.1743
       869.40000  1.92356e-12      81.3090
       869.50000  1.43007e-12      60.5492
       869.60000  1.43007e-12      60.6350
       869.70000  1.43007e-12      60.7208
       869.80000  1.43007e-12      60.8066
       869.90000  1.43007e-12      60.8924
       870.00000  1.43007e-12      60.9782
       870.10000  1.43007e-12      61.0497
       870.20000  1.43007e-12      61.1212
       870.30000  1.43007e-12      61.1784
       870.40000  1.43007e-12      61.2356
       870.50000  3.77983e-13      16.2003
       870.60000  3.77983e-13      16.2155
       870.70000  3.77983e-13      16.2268
       870.80000  3.77983e-13      16.2419
       870.90000  3.77983e-13      16.2495
       871.00000  3.77983e-13      16.2608
       871.10000  3.77983e-13      16.2684
       871.20000  3.77983e-13      16.2759
       871.30000  3.80180e-13      16.3782
       871.40000  3.80180e-13      16.3820
       871.50000  2.63761e-12      113.681
       871.60000  2.63761e-12      113.707
       871.70000  2.63761e-12      113.707
       871.80000  2.63761e-12      113.734
       871.90000  2.63761e-12      113.707
       872.00000  2.63761e-12      113.707
       872.10000  2.63761e-12      113.628
       872.20000  2.63761e-12      113.576
       872.30000  2.63761e-12      113.496
       872.40000  2.63761e-12      113.444
       872.50000  1.12028e-12      48.1497
       872.60000  1.12028e-12      48.1272
       872.70000  1.12028e-12      48.1048
       872.80000  1.12028e-12      48.0824
       872.90000  1.12028e-12      48.0488
       873.00000  1.12028e-12      48.0264
       873.10000  1.12028e-12      48.0040
       873.20000  1.12028e-12      47.9816
       873.30000  1.12028e-12      47.9592
       873.40000  1.12028e-12      47.9368
       873.50000  1.85019e-13      7.91325
       873.60000  1.85019e-13      7.90955
       873.70000  1.85019e-13      7.90585
       873.80000  1.85996e-13      7.94574
       873.90000  1.85996e-13      7.94202
       874.00000  1.85996e-13      7.93830
       877.00000  3.18276e-12      135.745
       877.10000  3.18276e-12      135.840
       877.20000  3.18276e-12      135.936
       877.30000  3.18276e-12      136.031
       877.40000  3.18276e-12      136.158
       877.50000  6.48608e-12      277.734
       877.60000  6.48608e-12      277.993
       877.70000  6.48608e-12      278.253
       877.80000  6.48608e-12      278.512
       877.90000  6.48608e-12      278.837
       878.00000  6.48608e-12      279.161
       878.10000  6.48608e-12      278.772
       878.20000  6.48608e-12      278.448
       878.30000  6.48608e-12      278.123
       878.40000  6.48608e-12      277.799
       878.50000  2.14133e-12      91.6062
       878.60000  2.14133e-12      91.5205
       878.70000  2.14133e-12      91.4134
       878.80000  2.15094e-12      91.7376
       878.90000  2.15094e-12      91.6516
       879.00000  2.15094e-12      91.5656
       883.00000  1.64753e-12      70.0530
       883.10000  1.64753e-12      70.0859
       883.20000  1.64753e-12      70.1189
       883.30000  1.64753e-12      70.1353
       883.40000  1.64753e-12      70.1518
       883.50000  3.69174e-12      157.231
       883.60000  3.69174e-12      157.231
       883.70000  3.69174e-12      157.231
       883.80000  3.70518e-12      157.804
       883.90000  3.70518e-12      157.767
       884.00000  3.70518e-12      157.730
       886.00000  8.02109e-12      335.281
       888.00000  8.95501e-12      377.543
       890.00000  9.29379e-12      396.287
       890.10000  9.29379e-12      396.008
       890.20000  9.29379e-12      395.730
       890.30000  9.29379e-12      395.451
       890.40000  9.29379e-12      395.172
       890.50000  1.27445e-11      541.515
       890.60000  1.27445e-11      541.132
       890.70000  1.27445e-11      540.750
       890.80000  1.27445e-11      540.368
       890.90000  1.27445e-11      539.985
       891.00000  1.27445e-11      539.730
       893.00000  3.80567e-12      159.838
       899.00000  3.22486e-09      135057.
       899.10000  3.64289e-09      152419.
       899.20000  3.46373e-09      144784.
       899.30000  3.70261e-09      154621.
       899.40000  3.52345e-09      146999.
       899.50000  1.86018e-08      775322.
       899.60000  2.16388e-08      900823.
       899.70000  2.92314e-08  1.21573e+06
       899.80000  1.67036e-08      693869.
       899.90000  2.35369e-08      976548.
       900.00000  2.20184e-08      912444.
       900.10000  2.23981e-08      925488.
       900.20000  1.97407e-08      813710.
       900.30000  2.16388e-08      889571.
       900.40000  2.50555e-08  1.02778e+06
       900.50000  2.97813e-08  1.21895e+06
       900.60000  2.40878e-08      983987.
       900.70000  2.97813e-08  1.21418e+06
       900.80000  2.49637e-08  1.01627e+06
       900.90000  2.27739e-08      925760.
       901.00000  3.10952e-08  1.26215e+06
       901.10000  2.84674e-08  1.15435e+06
       901.20000  2.58397e-08  1.04676e+06
       901.30000  2.11077e-08      854229.
       901.40000  2.37462e-08      960533.
       901.50000  1.91472e-08      774122.
       901.60000  2.22108e-08      897760.
       901.70000  2.83379e-08  1.14513e+06
       901.80000  1.45519e-08      588042.
       901.90000  1.91472e-08      773931.
       902.00000  2.41255e-08      975636.
       902.10000  2.10620e-08      854694.
       902.20000  1.49348e-08      607997.
       902.30000  1.99131e-08      813252.
       902.40000  3.36991e-08  1.38032e+06
       902.50000  2.34755e-08      964373.
       902.60000  2.52539e-08  1.04021e+06
       902.70000  2.38312e-08      984228.
       902.80000  1.88515e-08      780453.
       902.90000  1.38719e-08      575683.
       903.00000  1.99186e-08      828414.
       903.10000  2.31198e-08      963633.
       903.20000  2.16970e-08      906069.
       903.30000  2.06300e-08      862952.
       903.40000  1.92072e-08      804782.
       903.50000  1.19796e-08      502665.
       903.60000  1.81509e-08      762702.
       903.70000  1.85140e-08      779067.
       903.80000  1.86120e-08      783939.
       903.90000  2.04367e-08      861817.
       904.00000  1.82471e-08      770027.
       904.10000  2.11666e-08      893867.
       904.20000  2.22614e-08      940769.
       904.30000  1.78821e-08      756057.
       904.40000  1.60574e-08      679069.
       904.50000  3.07601e-08  1.30115e+06
       904.60000  2.61876e-08  1.10800e+06
       904.70000  2.66033e-08  1.12559e+06
       904.80000  2.24466e-08      949489.
       904.90000  2.57720e-08  1.08990e+06
       905.00000  2.24466e-08      948816.
       905.10000  2.95131e-08  1.24693e+06
       905.20000  2.03682e-08      859944.
       905.30000  1.62114e-08      683959.
       905.40000  2.36936e-08      998684.
       905.50000  2.08185e-08      876459.
       905.60000  1.56139e-08      656563.
       905.70000  1.63574e-08      687010.
       905.80000  2.41643e-08  1.01345e+06
       905.90000  1.97032e-08      824974.
       906.00000  2.00750e-08      839134.
       906.10000  2.56514e-08  1.07120e+06
       906.20000  2.49078e-08  1.03940e+06
       906.30000  3.36127e-08  1.40165e+06
       906.40000  2.57697e-08  1.07357e+06
       906.50000  2.32695e-08      968709.
       906.60000  2.53471e-08  1.05444e+06
       906.70000  2.24384e-08      932766.
       906.80000  2.36850e-08      983876.
       906.90000  1.86987e-08      776183.
       907.00000  1.82832e-08      758386.
       907.10000  2.11919e-08      878403.
       907.20000  2.53471e-08  1.04988e+06
       907.30000  2.82558e-08  1.16951e+06
       907.40000  2.36850e-08      979612.
       907.50000  1.42928e-08      590723.
       907.60000  1.21126e-08      500371.
       907.70000  1.76844e-08      730010.
       907.80000  1.88956e-08      779444.
       907.90000  1.38083e-08      569318.
       908.00000  1.28393e-08      528980.
       908.10000  1.38083e-08      568351.
       908.20000  1.42928e-08      587864.
       908.30000  1.76844e-08      726650.
       908.40000  1.35661e-08      557023.
       908.50000  1.46083e-08      599380.
       908.60000  1.83381e-08      751864.
       908.70000  1.58516e-08      649599.
       908.80000  1.59061e-08      651356.
       908.90000  1.59061e-08      651037.
       909.00000  1.68418e-08      688997.
       909.10000  1.71537e-08      701413.
       909.20000  2.12082e-08      866777.
       909.30000  2.08963e-08      853613.
       909.40000  1.84012e-08      751505.
       909.50000  1.60897e-08      656942.
       909.60000  1.80699e-08      737615.
       909.70000  1.41094e-08      575805.
       909.80000  1.43569e-08      585763.
       909.90000  1.31193e-08      535266.
       910.00000  8.16861e-09      333197.
       910.10000  1.26242e-08      514941.
       910.20000  1.48520e-08      605814.
       910.30000  1.18816e-08      484770.
       910.40000  1.11390e-08      454472.
       910.50000  1.50527e-08      614299.
       910.60000  1.60135e-08      653510.
       910.70000  1.28108e-08      522936.
       910.80000  1.34513e-08      549352.
       910.90000  2.78634e-08  1.13822e+06
       911.00000  2.72229e-08  1.11233e+06
       911.10000  1.85756e-08      759372.
       911.20000  1.72945e-08      707347.
       911.30000  2.11574e-08      865760.
       911.40000  1.92340e-08      787439.
       911.50000  1.57080e-08      643558.
       911.60000  1.27628e-08      523146.
       911.70000  1.61989e-08      664479.
       911.80000  1.59535e-08      654890.
       911.90000  1.10447e-08      453717.
       912.00000  1.25173e-08      514713.
       912.10000  1.52172e-08      626490.
       912.20000  1.86533e-08      768702.
       912.30000  1.30082e-08      536589.
       912.40000  1.39900e-08      577646.
       912.50000  1.41782e-08      585987.
       912.60000  1.39458e-08      576938.
       912.70000  1.25512e-08      519746.
       912.80000  1.30161e-08      539387.
       912.90000  1.13891e-08      472305.
       913.00000  1.32485e-08      549814.
       913.10000  1.71998e-08      714309.
       913.20000  1.48755e-08      618078.
       913.30000  1.11566e-08      463894.
       913.40000  1.11566e-08      464117.
       913.50000  1.78753e-08      743970.
       913.60000  1.94163e-08      808494.
       913.70000  1.84917e-08      770179.
       913.80000  1.61116e-08      671211.
       913.90000  1.51821e-08      632791.
       914.00000  1.27034e-08      529605.
       914.10000  1.54920e-08      645550.
       914.20000  2.07592e-08      864829.
       914.30000  1.76608e-08      735573.
       914.40000  2.16887e-08      903119.
       914.50000  1.66063e-08      691321.
       914.60000  1.66063e-08      690989.
       914.70000  1.66063e-08      690823.
       914.80000  1.56483e-08      650812.
       914.90000  1.56483e-08      650655.
       915.00000  1.88418e-08      783253.
       915.10000  2.04386e-08      849426.
       915.20000  1.59676e-08      663455.
       915.30000  1.85224e-08      769422.
       915.40000  2.39514e-08      994703.
       915.50000  8.19628e-09      340309.
       915.60000  1.05689e-08      438714.
       915.70000  7.54920e-09      313292.
       915.80000  1.03532e-08      429554.
       915.90000  8.84335e-09      366822.
       916.00000  1.18630e-08      491960.
       916.10000  1.50984e-08      625980.
       916.20000  1.07846e-08      447021.
       916.30000  1.06443e-08      441099.
       916.40000  1.34683e-08      557991.
       916.50000  1.33372e-08      552426.
       916.60000  9.76472e-09      404455.
       916.70000  7.62124e-09      315596.
       916.80000  1.09555e-08      453559.
       916.90000  1.59570e-08      660459.
       917.00000  1.35753e-08      561748.
       917.10000  1.59570e-08      660300.
       917.20000  1.33372e-08      551759.
       917.30000  1.21464e-08      502373.
       917.40000  1.19082e-08      492404.
       917.50000  1.25141e-08      517458.
       917.60000  1.45164e-08      600107.
       917.70000  1.35152e-08      558585.
       917.80000  1.50169e-08      620650.
       917.90000  1.72695e-08      713575.
       918.00000  1.37655e-08      568654.
       918.10000  1.37655e-08      568929.
       918.20000  1.55175e-08      641648.
       918.30000  1.75198e-08      724792.
       918.40000  1.37655e-08      569617.
       918.50000  1.49672e-08      619492.
       918.60000  1.44683e-08      598987.
       918.70000  1.24727e-08      516368.
       918.80000  1.33440e-08      552443.
       918.90000  1.53582e-08      635830.
       919.00000  1.53582e-08      635830.
       919.10000  1.18334e-08      489784.
       919.20000  1.30923e-08      541758.
       919.30000  1.15816e-08      479131.
       919.40000  1.78760e-08      739171.
       919.50000  7.74616e-09      320149.
       919.60000  8.83062e-09      364793.
       919.70000  7.74616e-09      319839.
       919.80000  8.05600e-09      332391.
       919.90000  7.90108e-09      325841.
       920.00000  9.60524e-09      395832.
       920.10000  9.45031e-09      388597.
       920.20000  8.05600e-09      330618.
       920.30000  8.83062e-09      361702.
       920.40000  1.02249e-08      417995.
       920.50000  1.30719e-08      533332.
       920.60000  1.30719e-08      532417.
       920.70000  1.28205e-08      521281.
       920.80000  1.30719e-08      530718.
       920.90000  1.30719e-08      529803.
       921.00000  1.28205e-08      518845.
       921.10000  1.33233e-08      538393.
       921.20000  1.10608e-08      446414.
       921.30000  1.16114e-08      467939.
       921.40000  1.43880e-08      579118.
       921.50000  1.42388e-08      572402.
       921.60000  1.24590e-08      500353.
       921.70000  1.06791e-08      428447.
       921.80000  1.11241e-08      445854.
       921.90000  1.20140e-08      481042.
       922.00000  1.37939e-08      551893.
       922.10000  1.29040e-08      515771.
       922.20000  1.09016e-08      435520.
       922.30000  1.15691e-08      461837.
       922.40000  1.04567e-08      417220.
       922.50000  1.79856e-08      717084.
       922.60000  1.96458e-08      783080.
       922.70000  1.63254e-08      650402.
       922.80000  1.60487e-08      639218.
       922.90000  1.30049e-08      517857.
       923.00000  1.60487e-08      638897.
       923.10000  1.41117e-08      561789.
       923.20000  1.24515e-08      495571.
       923.30000  1.41117e-08      561647.
       923.40000  1.77089e-08      704990.
       923.50000  1.40546e-08      559515.
       923.60000  2.18928e-08      871771.
       923.70000  1.72980e-08      688980.
       923.80000  1.54410e-08      615323.
       923.90000  1.67954e-08      669466.
       924.00000  1.57119e-08      626589.
       924.10000  1.81499e-08      723819.
       924.20000  1.40865e-08      561770.
       924.30000  1.57119e-08      626589.
       924.40000  1.67954e-08      669802.
       924.50000  1.20618e-08      481026.
       924.60000  1.22735e-08      489466.
       924.70000  1.67173e-08      666853.
       924.80000  1.26967e-08      506598.
       924.90000  1.05806e-08      422165.
       925.00000  1.39664e-08      557397.
       925.10000  1.37547e-08      549227.
       925.20000  1.75637e-08      701496.
       925.30000  1.46012e-08      583317.
       925.40000  1.50244e-08      600526.
       925.50000  1.32131e-08      528394.
       925.60000  1.28560e-08      514370.
       925.70000  1.30346e-08      521774.
       925.80000  1.08919e-08      436221.
       925.90000  1.24989e-08      500832.
       926.00000  1.39274e-08      558487.
       926.10000  1.37488e-08      552152.
       926.20000  1.35703e-08      545931.
       926.30000  8.42693e-09      339521.
       926.40000  1.43437e-08      578769.
       926.50000  1.46948e-08      593818.
       926.60000  1.61235e-08      652357.
       926.70000  1.67358e-08      677966.
       926.80000  1.59194e-08      645691.
       926.90000  1.48989e-08      605045.
       927.00000  1.55112e-08      630531.
       927.10000  1.75522e-08      714197.
       927.20000  2.02054e-08      822966.
       927.30000  2.08177e-08      848528.
       927.40000  2.34709e-08      957378.
       927.50000  2.88306e-08  1.17687e+06
       927.60000  3.11188e-08  1.27089e+06
       927.70000  2.72289e-08  1.11285e+06
       927.80000  2.70001e-08  1.10404e+06
       927.90000  3.02035e-08  1.23532e+06
       928.00000  3.22629e-08  1.31987e+06
       928.10000  3.38646e-08  1.38472e+06
       928.20000  3.91273e-08  1.59913e+06
       928.30000  4.37036e-08  1.78485e+06
       928.40000  4.00426e-08  1.63454e+06
       928.50000  3.67098e-08  1.49776e+06
       928.60000  4.03050e-08  1.64364e+06
       928.70000  4.44680e-08  1.81252e+06
       928.80000  4.52450e-08  1.84328e+06
       928.90000  4.80965e-08  1.95849e+06
       929.00000  5.53205e-08  2.25210e+06
       929.10000  5.77919e-08  2.35155e+06
       929.20000  6.44456e-08  2.62100e+06
       929.30000  7.35706e-08  2.99138e+06
       929.40000  8.06045e-08  3.27577e+06
       929.50000  1.19812e-07  4.86795e+06
       929.60000  1.30561e-07  5.30338e+06
       929.70000  1.45242e-07  5.89684e+06
       929.80000  1.66478e-07  6.75734e+06
       929.90000  1.79587e-07  7.28762e+06
       930.00000  1.91122e-07  7.75382e+06
       930.10000  2.25466e-07  9.14717e+06
       930.20000  2.60335e-07  1.05618e+07
       930.30000  2.89698e-07  1.17502e+07
       930.40000  3.15391e-07  1.27922e+07
       930.50000  2.66334e-07  1.08025e+07
       930.60000  3.19085e-07  1.29421e+07
       930.70000  3.61921e-07  1.46759e+07
       930.80000  3.97419e-07  1.61153e+07
       930.90000  4.51161e-07  1.82946e+07
       931.00000  5.36832e-07  2.17686e+07
       931.10000  6.19330e-07  2.51138e+07
       931.20000  6.93896e-07  2.81305e+07
       931.30000  7.74913e-07  3.14150e+07
       931.40000  9.16947e-07  3.71730e+07
       931.50000  1.07054e-06  4.33997e+07
       931.60000  1.17396e-06  4.75923e+07
       931.70000  1.31295e-06  5.32271e+07
       931.80000  1.49374e-06  6.05563e+07
       931.90000  1.76940e-06  7.17313e+07
       932.00000  1.98537e-06  8.04869e+07
       932.10000  2.18987e-06  8.87775e+07
       932.20000  2.48127e-06  1.00591e+08
       932.30000  2.90195e-06  1.17645e+08
       932.40000  3.29891e-06  1.33738e+08
       932.50000  3.28373e-06  1.33122e+08
       932.60000  3.65245e-06  1.48070e+08
       932.70000  4.14134e-06  1.67890e+08
       932.80000  4.71386e-06  1.91147e+08
       932.90000  5.06012e-06  2.05188e+08
       933.00000  5.41761e-06  2.19684e+08
       933.10000  6.01633e-06  2.43962e+08
       933.20000  6.82652e-06  2.76815e+08
       933.30000  7.21503e-06  2.92642e+08
       933.40000  7.65918e-06  3.10656e+08
       933.50000  8.32681e-06  3.37736e+08
       933.60000  9.05666e-06  3.67429e+08
       933.70000  9.66937e-06  3.92286e+08
       933.80000  1.01617e-05  4.12259e+08
       933.90000  1.05707e-05  4.28957e+08
       934.00000  1.12001e-05  4.54502e+08
       934.10000  1.18329e-05  4.79825e+08
       934.20000  1.21380e-05  4.91834e+08
       934.30000  1.24836e-05  5.05463e+08
       934.40000  1.29415e-05  5.23614e+08
       934.50000  1.57581e-05  6.37102e+08
       934.60000  1.60605e-05  6.49005e+08
       934.70000  1.63519e-05  6.60452e+08
       934.80000  1.66471e-05  6.71878e+08
       934.90000  1.69971e-05  6.85663e+08
       935.00000  1.72075e-05  6.93978e+08
       935.10000  1.73516e-05  6.99442e+08
       935.20000  1.75112e-05  7.05524e+08
       935.30000  1.76843e-05  7.12324e+08
       935.40000  1.78490e-05  7.18781e+08
       935.50000  1.80627e-05  7.27205e+08
       935.60000  1.81365e-05  7.29992e+08
       935.70000  1.82412e-05  7.34026e+08
       935.80000  1.83533e-05  7.38354e+08
       935.90000  1.84123e-05  7.40727e+08
       936.00000  1.84665e-05  7.42724e+08
       936.10000  1.85481e-05  7.46560e+08
       936.20000  1.86322e-05  7.50506e+08
       936.30000  1.87663e-05  7.56468e+08
       936.40000  1.88148e-05  7.58988e+08
       936.50000  1.62996e-05  6.57850e+08
       936.60000  1.63772e-05  6.61310e+08
       936.70000  1.64321e-05  6.63855e+08
       936.80000  1.64683e-05  6.65650e+08
       936.90000  1.65063e-05  6.67350e+08
       937.00000  1.65508e-05  6.69482e+08
       937.10000  1.66018e-05  6.71708e+08
       937.20000  1.66328e-05  6.73129e+08
       937.30000  1.66601e-05  6.74232e+08
       937.40000  1.66856e-05  6.75434e+08
       937.50000  1.44633e-05  5.85475e+08
       937.60000  1.44814e-05  5.86206e+08
       937.70000  1.44908e-05  5.86588e+08
       937.80000  1.44996e-05  5.86943e+08
       937.90000  1.45058e-05  5.87049e+08
       938.00000  1.45058e-05  5.87049e+08
       938.10000  1.45066e-05  5.86936e+08
       938.20000  1.45054e-05  5.86600e+08
       938.30000  1.44887e-05  5.85778e+08
       938.40000  1.44728e-05  5.84844e+08
       938.50000  1.94261e-05  7.84814e+08
       938.60000  1.94071e-05  7.83658e+08
       938.70000  1.93865e-05  7.82247e+08
       938.80000  1.93956e-05  7.82225e+08
       938.90000  1.93632e-05  7.80337e+08
       939.00000  1.93387e-05  7.78962e+08
       939.10000  1.93012e-05  7.76874e+08
       939.20000  1.92392e-05  7.73610e+08
       939.30000  1.91845e-05  7.70833e+08
       939.40000  1.91514e-05  7.68738e+08
       939.50000  1.51512e-05  6.07563e+08
       939.60000  1.51051e-05  6.05112e+08
       939.70000  1.50434e-05  6.02039e+08
       939.80000  1.50090e-05  6.00061e+08
       939.90000  1.49659e-05  5.97590e+08
       940.00000  1.49091e-05  5.94575e+08
       940.10000  1.48328e-05  5.90494e+08
       940.20000  1.47878e-05  5.87667e+08
       940.30000  1.47499e-05  5.85276e+08
       940.40000  1.47019e-05  5.82491e+08
       940.50000  1.22099e-05  4.83022e+08
       940.60000  1.21533e-05  4.80176e+08
       940.70000  1.21111e-05  4.77902e+08
       940.80000  1.20661e-05  4.75524e+08
       940.90000  1.19951e-05  4.72127e+08
       941.00000  1.19098e-05  4.68293e+08
       941.10000  1.18544e-05  4.65639e+08
       941.20000  1.17859e-05  4.62595e+08
       941.30000  1.16909e-05  4.58517e+08
       941.40000  1.15473e-05  4.52540e+08
       941.50000  1.32361e-05  5.18326e+08
       941.60000  1.31140e-05  5.13281e+08
       941.70000  1.29251e-05  5.05629e+08
       941.80000  1.26126e-05  4.93151e+08
       941.90000  1.23611e-05  4.83071e+08
       942.00000  1.21369e-05  4.74188e+08
       942.10000  1.19093e-05  4.65653e+08
       942.20000  1.14819e-05  4.49171e+08
       942.30000  1.09694e-05  4.29450e+08
       942.40000  1.06654e-05  4.17764e+08
       942.50000  1.30876e-05  5.12903e+08
       942.60000  1.24349e-05  4.87695e+08
       942.70000  1.15932e-05  4.54918e+08
       942.80000  1.10157e-05  4.32477e+08
       942.90000  1.04586e-05  4.10814e+08
       943.00000  9.80905e-06  3.85496e+08
       943.10000  8.94724e-06  3.51895e+08
       943.20000  8.19783e-06  3.22585e+08
       943.30000  7.69213e-06  3.02839e+08
       943.40000  7.09550e-06  2.79492e+08
       943.50000  4.36678e-06  1.72095e+08
       943.60000  3.84118e-06  1.51458e+08
       943.70000  3.58451e-06  1.41409e+08
       943.80000  3.26577e-06  1.28900e+08
       943.90000  2.84991e-06  1.12543e+08
       944.00000  2.42754e-06  9.59120e+07
       944.10000  2.18202e-06  8.62551e+07
       944.20000  1.98163e-06  7.83736e+07
       944.30000  1.76112e-06  6.96700e+07
       944.40000  1.46662e-06  5.80487e+07
       944.50000  1.38087e-06  5.46823e+07
       944.60000  1.23514e-06  4.89361e+07
       944.70000  1.09878e-06  4.35446e+07
       944.80000  9.25586e-07  3.66995e+07
       944.90000  7.74687e-07  3.07318e+07
       945.00000  6.94714e-07  2.75663e+07
       945.10000  6.27666e-07  2.49184e+07
       945.20000  5.31053e-07  2.10934e+07
       945.30000  4.42517e-07  1.75812e+07
       945.40000  4.02127e-07  1.59845e+07
       945.50000  3.03671e-07  1.20739e+07
       945.60000  2.69658e-07  1.07270e+07
       945.70000  2.27380e-07  9.04746e+06
       945.80000  2.03125e-07  8.08639e+06
       945.90000  1.86186e-07  7.41394e+06
       946.00000  1.68435e-07  6.70876e+06
       946.10000  1.46212e-07  5.82654e+06
       946.20000  1.25208e-07  4.99205e+06
       946.30000  1.15486e-07  4.60674e+06
       946.40000  1.07760e-07  4.30070e+06
       946.50000  7.79305e-08  3.11177e+06
       946.60000  6.67199e-08  2.66479e+06
       946.70000  6.23662e-08  2.49215e+06
       946.80000  5.91010e-08  2.36227e+06
       946.90000  5.19174e-08  2.07566e+06
       947.00000  4.56046e-08  1.82418e+06
       947.10000  4.33189e-08  1.73319e+06
       947.20000  3.91830e-08  1.56810e+06
       947.30000  3.76592e-08  1.50750e+06
       947.40000  3.30878e-08  1.32484e+06
       947.50000  7.26388e-08  2.90846e+06
       947.60000  6.96122e-08  2.78797e+06
       947.70000  6.53245e-08  2.61690e+06
       947.80000  5.90191e-08  2.36430e+06
       947.90000  5.34703e-08  2.14255e+06
       948.00000  5.04436e-08  2.02128e+06
       948.10000  4.66604e-08  1.86968e+06
       948.20000  4.69126e-08  1.87979e+06
       948.30000  4.13638e-08  1.65703e+06
       948.40000  3.95983e-08  1.58631e+06
       948.50000  2.43667e-08      975887.
       948.60000  2.43667e-08      975887.
       948.70000  2.33920e-08      936852.
       948.80000  1.98798e-08      795987.
       948.90000  1.84132e-08      737266.
       949.00000  1.85762e-08      743605.
       949.10000  1.85762e-08      743605.
       949.20000  2.29758e-08      919492.
       949.30000  1.66208e-08      665165.
       949.40000  1.51543e-08      606322.
       949.50000  1.88501e-08      754191.
       949.60000  1.71047e-08      684188.
       949.70000  1.55339e-08      621199.
       949.80000  1.51848e-08      607239.
       949.90000  1.62320e-08      648956.
       950.00000  1.30903e-08      523220.
       950.10000  1.60575e-08      641817.
       950.20000  1.36139e-08      544013.
       950.30000  1.36139e-08      543877.
       950.40000  1.46612e-08      585714.
       950.50000  1.04072e-08      415663.
       950.60000  1.21417e-08      484819.
       950.70000  1.04072e-08      415455.
       950.80000  9.68446e-09      386604.
       950.90000  9.68446e-09      386507.
       951.00000  9.68446e-09      386410.
       951.10000  9.53992e-09      380547.
       951.20000  9.97355e-09      397745.
       951.30000  9.96404e-09      397366.
       951.40000  1.16969e-08      466356.
       951.50000  6.72856e-09      268201.
       951.60000  6.22392e-09      248023.
       951.70000  5.63517e-09      224505.
       951.80000  5.71928e-09      227799.
       951.90000  6.05571e-09      241138.
       952.00000  6.13981e-09      244426.
       952.10000  5.46696e-09      217202.
       952.20000  5.46696e-09      216765.
       952.30000  6.30803e-09      249672.
       952.40000  6.22392e-09      245907.
       952.50000  1.36944e-08      540107.
       952.60000  1.25840e-08      495434.
       952.70000  1.23990e-08      487404.
       952.80000  9.80815e-09      384970.
       952.90000  1.03633e-08      406139.
       953.00000  1.11036e-08      434593.
       953.10000  9.99321e-09      390634.
       953.20000  1.35093e-08      527404.
       953.30000  1.14737e-08      447474.
       953.40000  1.12886e-08      439692.
       953.50000  9.82127e-09      382146.
       953.60000  1.03207e-08      401267.
       953.70000  9.15542e-09      355596.
       953.80000  9.00813e-09      349605.
       953.90000  1.05095e-08      407558.
       954.00000  1.05095e-08      407348.
       954.10000  1.08431e-08      420171.
       954.20000  1.01758e-08      394212.
       954.30000  8.67449e-09      336050.
       954.40000  1.23445e-08      478225.
       954.50000  7.03588e-09      272500.
       954.60000  6.41870e-09      248596.
       954.70000  7.03588e-09      272500.
       954.80000  8.27024e-09      320307.
       954.90000  6.41870e-09      248660.
       955.00000  7.89994e-09      306044.
       955.10000  7.89994e-09      306122.
       955.20000  7.03588e-09      272640.
       955.30000  6.41870e-09      248789.
       955.40000  7.28275e-09      282352.
       955.50000  5.64820e-09      219037.
       955.60000  5.36100e-09      207953.
       955.70000  6.98845e-09      271152.
       955.80000  7.27565e-09      282441.
       955.90000  6.79699e-09      263927.
       956.00000  4.78661e-09      185960.
       956.10000  5.64820e-09      219546.
       956.20000  5.55247e-09      215880.
       956.30000  4.99498e-09      194305.
       956.40000  5.18709e-09      201933.
       956.50000  5.99360e-09      233451.
       956.60000  7.91155e-09      308313.
       956.70000  8.51091e-09      331925.
       956.80000  7.07244e-09      275967.
       956.90000  6.23334e-09      243412.
       957.00000  7.67180e-09      299814.
       957.10000  6.35321e-09      248474.
       957.20000  6.71283e-09      262740.
       957.30000  8.03142e-09      314671.
       957.40000  7.19232e-09      282011.
       957.50000  5.58195e-09      219036.
       957.60000  7.24465e-09      284570.
       957.70000  6.29453e-09      247501.
       957.80000  7.12589e-09      280475.
       957.90000  7.48218e-09      294798.
       958.00000  6.88836e-09      271677.
       958.10000  6.88836e-09      271677.
       958.20000  6.88836e-09      271608.
       958.30000  6.88836e-09      271608.
       958.40000  6.88836e-09      271608.
       958.50000  7.54609e-10      29754.2
       958.60000  7.54609e-10      29746.7
       958.70000  7.54609e-10      29746.7
       958.80000  7.55388e-10      29777.4
       958.90000  7.55388e-10      29769.9
       959.00000  7.55388e-10      29769.9
       959.10000  7.55388e-10      29762.3
       959.20000  7.55388e-10      29762.3
       959.30000  7.55388e-10      29754.8
       959.40000  7.55388e-10      29747.2
       959.50000  6.56665e-10      25859.5
       959.60000  6.56665e-10      25852.9
       959.70000  6.56665e-10      25852.9
       959.80000  6.56665e-10      25846.3
       959.90000  6.56665e-10      25839.8
       960.00000  6.56665e-10      25833.2
       960.10000  6.56665e-10      25826.6
       960.20000  6.56665e-10      25820.1
       960.30000  6.56665e-10      25813.5
       960.40000  6.56665e-10      25806.9
       960.50000  1.01578e-09      39910.1
       960.60000  1.01578e-09      39899.9
       960.70000  1.01578e-09      39889.8
       960.80000  1.01578e-09      39879.6
       960.90000  1.01578e-09      39869.4
       961.00000  1.01578e-09      39859.3
       961.10000  1.01578e-09      39849.1
       961.20000  1.01578e-09      39839.0
       961.30000  1.01777e-09      39907.0
       961.40000  1.01777e-09      39896.8
       961.50000  1.00397e-09      39345.4
       961.60000  1.00397e-09      39325.3
       961.70000  1.00397e-09      39315.3
       961.80000  1.00397e-09      39305.3
       961.90000  1.00397e-09      39295.2
       962.00000  1.00397e-09      39285.2
       962.10000  1.00397e-09      39265.1
       962.20000  1.00397e-09      39255.1
       962.30000  1.00397e-09      39245.0
       962.40000  1.00397e-09      39224.9
       962.50000  9.30385e-10      36340.8
       962.60000  9.30385e-10      36331.5
       962.70000  9.30385e-10      36312.9
       962.80000  9.30385e-10      36303.6
       962.90000  9.30385e-10      36285.0
       963.00000  9.30385e-10      36275.7
       963.10000  9.30385e-10      36266.4
       963.20000  9.30385e-10      36247.8
       963.30000  9.30385e-10      36238.5
       963.40000  9.30385e-10      36219.9
       963.50000  9.96043e-10      38766.0
       963.60000  9.96043e-10      38746.1
       963.70000  9.96043e-10      38736.1
       963.80000  9.98147e-10      38798.0
       963.90000  9.98147e-10      38778.0
       964.00000  9.98147e-10      38768.0
       964.10000  9.98147e-10      38748.1
       964.20000  9.98147e-10      38718.1
       964.30000  9.98147e-10      38698.1
       964.40000  9.98147e-10      38688.2
       964.50000  1.13378e-09      43922.5
       964.60000  1.13378e-09      43899.8
       964.70000  1.13378e-09      43888.5
       964.80000  1.13378e-09      43865.8
       964.90000  1.13378e-09      43854.4
       965.00000  1.13378e-09      43831.8
       965.10000  1.13378e-09      43820.4
       965.20000  1.13378e-09      43809.1
       965.30000  1.13378e-09      43797.8
       965.40000  1.13378e-09      43797.8
       965.50000  8.96134e-10      34608.7
       965.60000  8.96134e-10      34599.7
       965.70000  8.96134e-10      34599.7
       965.80000  8.96134e-10      34590.8
       965.90000  8.96134e-10      34590.8
       966.00000  8.96134e-10      34590.8
       966.10000  8.96134e-10      34599.7
       966.20000  8.96134e-10      34608.7
       966.30000  8.99073e-10      34740.2
       966.40000  8.99073e-10      34749.2
       966.50000  9.75174e-10      37700.2
       966.60000  9.75174e-10      37710.0
       966.70000  9.75174e-10      37719.7
       966.80000  9.75174e-10      37729.5
       966.90000  9.75174e-10      37739.2
       967.00000  9.75174e-10      37749.0
       967.10000  9.75174e-10      37758.7
       967.20000  9.75174e-10      37768.5
       967.30000  9.75174e-10      37778.2
       967.40000  9.75174e-10      37788.0
       967.50000  8.09014e-10      31349.3
       967.60000  8.09014e-10      31357.4
       967.70000  8.09014e-10      31365.5
       967.80000  8.09014e-10      31365.5
       967.90000  8.09014e-10      31373.6
       968.00000  8.09014e-10      31381.6
       968.10000  8.09014e-10      31381.6
       968.20000  8.09014e-10      31389.7
       968.30000  8.09014e-10      31389.7
       968.40000  8.09014e-10      31389.7
       968.50000  6.71043e-10      26043.2
       968.60000  6.71043e-10      26043.2
       968.70000  6.71043e-10      26043.2
       968.80000  6.72628e-10      26111.4
       968.90000  6.72628e-10      26111.4
       969.00000  6.72628e-10      26111.4
       969.10000  6.72628e-10      26111.4
       969.20000  6.72628e-10      26111.4
       969.30000  6.72628e-10      26111.4
       969.40000  6.72628e-10      26111.4
       969.50000  8.07363e-10      31341.8
       969.60000  8.07363e-10      31341.8
       969.70000  8.07363e-10      31341.8
       969.80000  8.07363e-10      31341.8
       969.90000  8.07363e-10      31341.8
       970.00000  8.07363e-10      31341.8
       970.10000  8.07363e-10      31349.9
       970.20000  8.07363e-10      31358.0
       970.30000  8.07363e-10      31358.0
       970.40000  8.07363e-10      31366.1
       970.50000  8.45861e-10      32861.7
       970.60000  8.45861e-10      32870.2
       970.70000  8.45861e-10      32870.2
       970.80000  8.45861e-10      32870.2
       970.90000  8.45861e-10      32870.2
       971.00000  8.45861e-10      32870.2
       971.10000  8.45861e-10      32870.2
       971.20000  8.45861e-10      32861.7
       971.30000  8.47232e-10      32914.9
       971.40000  8.47232e-10      32906.5
       971.50000  9.39509e-10      36490.5
       971.60000  9.39509e-10      36481.1
       971.70000  9.39509e-10      36471.7
       971.80000  9.39509e-10      36462.3
       971.90000  9.39509e-10      36452.9
       972.00000  9.39509e-10      36434.2
       972.10000  9.39509e-10      36396.6
       972.20000  9.39509e-10      36359.0
       972.30000  9.39509e-10      36330.8
       972.40000  9.39509e-10      36293.2
       972.50000  7.11861e-10      27477.8
       972.60000  7.11861e-10      27449.3
       972.70000  7.11861e-10      27428.0
       972.80000  7.11861e-10      27406.6
       972.90000  7.11861e-10      27385.3
       973.00000  7.11861e-10      27371.0
       973.10000  7.11861e-10      27349.7
       973.20000  7.11861e-10      27335.4
       973.30000  7.11861e-10      27321.2
       973.40000  7.11861e-10      27307.0
       973.50000  8.17102e-10      31327.7
       973.60000  8.17102e-10      31311.4
       973.70000  8.17102e-10      31303.2
       973.80000  8.17544e-10      31303.8
       973.90000  8.17544e-10      31295.6
       974.00000  8.17544e-10      31287.4
       974.10000  8.17544e-10      31295.6
       974.20000  8.17544e-10      31312.0
       974.30000  8.17544e-10      31320.1
       974.40000  8.17544e-10      31328.3
       974.50000  9.33409e-10      35777.6
       974.60000  9.33409e-10      35786.9
       974.70000  9.33409e-10      35796.2
       974.80000  9.33409e-10      35805.6
       974.90000  9.33409e-10      35805.6
       975.00000  9.33409e-10      35814.9
       975.10000  9.33409e-10      35824.2
       975.20000  9.33409e-10      35824.2
       975.30000  9.33409e-10      35833.6
       975.40000  9.33409e-10      35833.6
       975.50000  8.75407e-10      33606.9
       975.60000  8.75407e-10      33615.6
       975.70000  8.75407e-10      33615.6
       975.80000  8.75407e-10      33615.6
       975.90000  8.75407e-10      33615.6
       976.00000  8.75407e-10      33615.6
       976.10000  8.75407e-10      33606.9
       976.20000  8.75407e-10      33598.1
       976.30000  8.74818e-10      33566.8
       976.40000  8.74818e-10      33558.0
       976.50000  7.16557e-10      27487.1
       976.60000  7.16557e-10      27480.0
       976.70000  7.16557e-10      27472.8
       976.80000  7.16557e-10      27465.6
       976.90000  7.16557e-10      27465.6
       977.00000  7.16557e-10      27458.5
       977.10000  7.16557e-10      27451.3
       977.20000  7.16557e-10      27444.1
       977.30000  7.16557e-10      27444.1
       977.40000  7.16557e-10      27437.0
       977.50000  1.04963e-09      40179.8
       977.60000  1.04963e-09      40179.8
       977.70000  1.04963e-09      40169.3
       977.80000  1.04963e-09      40158.8
       977.90000  1.04963e-09      40158.8
       978.00000  1.04963e-09      40148.3
       978.10000  1.04963e-09      40148.3
       978.20000  1.04963e-09      40137.8
       978.30000  1.04963e-09      40137.8
       978.40000  1.04963e-09      40127.3
       978.50000  7.34182e-10      28060.4
       978.60000  7.34182e-10      28060.4
       978.70000  7.34182e-10      28060.4
       978.80000  7.34061e-10      28048.5
       978.90000  7.34061e-10      28048.5
       979.00000  7.34061e-10      28041.1
       979.10000  7.34061e-10      28041.1
       979.20000  7.34061e-10      28033.8
       979.30000  7.34061e-10      28033.8
       979.40000  7.34061e-10      28033.8
       979.50000  5.03901e-10      19238.9
       979.60000  5.03901e-10      19238.9
       979.70000  5.03901e-10      19238.9
       979.80000  5.03901e-10      19233.9
       979.90000  5.03901e-10      19233.9
       980.00000  5.03901e-10      19233.9
       980.10000  5.03901e-10      19244.0
       980.20000  5.03901e-10      19249.0
       980.30000  5.03901e-10      19259.1
       980.40000  5.03901e-10      19264.1
       980.50000  6.53926e-10      25012.7
       980.60000  6.53926e-10      25019.2
       980.70000  6.53926e-10      25025.8
       980.80000  6.53926e-10      25032.3
       980.90000  6.53926e-10      25038.8
       981.00000  6.53926e-10      25045.4
       981.10000  6.53926e-10      25051.9
       981.20000  6.53926e-10      25058.5
       981.30000  6.57434e-10      25192.9
       981.40000  6.57434e-10      25199.5
       981.50000  6.91925e-10      26521.5
       981.60000  6.91925e-10      26521.5
       981.70000  6.91925e-10      26528.4
       981.80000  6.91925e-10      26528.4
       981.90000  6.91925e-10      26528.4
       982.00000  6.91925e-10      26521.5
       982.10000  6.91925e-10      26514.5
       982.20000  6.91925e-10      26500.7
       982.30000  6.91925e-10      26493.8
       982.40000  6.91925e-10      26480.0
       982.50000  6.26734e-10      23978.9
       982.60000  6.26734e-10      23966.3
       982.70000  6.26734e-10      23960.1
       982.80000  6.26734e-10      23953.8
       982.90000  6.26734e-10      23941.3
       983.00000  6.26734e-10      23935.0
       983.10000  6.26734e-10      23928.7
       983.20000  6.26734e-10      23922.4
       983.30000  6.26734e-10      23916.2
       983.40000  6.26734e-10      23903.6
       983.50000  6.39146e-10      24370.6
       983.60000  6.39146e-10      24364.3
       983.70000  6.39146e-10      24357.9
       983.80000  6.39646e-10      24370.5
       983.90000  6.39646e-10      24364.1
       984.00000  6.39646e-10      24357.7
       984.10000  6.39646e-10      24357.7
       984.20000  6.39646e-10      24351.3
       984.30000  6.39646e-10      24344.9
       984.40000  6.39646e-10      24338.5
       984.50000  7.85401e-10      29884.5
       984.60000  7.85401e-10      29876.7
       984.70000  7.85401e-10      29868.8
       984.80000  7.85401e-10      29868.8
       984.90000  7.85401e-10      29860.9
       985.00000  7.85401e-10      29853.1
       985.10000  7.85401e-10      29853.1
       985.20000  7.85401e-10      29845.2
       985.30000  7.85401e-10      29845.2
       985.40000  7.85401e-10      29845.2
       985.50000  6.85172e-10      26029.7
       985.60000  6.85172e-10      26029.7
       985.70000  6.85172e-10      26029.7
       985.80000  6.85172e-10      26022.8
       985.90000  6.85172e-10      26022.8
       986.00000  6.85172e-10      26022.8
       986.10000  6.85172e-10      26016.0
       986.20000  6.85172e-10      26016.0
       986.30000  6.81246e-10      25866.9
       986.40000  6.81246e-10      25860.1
       986.50000  5.16170e-10      19588.7
       986.60000  5.16170e-10      19588.7
       986.70000  5.16170e-10      19583.5
       986.80000  5.16170e-10      19583.5
       986.90000  5.16170e-10      19578.3
       987.00000  5.16170e-10      19573.2
       987.10000  5.16170e-10      19568.0
       987.20000  5.16170e-10      19568.0
       987.30000  5.16170e-10      19562.8
       987.40000  5.16170e-10      19557.7
       987.50000  4.92259e-10      18646.8
       987.60000  4.92259e-10      18641.9
       987.70000  4.92259e-10      18636.9
       987.80000  4.92259e-10      18632.0
       987.90000  4.92259e-10      18627.1
       988.00000  4.92259e-10      18622.2
       988.10000  4.92259e-10      18607.4
       988.20000  4.92259e-10      18597.6
       988.30000  4.92259e-10      18582.8
       988.40000  4.92259e-10      18572.9
       988.50000  7.63980e-10      28809.7
       988.60000  7.63980e-10      28794.4
       988.70000  7.63980e-10      28779.1
       988.80000  7.66089e-10      28843.3
       988.90000  7.66089e-10      28827.9
       989.00000  7.66089e-10      28820.3
       989.10000  7.66089e-10      28812.6
       989.20000  7.66089e-10      28797.3
       989.30000  7.66089e-10      28789.6
       989.40000  7.66089e-10      28782.0
       989.50000  7.04394e-10      26457.1
       989.60000  7.04394e-10      26450.0
       989.70000  7.04394e-10      26450.0
       989.80000  7.04394e-10      26443.0
       989.90000  7.04394e-10      26443.0
       990.00000  7.04394e-10      26443.0
       990.10000  7.04394e-10      26435.9
       990.20000  7.04394e-10      26435.9
       990.30000  7.04394e-10      26443.0
       990.40000  7.04394e-10      26443.0
       990.50000  5.65645e-10      21234.3
       990.60000  5.65645e-10      21240.0
       990.70000  5.65645e-10      21240.0
       990.80000  5.65645e-10      21245.6
       990.90000  5.65645e-10      21251.3
       991.00000  5.65645e-10      21256.9
       991.10000  5.65645e-10      21262.6
       991.20000  5.65645e-10      21268.2
       991.30000  5.66844e-10      21319.0
       991.40000  5.66844e-10      21330.3
       991.50000  6.81252e-10      25642.3
       991.60000  6.81252e-10      25656.0
       991.70000  6.81252e-10      25669.6
       991.80000  6.81252e-10      25683.2
       991.90000  6.81252e-10      25696.8
       992.00000  6.81252e-10      25710.5
       992.10000  6.81252e-10      25717.3
       992.20000  6.81252e-10      25717.3
       992.30000  6.81252e-10      25717.3
       992.40000  6.81252e-10      25717.3
       992.50000  2.92253e-10      11035.5
       992.60000  2.92253e-10      11035.5
       992.70000  2.92253e-10      11035.5
       992.80000  2.92253e-10      11035.5
       992.90000  2.92253e-10      11035.5
       993.00000  2.92253e-10      11038.4
       993.10000  2.92253e-10      11038.4
       993.20000  2.92253e-10      11038.4
       993.30000  2.92253e-10      11038.4
       993.40000  2.92253e-10      11038.4
       993.50000  5.26360e-10      19880.6
       993.60000  5.26360e-10      19880.6
       993.70000  5.26360e-10      19880.6
       993.80000  5.26654e-10      19891.7
       993.90000  5.26654e-10      19886.5
       994.00000  5.26654e-10      19886.5
       994.10000  5.26654e-10      19886.5
       994.20000  5.26654e-10      19881.2
       994.30000  5.26654e-10      19881.2
       994.40000  5.26654e-10      19875.9
       994.50000  6.33831e-10      23920.8
       994.60000  6.33831e-10      23914.5
       994.70000  6.33831e-10      23914.5
       994.80000  6.33831e-10      23908.1
       994.90000  6.33831e-10      23908.1
       995.00000  6.33831e-10      23901.8
       995.10000  6.33831e-10      23901.8
       995.20000  6.33831e-10      23901.8
       995.30000  6.33831e-10      23895.4
       995.40000  6.33831e-10      23895.4
       995.50000  5.13306e-10      19351.6
       995.60000  5.13306e-10      19346.5
       995.70000  5.13306e-10      19346.5
       995.80000  5.13306e-10      19346.5
       995.90000  5.13306e-10      19346.5
       996.00000  5.13306e-10      19341.4
       996.10000  5.13306e-10      19346.5
       996.20000  5.13306e-10      19346.5
       996.30000  5.13905e-10      19369.1
       996.40000  5.13905e-10      19369.1
       996.50000  5.87435e-10      22140.4
       996.60000  5.87435e-10      22140.4
       996.70000  5.87435e-10      22140.4
       996.80000  5.87435e-10      22140.4
       996.90000  5.87435e-10      22140.4
       997.00000  5.87435e-10      22140.4
       997.10000  5.87435e-10      22140.4
       997.20000  5.87435e-10      22140.4
       997.30000  5.87435e-10      22140.4
       997.40000  5.87435e-10      22140.4
       997.50000  5.03715e-10      18985.0
       997.60000  5.03715e-10      18985.0
       997.70000  5.03715e-10      18985.0
       997.80000  5.03715e-10      18985.0
       997.90000  5.03715e-10      18985.0
       998.00000  5.03715e-10      18980.0
       998.10000  5.03715e-10      18980.0
       998.20000  5.03715e-10      18974.9
       998.30000  5.03715e-10      18974.9
       998.40000  5.03715e-10      18969.9
       998.50000  3.84764e-10      14486.4
       998.60000  3.84764e-10      14486.4
       998.70000  3.84764e-10      14482.5
       998.80000  3.87921e-10      14601.3
       998.90000  3.87921e-10      14601.3
       999.00000  3.87921e-10      14597.5
       999.10000  3.87921e-10      14597.5
       999.20000  3.87921e-10      14593.6
       999.30000  3.87921e-10      14593.6
       999.40000  3.87921e-10      14593.6
       999.50000  4.56200e-10      17157.7
       999.60000  4.56200e-10      17157.7
       999.70000  4.56200e-10      17157.7
       999.80000  4.56200e-10      17157.7
       999.90000  4.56200e-10      17157.7
       1000.0000  4.56200e-10      17153.1
       1000.1000  4.56200e-10      17153.1
       1000.2000  4.56200e-10      17153.1
       1000.3000  4.56200e-10      17153.1
       1000.4000  4.56200e-10      17153.1
       1000.5000  3.74687e-10      14088.2
       1000.6000  3.74687e-10      14088.2
       1000.7000  3.74687e-10      14088.2
       1000.8000  3.74687e-10      14088.2
       1000.9000  3.74687e-10      14088.2
       1001.0000  3.74687e-10      14088.2
       1001.1000  3.74687e-10      14088.2
       1001.2000  3.74687e-10      14092.0
       1001.3000  3.70296e-10      13926.8
       1001.4000  3.70296e-10      13926.8
       1001.5000  4.45956e-10      16772.4
       1001.6000  4.45956e-10      16772.4
       1001.7000  4.45956e-10      16776.9
       1001.8000  4.45956e-10      16776.9
       1001.9000  4.45956e-10      16776.9
       1002.0000  4.45956e-10      16781.3
       1002.1000  4.45956e-10      16754.6
       1002.2000  4.45956e-10      16727.8
       1002.3000  4.45956e-10      16705.5
       1002.4000  4.45956e-10      16678.8
       1002.5000  4.92184e-10      18383.1
       1002.6000  4.92184e-10      18353.5
       1002.7000  4.92184e-10      18328.9
       1002.8000  4.92184e-10      18304.3
       1002.9000  4.92184e-10      18279.7
       1003.0000  4.92184e-10      18255.1
       1003.1000  4.92184e-10      18230.5
       1003.2000  4.92184e-10      18205.9
       1003.3000  4.92184e-10      18186.2
       1003.4000  4.92184e-10      18161.6
       1003.5000  5.18245e-10      19102.5
       1003.6000  5.18245e-10      19081.8
       1003.7000  5.18245e-10      19055.9
       1003.8000  5.18107e-10      19030.1
       1003.9000  5.18107e-10      19009.3
       1004.0000  5.18107e-10      18988.6
       1004.1000  5.18107e-10      18957.5
       1004.2000  5.18107e-10      18921.3
       1004.3000  5.18107e-10      18895.4
       1004.4000  5.18107e-10      18864.3
       1004.5000  3.69480e-10      13434.3
       1004.6000  3.69480e-10      13415.8
       1004.7000  3.69480e-10      13401.1
       1004.8000  3.69480e-10      13386.3
       1004.9000  3.69480e-10      13375.2
       1005.0000  3.69480e-10      13364.1
       1005.1000  3.69480e-10      13353.0
       1005.2000  3.69480e-10      13345.6
       1005.3000  3.69480e-10      13338.2
       1005.4000  3.69480e-10      13334.6
       1005.5000  4.09947e-10      14790.9
       1005.6000  4.09947e-10      14786.8
       1005.7000  4.09947e-10      14786.8
       1005.8000  4.09947e-10      14790.9
       1005.9000  4.09947e-10      14790.9
       1006.0000  4.09947e-10      14795.0
       1006.1000  4.09947e-10      14803.2
       1006.2000  4.09947e-10      14811.4
       1006.3000  4.09095e-10      14788.8
       1006.4000  4.09095e-10      14801.1
       1006.5000  3.11849e-10      11292.1
       1006.6000  3.11849e-10      11304.5
       1006.7000  3.11849e-10      11317.0
       1006.8000  3.11849e-10      11329.5
       1006.9000  3.11849e-10      11345.1
       1007.0000  3.11849e-10      11360.7
       1007.1000  3.11849e-10      11379.4
       1007.2000  3.11849e-10      11398.1
       1007.3000  3.11849e-10      11416.8
       1007.4000  3.11849e-10      11438.6
       1007.5000  3.18855e-10      11717.9
       1007.6000  3.18855e-10      11743.4
       1007.7000  3.18855e-10      11769.0
       1007.8000  3.18855e-10      11794.5
       1007.9000  3.18855e-10      11823.2
       1008.0000  3.18855e-10      11851.9
       1008.1000  3.18855e-10      11855.0
       1008.2000  3.18855e-10      11855.0
       1008.3000  3.18855e-10      11855.0
       1008.4000  3.18855e-10      11855.0
       1008.5000  3.28870e-10      12227.4
       1008.6000  3.28870e-10      12227.4
       1008.7000  3.28870e-10      12227.4
       1008.8000  3.28180e-10      12201.7
       1008.9000  3.28180e-10      12201.7
       1009.0000  3.28180e-10      12198.4
       1009.1000  3.28180e-10      12198.4
       1009.2000  3.28180e-10      12198.4
       1009.3000  3.28180e-10      12198.4
       1009.4000  3.28180e-10      12195.2
       1009.5000  4.09842e-10      15229.7
       1009.6000  4.09842e-10      15229.7
       1009.7000  4.09842e-10      15225.6
       1009.8000  4.09842e-10      15225.6
       1009.9000  4.09842e-10      15221.5
       1010.0000  4.09842e-10      15221.5
       1010.1000  4.09842e-10      15217.4
       1010.2000  4.09842e-10      15213.3
       1010.3000  4.09842e-10      15209.2
       1010.4000  4.09842e-10      15205.1
       1010.5000  4.23698e-10      15715.0
       1010.6000  4.23698e-10      15710.7
       1010.7000  4.23698e-10      15706.5
       1010.8000  4.23698e-10      15702.3
       1010.9000  4.23698e-10      15698.0
       1011.0000  4.23698e-10      15693.8
       1011.1000  4.23698e-10      15693.8
       1011.2000  4.23698e-10      15689.5
       1011.3000  4.22564e-10      15643.3
       1011.4000  4.22564e-10      15639.1
       1011.5000  3.76170e-10      13918.3
       1011.6000  3.76170e-10      13914.5
       1011.7000  3.76170e-10      13910.8
       1011.8000  3.76170e-10      13907.0
       1011.9000  3.76170e-10      13903.2
       1012.0000  3.76170e-10      13899.5
       1012.1000  3.76170e-10      13895.7
       1012.2000  3.76170e-10      13892.0
       1012.3000  3.76170e-10      13888.2
       1012.4000  3.76170e-10      13884.4
       1012.5000  5.27821e-10      19476.6
       1012.6000  5.27821e-10      19471.3
       1012.7000  5.27821e-10      19466.0
       1012.8000  5.27821e-10      19460.8
       1012.9000  5.27821e-10      19460.8
       1013.0000  5.27821e-10      19455.5
       1013.1000  5.27821e-10      19450.2
       1013.2000  5.27821e-10      19444.9
       1013.3000  5.27821e-10      19439.6
       1013.4000  5.27821e-10      19434.4
       1013.5000  2.88310e-10      10612.7
       1013.6000  2.88310e-10      10609.8
       1013.7000  2.88310e-10      10606.9
       1013.8000  2.88086e-10      10595.8
       1013.9000  2.88086e-10      10592.9
       1014.0000  2.88086e-10      10590.0
       1014.1000  2.88086e-10      10584.3
       1014.2000  2.88086e-10      10578.5
       1014.3000  2.88086e-10      10572.8
       1014.4000  2.88086e-10      10567.0
       1014.5000  2.27204e-10      8331.56
       1014.6000  2.27204e-10      8327.02
       1014.7000  2.27204e-10      8322.48
       1014.8000  2.27204e-10      8320.20
       1014.9000  2.27204e-10      8315.66
       1015.0000  2.27204e-10      8313.39
       1015.1000  2.27204e-10      8308.84
       1015.2000  2.27204e-10      8306.57
       1015.3000  2.27204e-10      8304.30
       1015.4000  2.27204e-10      8299.76
       1015.5000  2.74841e-10      10037.2
       1015.6000  2.74841e-10      10034.4
       1015.7000  2.74841e-10      10031.7
       1015.8000  2.74841e-10      10028.9
       1015.9000  2.74841e-10      10026.2
       1016.0000  2.74841e-10      10023.4
       1016.1000  2.74841e-10      10023.4
       1016.2000  2.74841e-10      10023.4
       1016.3000  2.75285e-10      10039.7
       1016.4000  2.75285e-10      10036.9
       1016.5000  2.81355e-10      10258.2
       1016.6000  2.81355e-10      10258.2
       1016.7000  2.81355e-10      10258.2
       1016.8000  2.81355e-10      10255.4
       1016.9000  2.81355e-10      10255.4
       1017.0000  2.81355e-10      10252.6
       1017.1000  2.81355e-10      10252.6
       1017.2000  2.81355e-10      10249.8
       1017.3000  2.81355e-10      10249.8
       1017.4000  2.81355e-10      10247.0
       1017.5000  3.23029e-10      11764.7
       1017.6000  3.23029e-10      11761.5
       1017.7000  3.23029e-10      11758.3
       1017.8000  3.23029e-10      11755.0
       1017.9000  3.23029e-10      11751.8
       1018.0000  3.23029e-10      11751.8
       1018.1000  3.23029e-10      11745.4
       1018.2000  3.23029e-10      11738.9
       1018.3000  3.23029e-10      11732.4
       1018.4000  3.23029e-10      11726.0
       1018.5000  2.70254e-10      9807.50
       1018.6000  2.70254e-10      9802.10
       1018.7000  2.70254e-10      9799.40
       1018.8000  2.70126e-10      9789.37
       1018.9000  2.70126e-10      9786.67
       1019.0000  2.70126e-10      9781.27
       1019.1000  2.70126e-10      9778.57
       1019.2000  2.70126e-10      9775.86
       1019.3000  2.70126e-10      9773.16
       1019.4000  2.70126e-10      9767.76
       1019.5000  2.52257e-10      9119.09
       1019.6000  2.52257e-10      9116.57
       1019.7000  2.52257e-10      9114.04
       1019.8000  2.52257e-10      9114.04
       1019.9000  2.52257e-10      9111.52
       1020.0000  2.52257e-10      9109.00
       1020.1000  2.52257e-10      9106.48
       1020.2000  2.52257e-10      9103.95
       1020.3000  2.52257e-10      9103.95
       1020.4000  2.52257e-10      9101.43
       1020.5000  2.33200e-10      8413.86
       1020.6000  2.33200e-10      8411.53
       1020.7000  2.33200e-10      8411.53
       1020.8000  2.33200e-10      8409.20
       1020.9000  2.33200e-10      8409.20
       1021.0000  2.33200e-10      8409.20
       1021.1000  2.33200e-10      8409.20
       1021.2000  2.33200e-10      8409.20
       1021.3000  2.32705e-10      8391.33
       1021.4000  2.32705e-10      8391.33
       1021.5000  2.05825e-10      7422.03
       1021.6000  2.05825e-10      7422.03
       1021.7000  2.05825e-10      7422.03
       1021.8000  2.05825e-10      7424.09
       1021.9000  2.05825e-10      7424.09
       1022.0000  2.05825e-10      7426.15
       1022.1000  2.05825e-10      7426.15
       1022.2000  2.05825e-10      7428.21
       1022.3000  2.05825e-10      7430.27
       1022.4000  2.05825e-10      7430.27
       1022.5000  2.05842e-10      7432.94
       1022.6000  2.05842e-10      7435.00
       1022.7000  2.05842e-10      7437.05
       1022.8000  2.05842e-10      7439.11
       1022.9000  2.05842e-10      7441.17
       1023.0000  2.05842e-10      7443.23
       1023.1000  2.05842e-10      7447.35
       1023.2000  2.05842e-10      7449.40
       1023.3000  2.05842e-10      7451.46
       1023.4000  2.05842e-10      7455.58
       1023.5000  2.61152e-10      9461.55
       1023.6000  2.61152e-10      9466.78
       1023.7000  2.61152e-10      9469.39
       1023.8000  2.60388e-10      9446.88
       1023.9000  2.60388e-10      9452.09
       1024.0000  2.60388e-10      9457.30
       1024.1000  2.60388e-10      9457.30
       1024.2000  2.60388e-10      9454.70
       1024.3000  2.60388e-10      9454.70
       1024.4000  2.60388e-10      9454.70
       1024.5000  2.51057e-10      9115.87
       1024.6000  2.51057e-10      9113.36
       1024.7000  2.51057e-10      9113.36
       1024.8000  2.51057e-10      9113.36
       1024.9000  2.51057e-10      9110.85
       1025.0000  2.51057e-10      9110.85
       1025.1000  2.51057e-10      9110.85
       1025.2000  2.51057e-10      9108.34
       1025.3000  2.51057e-10      9108.34
       1025.4000  2.51057e-10      9108.34
       1025.5000  2.22919e-10      8085.27
       1025.6000  2.22919e-10      8085.27
       1025.7000  2.22919e-10      8083.04
       1025.8000  2.22919e-10      8083.04
       1025.9000  2.22919e-10      8080.81
       1026.0000  2.22919e-10      8080.81
       1026.1000  2.22919e-10      8080.81
       1026.2000  2.22919e-10      8078.58
       1026.3000  2.22123e-10      8049.74
       1026.4000  2.22123e-10      8047.52
       1026.5000  1.75688e-10      6365.18
       1026.6000  1.75688e-10      6363.43
       1026.7000  1.75688e-10      6361.67
       1026.8000  1.75688e-10      6361.67
       1026.9000  1.75688e-10      6359.91
       1027.0000  1.75688e-10      6359.91
       1027.1000  1.75688e-10      6358.16
       1027.2000  1.75688e-10      6356.40
       1027.3000  1.75688e-10      6356.40
       1027.4000  1.75688e-10      6354.64
       1027.5000  1.91796e-10      6935.35
       1027.6000  1.91796e-10      6935.35
       1027.7000  1.91796e-10      6933.44
       1027.8000  1.91796e-10      6931.52
       1027.9000  1.91796e-10      6929.60
       1028.0000  1.91796e-10      6927.68
       1028.1000  1.91796e-10      6927.68
       1028.2000  1.91796e-10      6925.76
       1028.3000  1.91796e-10      6923.85
       1028.4000  1.91796e-10      6921.93
       1028.5000  2.00287e-10      7226.37
       1028.6000  2.00287e-10      7224.37
       1028.7000  2.00287e-10      7222.36
       1028.8000  2.00346e-10      7222.48
       1028.9000  2.00346e-10      7220.47
       1029.0000  2.00346e-10      7218.47
       1029.1000  2.00346e-10      7216.47
       1029.2000  2.00346e-10      7214.46
       1029.3000  2.00346e-10      7212.46
       1029.4000  2.00346e-10      7210.46
       1029.5000  1.95288e-10      7026.47
       1029.6000  1.95288e-10      7024.52
       1029.7000  1.95288e-10      7022.57
       1029.8000  1.95288e-10      7020.61
       1029.9000  1.95288e-10      7018.66
       1030.0000  1.95288e-10      7014.75
       1030.1000  1.95288e-10      7016.71
       1030.2000  1.95288e-10      7016.71
       1030.3000  1.95288e-10      7016.71
       1030.4000  1.95288e-10      7016.71
       1030.5000  2.05937e-10      7399.31
       1030.6000  2.05937e-10      7399.31
       1030.7000  2.05937e-10      7397.25
       1030.8000  2.05937e-10      7397.25
       1030.9000  2.05937e-10      7397.25
       1031.0000  2.05937e-10      7395.19
       1031.1000  2.05937e-10      7395.19
       1031.2000  2.05937e-10      7393.13
       1031.3000  2.05996e-10      7395.27
       1031.4000  2.05996e-10      7393.21
       1031.5000  1.64057e-10      5886.38
       1031.6000  1.64057e-10      5884.74
       1031.7000  1.64057e-10      5883.10
       1031.8000  1.64057e-10      5881.46
       1031.9000  1.64057e-10      5879.82
       1032.0000  1.64057e-10      5878.18
       1032.1000  1.64057e-10      5873.26
       1032.2000  1.64057e-10      5866.69
       1032.3000  1.64057e-10      5861.77
       1032.4000  1.64057e-10      5858.49
       1032.5000  2.05693e-10      7339.13
       1032.6000  2.05693e-10      7332.96
       1032.7000  2.05693e-10      7328.84
       1032.8000  2.05693e-10      7322.67
       1032.9000  2.05693e-10      7318.56
       1033.0000  2.05693e-10      7314.45
       1033.1000  2.05693e-10      7310.33
       1033.2000  2.05693e-10      7308.27
       1033.3000  2.05693e-10      7304.16
       1033.4000  2.05693e-10      7302.10
       1033.5000  1.95612e-10      6940.31
       1033.6000  1.95612e-10      6938.35
       1033.7000  1.95612e-10      6936.40
       1033.8000  1.95894e-10      6944.43
       1033.9000  1.95894e-10      6944.43
       1034.0000  1.95894e-10      6942.47
       1034.1000  1.95894e-10      6942.47
       1034.2000  1.95894e-10      6940.51
       1034.3000  1.95894e-10      6940.51
       1034.4000  1.95894e-10      6940.51
       1034.5000  1.73538e-10      6148.46
       1034.6000  1.73538e-10      6150.20
       1034.7000  1.73538e-10      6150.20
       1034.8000  1.73538e-10      6151.93
       1034.9000  1.73538e-10      6151.93
       1035.0000  1.73538e-10      6153.67
       1035.1000  1.73538e-10      6155.41
       1035.2000  1.73538e-10      6157.14
       1035.3000  1.73538e-10      6160.61
       1035.4000  1.73538e-10      6162.35
       1035.5000  1.41611e-10      5031.43
       1035.6000  1.41611e-10      5034.26
       1035.7000  1.41611e-10      5035.68
       1035.8000  1.41611e-10      5038.51
       1035.9000  1.41611e-10      5042.76
       1036.0000  1.41611e-10      5045.59
       1036.1000  1.41611e-10      5042.76
       1036.2000  1.41611e-10      5039.93
       1036.3000  1.41377e-10      5028.77
       1036.4000  1.41377e-10      5025.94
       1036.5000  1.25977e-10      4475.96
       1036.6000  1.25977e-10      4473.44
       1036.7000  1.25977e-10      4472.18
       1036.8000  1.25977e-10      4469.66
       1036.9000  1.25977e-10      4467.14
       1037.0000  1.25977e-10      4465.88
       1037.1000  1.25977e-10      4464.62
       1037.2000  1.25977e-10      4462.10
       1037.3000  1.25977e-10      4460.84
       1037.4000  1.25977e-10      4459.58
       1037.5000  1.42686e-10      5049.66
       1037.6000  1.42686e-10      5048.23
       1037.7000  1.42686e-10      5046.80
       1037.8000  1.42686e-10      5045.38
       1037.9000  1.42686e-10      5043.95
       1038.0000  1.42686e-10      5042.52
       1038.1000  1.42686e-10      5042.52
       1038.2000  1.42686e-10      5042.52
       1038.3000  1.42686e-10      5043.95
       1038.4000  1.42686e-10      5043.95
       1038.5000  1.73876e-10      6146.53
       1038.6000  1.73876e-10      6146.53
       1038.7000  1.73876e-10      6146.53
       1038.8000  1.73494e-10      6133.03
       1038.9000  1.73494e-10      6133.03
       1039.0000  1.73494e-10      6133.03
       1039.1000  1.73494e-10      6133.03
       1039.2000  1.73494e-10      6133.03
       1039.3000  1.73494e-10      6133.03
       1039.4000  1.73494e-10      6133.03
       1039.5000  1.36959e-10      4841.52
       1039.6000  1.36959e-10      4841.52
       1039.7000  1.36959e-10      4841.52
       1039.8000  1.36959e-10      4841.52
       1039.9000  1.36959e-10      4841.52
       1040.0000  1.36959e-10      4841.52
       1040.1000  1.36959e-10      4841.52
       1040.2000  1.36959e-10      4841.52
       1040.3000  1.36959e-10      4841.52
       1040.4000  1.36959e-10      4841.52
       1040.5000  1.22440e-10      4328.25
       1040.6000  1.22440e-10      4328.25
       1040.7000  1.22440e-10      4328.25
       1040.8000  1.22440e-10      4328.25
       1040.9000  1.22440e-10      4328.25
       1041.0000  1.22440e-10      4328.25
       1041.1000  1.22440e-10      4328.25
       1041.2000  1.22440e-10      4328.25
       1041.3000  1.22395e-10      4326.66
       1041.4000  1.22395e-10      4326.66
       1041.5000  1.06838e-10      3776.73
       1041.6000  1.06838e-10      3776.73
       1041.7000  1.06838e-10      3776.73
       1041.8000  1.06838e-10      3775.66
       1041.9000  1.06838e-10      3775.66
       1042.0000  1.06838e-10      3775.66
       1042.1000  1.06838e-10      3776.73
       1042.2000  1.06838e-10      3776.73
       1042.3000  1.06838e-10      3777.79
       1042.4000  1.06838e-10      3777.79
       1042.5000  6.91580e-11      2445.43
       1042.6000  6.91580e-11      2445.43
       1042.7000  6.91580e-11      2445.43
       1042.8000  6.91580e-11      2444.73
       1042.9000  6.91580e-11      2444.73
       1043.0000  6.91580e-11      2444.73
       1043.1000  6.91580e-11      2444.04
       1043.2000  6.91580e-11      2443.35
       1043.3000  6.91580e-11      2443.35
       1043.4000  6.91580e-11      2442.66
       1043.5000  1.32034e-10      4662.13
       1043.6000  1.32034e-10      4660.81
       1043.7000  1.32034e-10      4659.49
       1043.8000  1.32446e-10      4671.35
       1043.9000  1.32446e-10      4670.03
       1044.0000  1.32446e-10      4667.38
       1044.1000  1.32446e-10      4662.08
       1044.2000  1.32446e-10      4655.46
       1044.3000  1.32446e-10      4650.16
       1044.4000  1.32446e-10      4644.87
       1044.5000  9.98929e-11      3499.25
       1044.6000  9.98929e-11      3496.25
       1044.7000  9.98929e-11      3492.26
       1044.8000  9.98929e-11      3489.26
       1044.9000  9.98929e-11      3486.26
       1045.0000  9.98929e-11      3483.27
       1045.1000  9.98929e-11      3481.27
       1045.2000  9.98929e-11      3478.27
       1045.3000  9.98929e-11      3476.27
       1045.4000  9.98929e-11      3474.27
       1045.5000  7.73136e-11      2688.19
       1045.6000  7.73136e-11      2686.65
       1045.7000  7.73136e-11      2685.87
       1045.8000  7.73136e-11      2685.10
       1045.9000  7.73136e-11      2684.33
       1046.0000  7.73136e-11      2683.55
       1046.1000  7.73136e-11      2683.55
       1046.2000  7.73136e-11      2682.78
       1046.3000  7.75055e-11      2689.44
       1046.4000  7.75055e-11      2689.44
       1046.5000  6.82464e-11      2368.83
       1046.6000  6.82464e-11      2368.83
       1046.7000  6.82464e-11      2369.52
       1046.8000  6.82464e-11      2370.20
       1046.9000  6.82464e-11      2370.88
       1047.0000  6.82464e-11      2372.25
       1047.1000  6.82464e-11      2372.93
       1047.2000  6.82464e-11      2374.29
       1047.3000  6.82464e-11      2375.66
       1047.4000  6.82464e-11      2377.02
       1047.5000  6.51651e-11      2271.66
       1047.6000  6.51651e-11      2272.96
       1047.7000  6.51651e-11      2274.91
       1047.8000  6.51651e-11      2276.87
       1047.9000  6.51651e-11      2278.82
       1048.0000  6.51651e-11      2281.43
       1048.1000  6.51651e-11      2281.43
       1048.2000  6.51651e-11      2281.43
       1048.3000  6.51651e-11      2281.43
       1048.4000  6.51651e-11      2280.78
       1048.5000  7.95179e-11      2783.13
       1048.6000  7.95179e-11      2783.13
       1048.7000  7.95179e-11      2783.13
       1048.8000  7.94991e-11      2782.47
       1048.9000  7.94991e-11      2782.47
       1049.0000  7.94991e-11      2781.67
       1049.1000  7.94991e-11      2781.67
       1049.2000  7.94991e-11      2781.67
       1049.3000  7.94991e-11      2780.88
       1049.4000  7.94991e-11      2780.88
       1049.5000  7.26660e-11      2541.86
       1049.6000  7.26660e-11      2541.13
       1049.7000  7.26660e-11      2541.13
       1049.8000  7.26660e-11      2541.13
       1049.9000  7.26660e-11      2540.40
       1050.0000  7.26660e-11      2540.40
       1050.1000  7.26660e-11      2539.68
       1050.2000  7.26660e-11      2539.68
       1050.3000  7.26660e-11      2538.95
       1050.4000  7.26660e-11      2538.22
       1050.5000  4.13017e-11      1442.67
       1050.6000  4.13017e-11      1442.26
       1050.7000  4.13017e-11      1442.26
       1050.8000  4.13017e-11      1441.84
       1050.9000  4.13017e-11      1441.43
       1051.0000  4.13017e-11      1441.43
       1051.1000  4.13017e-11      1441.02
       1051.2000  4.13017e-11      1441.02
       1051.3000  4.11481e-11      1435.24
       1051.4000  4.11481e-11      1434.83
       1051.5000  3.65261e-11      1273.67
       1051.6000  3.65261e-11      1273.30
       1051.7000  3.65261e-11      1272.94
       1051.8000  3.65261e-11      1272.94
       1051.9000  3.65261e-11      1272.57
       1052.0000  3.65261e-11      1272.57
       1052.1000  3.65261e-11      1272.20
       1052.2000  3.65261e-11      1271.84
       1052.3000  3.65261e-11      1271.84
       1052.4000  3.65261e-11      1271.47
       1052.5000  3.26816e-11      1137.32
       1052.6000  3.26816e-11      1137.32
       1052.7000  3.26816e-11      1136.99
       1052.8000  3.26816e-11      1136.67
       1052.9000  3.26816e-11      1136.67
       1053.0000  3.26816e-11      1136.34
       1053.1000  3.26816e-11      1136.34
       1053.2000  3.26816e-11      1136.01
       1053.3000  3.26816e-11      1135.69
       1053.4000  3.26816e-11      1135.69
       1053.5000  2.78449e-11      967.333
       1053.6000  2.78449e-11      967.054
       1053.7000  2.78449e-11      967.054
       1053.8000  2.76563e-11      960.227
       1053.9000  2.76563e-11      959.950
       1054.0000  2.76563e-11      959.950
       1054.1000  2.76563e-11      960.503
       1054.2000  2.76563e-11      960.780
       1054.3000  2.76563e-11      961.333
       1054.4000  2.76563e-11      961.886
       1054.5000  1.48883e-11      517.965
       1054.6000  1.48883e-11      518.114
       1054.7000  1.48883e-11      518.263
       1054.8000  1.48883e-11      518.412
       1054.9000  1.48883e-11      518.561
       1055.0000  1.48883e-11      518.710
       1055.1000  1.48883e-11      518.710
       1055.2000  1.48883e-11      518.710
       1055.3000  1.48883e-11      518.858
       1055.4000  1.48883e-11      518.858
       1055.5000  1.31702e-11      458.851
       1055.6000  1.31702e-11      458.851
       1055.7000  1.31702e-11      458.851
       1055.8000  1.31702e-11      458.719
       1055.9000  1.31702e-11      458.588
       1056.0000  1.31702e-11      458.456
       1056.1000  1.31702e-11      458.061
       1056.2000  1.31702e-11      457.666
       1056.3000  1.30367e-11      452.635
       1056.4000  1.30367e-11      452.114
       1056.5000  2.95922e-12      102.537
       1056.6000  2.95922e-12      102.478
       1056.7000  2.95922e-12      102.389
       1056.8000  2.95922e-12      102.300
       1056.9000  2.95922e-12      102.211
       1057.0000  2.95922e-12      102.152
