PDS_VERSION_ID         = PDS3
RECORD_TYPE            = STREAM
OBJECT                 = TEXT
  PUBLICATION_DATE     = 2014-04-25
  INTERCHANGE_FORMAT   = ASCII
  NOTE                 = "System transmission vs. wavelength."
END_OBJECT             = TEXT
END
    
The systrans directory contains the non-wavelength-integrated system 
transmission values (QE*optics*filter1*filter2) for each filter combination. 
The naming convention for these files is as follows:

<camera><filter 1><filter 2>_systrans.tab

where <camera> is "issna" or "isswa," and <filter 1> and <filter 2> represent
the filter names. For polarized filter combinations, values are given for the
parallel orientation of the filter (full transmission), with values for the 
perpendicular (blocking) orientation provided in files with subscript 
"_b_systrans.tab". 

Columns in systrans files are as follows:

 1st column: Wavelength (nm)  
 2nd column: Transmitted Flux
 3rd column: Transmitted Flux * Solar Flux (phot per cm^2-s-angstrom at 1 AU)

The solar spectrum used for this calculation is provided in solarflux.tab.

\begindata
       619.00000  7.44916e-10      39644.4
       619.10000  7.44916e-10      39614.6
       619.20000  7.44916e-10      39599.7
       619.30000  7.44916e-10      39592.3
       619.40000  7.44916e-10      39592.3
       619.50000  4.19447e-10      22302.0
       619.60000  4.19447e-10      22381.7
       619.70000  4.19447e-10      22453.0
       619.80000  4.19447e-10      22515.9
       619.90000  4.19447e-10      22570.4
       620.00000  4.19447e-10      22612.4
       620.10000  4.19447e-10      22645.9
       620.20000  4.19447e-10      22671.1
       620.30000  4.19447e-10      22687.9
       620.40000  4.19447e-10      22692.1
       620.50000  2.93344e-10      15869.9
       620.60000  2.93344e-10      15805.4
       620.70000  2.93344e-10      15743.8
       620.80000  2.93344e-10      15691.0
       620.90000  2.93344e-10      15644.0
       621.00000  2.93344e-10      15603.0
       621.10000  2.93344e-10      15567.8
       621.20000  2.93344e-10      15541.4
       621.30000  2.92968e-10      15498.0
       621.40000  2.92968e-10      15480.4
       621.50000  3.73595e-10      19729.6
       621.60000  3.73595e-10      19796.8
       621.70000  3.73595e-10      19856.6
       621.80000  3.73595e-10      19905.1
       621.90000  3.73595e-10      19950.0
       622.00000  3.73595e-10      19983.6
       622.10000  3.73595e-10      20009.7
       622.20000  3.73595e-10      20024.7
       622.30000  3.73595e-10      20035.9
       622.40000  3.73595e-10      20035.9
       622.50000  7.33627e-11      3932.97
       622.60000  7.33627e-11      3930.04
       622.70000  7.33627e-11      3925.64
       622.80000  7.33627e-11      3919.77
       622.90000  7.33627e-11      3911.70
       623.00000  7.33627e-11      3902.90
       623.10000  7.33627e-11      3891.89
       623.20000  7.33627e-11      3878.69
       623.30000  7.33627e-11      3864.75
       623.40000  7.33627e-11      3848.61
       623.50000  1.23138e-09      64314.9
       623.60000  1.23138e-09      64302.6
       623.70000  1.23138e-09      64302.6
       623.80000  1.22873e-09      64139.6
       623.90000  1.22873e-09      64127.3
       624.00000  1.22873e-09      64102.7
       624.10000  1.22873e-09      64065.9
       624.20000  1.22873e-09      64029.0
       624.30000  1.22873e-09      63992.2
       624.40000  1.22873e-09      63943.0
       624.50000  2.67478e-09      139088.
       624.60000  2.67478e-09      138553.
       624.70000  2.67478e-09      138125.
       624.80000  2.67478e-09      137751.
       624.90000  2.67478e-09      137457.
       625.00000  2.67478e-09      137243.
       625.10000  2.67478e-09      137109.
       625.20000  2.67478e-09      137029.
       625.30000  2.67478e-09      137055.
       625.40000  2.67478e-09      137136.
       625.50000  8.67729e-09      445406.
       625.60000  8.67729e-09      446100.
       625.70000  8.67729e-09      447141.
       625.80000  8.67729e-09      448356.
       625.90000  8.67729e-09      449831.
       626.00000  8.67729e-09      451566.
       626.10000  8.67729e-09      453562.
       626.20000  8.67729e-09      455731.
       626.30000  8.66361e-09      457525.
       626.40000  8.66361e-09      460211.
       626.50000  3.73326e-08  1.99543e+06
       626.60000  3.73326e-08  1.99580e+06
       626.70000  3.73326e-08  1.99617e+06
       626.80000  3.73326e-08  1.99655e+06
       626.90000  3.73326e-08  1.99692e+06
       627.00000  3.73326e-08  1.99729e+06
       627.10000  3.73326e-08  1.99767e+06
       627.20000  3.73326e-08  1.99767e+06
       627.30000  3.73326e-08  1.99804e+06
       627.40000  3.73326e-08  1.99841e+06
       627.50000  8.90729e-08  4.76897e+06
       627.60000  8.90729e-08  4.77253e+06
       627.70000  8.90729e-08  4.77520e+06
       627.80000  8.90729e-08  4.77698e+06
       627.90000  8.90729e-08  4.77876e+06
       628.00000  8.90729e-08  4.77965e+06
       628.10000  8.90729e-08  4.78054e+06
       628.20000  8.90729e-08  4.78054e+06
       628.30000  8.90729e-08  4.77965e+06
       628.40000  8.90729e-08  4.77876e+06
       628.50000  1.78045e-07  9.54856e+06
       628.60000  1.78045e-07  9.54322e+06
       628.70000  1.78045e-07  9.53788e+06
       628.80000  1.77669e-07  9.51062e+06
       628.90000  1.77669e-07  9.50173e+06
       629.00000  1.77669e-07  9.49285e+06
       629.10000  1.77669e-07  9.48219e+06
       629.20000  1.77669e-07  9.47153e+06
       629.30000  1.77669e-07  9.45909e+06
       629.40000  1.77669e-07  9.44488e+06
       629.50000  2.33507e-07  1.23946e+07
       629.60000  2.33507e-07  1.23689e+07
       629.70000  2.33507e-07  1.23432e+07
       629.80000  2.33507e-07  1.23198e+07
       629.90000  2.33507e-07  1.22988e+07
       630.00000  2.33507e-07  1.22778e+07
       630.10000  2.33507e-07  1.22568e+07
       630.20000  2.33507e-07  1.22404e+07
       630.30000  2.33507e-07  1.22218e+07
       630.40000  2.33507e-07  1.22078e+07
       630.50000  2.79437e-07  1.45922e+07
       630.60000  2.79437e-07  1.45754e+07
       630.70000  2.79437e-07  1.45615e+07
       630.80000  2.79437e-07  1.45503e+07
       630.90000  2.79437e-07  1.45391e+07
       631.00000  2.79437e-07  1.45307e+07
       631.10000  2.79437e-07  1.45391e+07
       631.20000  2.79437e-07  1.45475e+07
       631.30000  2.79423e-07  1.45580e+07
       631.40000  2.79423e-07  1.45663e+07
       631.50000  2.07395e-07  1.08177e+07
       631.60000  2.07395e-07  1.08239e+07
       631.70000  2.07395e-07  1.08302e+07
       631.80000  2.07395e-07  1.08343e+07
       631.90000  2.07395e-07  1.08405e+07
       632.00000  2.07395e-07  1.08468e+07
       632.10000  2.07395e-07  1.08530e+07
       632.20000  2.07395e-07  1.08571e+07
       632.30000  2.07395e-07  1.08634e+07
       632.40000  2.07395e-07  1.08696e+07
       632.50000  2.73215e-07  1.43247e+07
       632.60000  2.73215e-07  1.43301e+07
       632.70000  2.73215e-07  1.43383e+07
       632.80000  2.73215e-07  1.43438e+07
       632.90000  2.73215e-07  1.43493e+07
       633.00000  2.73215e-07  1.43574e+07
       633.10000  2.73215e-07  1.43629e+07
       633.20000  2.73215e-07  1.43684e+07
       633.30000  2.73215e-07  1.43738e+07
       633.40000  2.73215e-07  1.43793e+07
       633.50000  2.88243e-07  1.51760e+07
       633.60000  2.88243e-07  1.51818e+07
       633.70000  2.88243e-07  1.51875e+07
       633.80000  2.88199e-07  1.51881e+07
       633.90000  2.88199e-07  1.51938e+07
       634.00000  2.88199e-07  1.51996e+07
       634.10000  2.88199e-07  1.52025e+07
       634.20000  2.88199e-07  1.52082e+07
       634.30000  2.88199e-07  1.52111e+07
       634.40000  2.88199e-07  1.52169e+07
       634.50000  1.81029e-07  9.56016e+06
       634.60000  1.81029e-07  9.56197e+06
       634.70000  1.81029e-07  9.56559e+06
       634.80000  1.81029e-07  9.56740e+06
       634.90000  1.81029e-07  9.56921e+06
       635.00000  1.81029e-07  9.57102e+06
       635.10000  1.81029e-07  9.57283e+06
       635.20000  1.81029e-07  9.57283e+06
       635.30000  1.81029e-07  9.57464e+06
       635.40000  1.81029e-07  9.57464e+06
       635.50000  1.65890e-07  8.77557e+06
       635.60000  1.65890e-07  8.77723e+06
       635.70000  1.65890e-07  8.77723e+06
       635.80000  1.65890e-07  8.77889e+06
       635.90000  1.65890e-07  8.77889e+06
       636.00000  1.65890e-07  8.78054e+06
       636.10000  1.65890e-07  8.78054e+06
       636.20000  1.65890e-07  8.78220e+06
       636.30000  1.64907e-07  8.73015e+06
       636.40000  1.64907e-07  8.73180e+06
       636.50000  1.73089e-07  9.16507e+06
       636.60000  1.73089e-07  9.16680e+06
       636.70000  1.73089e-07  9.16680e+06
       636.80000  1.73089e-07  9.16853e+06
       636.90000  1.73089e-07  9.16853e+06
       637.00000  1.73089e-07  9.16853e+06
       637.10000  1.73089e-07  9.17026e+06
       637.20000  1.73089e-07  9.17026e+06
       637.30000  1.73089e-07  9.17199e+06
       637.40000  1.73089e-07  9.17199e+06
       637.50000  1.52083e-07  8.05888e+06
       637.60000  1.52083e-07  8.06040e+06
       637.70000  1.52083e-07  8.06040e+06
       637.80000  1.52083e-07  8.06192e+06
       637.90000  1.52083e-07  8.06192e+06
       638.00000  1.52083e-07  8.06192e+06
       638.10000  1.52083e-07  8.06344e+06
       638.20000  1.52083e-07  8.06344e+06
       638.30000  1.52083e-07  8.06344e+06
       638.40000  1.52083e-07  8.06497e+06
       638.50000  1.67455e-07  8.88014e+06
       638.60000  1.67455e-07  8.88014e+06
       638.70000  1.67455e-07  8.88181e+06
       638.80000  1.66357e-07  8.82357e+06
       638.90000  1.66357e-07  8.82357e+06
       639.00000  1.66357e-07  8.82357e+06
       639.10000  1.66357e-07  8.81026e+06
       639.20000  1.66357e-07  8.79695e+06
       639.30000  1.66357e-07  8.78365e+06
       639.40000  1.66357e-07  8.77200e+06
       639.50000  1.49989e-07  7.89695e+06
       639.60000  1.49989e-07  7.88795e+06
       639.70000  1.49989e-07  7.87745e+06
       639.80000  1.49989e-07  7.86845e+06
       639.90000  1.49989e-07  7.86095e+06
       640.00000  1.49989e-07  7.85195e+06
       640.10000  1.49989e-07  7.84445e+06
       640.20000  1.49989e-07  7.83845e+06
       640.30000  1.49989e-07  7.83245e+06
       640.40000  1.49989e-07  7.82645e+06
       640.50000  9.36658e-08  4.88373e+06
       640.60000  9.36658e-08  4.88092e+06
       640.70000  9.36658e-08  4.87811e+06
       640.80000  9.36658e-08  4.87624e+06
       640.90000  9.36658e-08  4.87343e+06
       641.00000  9.36658e-08  4.87249e+06
       641.10000  9.36658e-08  4.87437e+06
       641.20000  9.36658e-08  4.87624e+06
       641.30000  9.30322e-08  4.84512e+06
       641.40000  9.30322e-08  4.84698e+06
       641.50000  5.30150e-08  2.76314e+06
       641.60000  5.30150e-08  2.76420e+06
       641.70000  5.30150e-08  2.76526e+06
       641.80000  5.30150e-08  2.76632e+06
       641.90000  5.30150e-08  2.76738e+06
       642.00000  5.30150e-08  2.76844e+06
       642.10000  5.30150e-08  2.76897e+06
       642.20000  5.30150e-08  2.77003e+06
       642.30000  5.30150e-08  2.77109e+06
       642.40000  5.30150e-08  2.77215e+06
       642.50000  4.79515e-08  2.50834e+06
       642.60000  4.79515e-08  2.50930e+06
       642.70000  4.79515e-08  2.51026e+06
       642.80000  4.79515e-08  2.51122e+06
       642.90000  4.79515e-08  2.51218e+06
       643.00000  4.79515e-08  2.51314e+06
       643.10000  4.79515e-08  2.51362e+06
       643.20000  4.79515e-08  2.51458e+06
       643.30000  4.79515e-08  2.51554e+06
       643.40000  4.79515e-08  2.51649e+06
       643.50000  1.97315e-08  1.03590e+06
       643.60000  1.97315e-08  1.03630e+06
       643.70000  1.97315e-08  1.03650e+06
       643.80000  1.97052e-08  1.03551e+06
       643.90000  1.97052e-08  1.03590e+06
       644.00000  1.97052e-08  1.03630e+06
       644.10000  1.97052e-08  1.03669e+06
       644.20000  1.97052e-08  1.03689e+06
       644.30000  1.97052e-08  1.03728e+06
       644.40000  1.97052e-08  1.03768e+06
       644.50000  4.49913e-09      237014.
       644.60000  4.49913e-09      237059.
       644.70000  4.49913e-09      237149.
       644.80000  4.49913e-09      237239.
       644.90000  4.49913e-09      237329.
       645.00000  4.49913e-09      237374.
       645.10000  4.49913e-09      237329.
       645.20000  4.49913e-09      237239.
       645.30000  4.49913e-09      237194.
       645.40000  4.49913e-09      237104.
       645.50000  2.95713e-09      155752.
       645.60000  2.95713e-09      155693.
       645.70000  2.95713e-09      155634.
       645.80000  2.95713e-09      155545.
       645.90000  2.95713e-09      155456.
       646.00000  2.95713e-09      155367.
       646.10000  2.95713e-09      155279.
       646.20000  2.95713e-09      155190.
       646.30000  2.95531e-09      154977.
       646.40000  2.95531e-09      154858.
       646.50000  9.24127e-10      48396.5
       646.60000  9.24127e-10      48350.3
       646.70000  9.24127e-10      48313.4
       646.80000  9.24127e-10      48276.4
       646.90000  9.24127e-10      48230.2
       647.00000  9.24127e-10      48193.2
       647.10000  9.24127e-10      48063.8
       647.20000  9.24127e-10      47943.7
       647.30000  9.24127e-10      47832.8
       647.40000  9.24127e-10      47721.9
       647.50000  1.42665e-09      73515.4
       647.60000  1.42665e-09      73387.0
       647.70000  1.42665e-09      73244.3
       647.80000  1.42665e-09      73130.2
       647.90000  1.42665e-09      73016.0
       648.00000  1.42665e-09      72916.2
       648.10000  1.42665e-09      72830.6
       648.20000  1.42665e-09      72759.2
       648.30000  1.42665e-09      72687.9
       648.40000  1.42665e-09      72630.8
       648.50000  1.43285e-09      72903.6
       648.60000  1.43285e-09      72875.0
       648.70000  1.43285e-09      72846.3
       648.80000  1.43434e-09      72907.4
       648.90000  1.43434e-09      72907.4
       649.00000  1.43434e-09      72921.7
       649.10000  1.43434e-09      72936.0
       649.20000  1.43434e-09      72979.1
       649.30000  1.43434e-09      73007.8
       649.40000  1.43434e-09      73065.1
       649.50000  9.06486e-10      46221.7
       649.60000  9.06486e-10      46267.1
       649.70000  9.06486e-10      46321.5
       649.80000  9.06486e-10      46384.9
       649.90000  9.06486e-10      46448.4
       650.00000  9.06486e-10      46520.9
       650.10000  9.06486e-10      46602.5
       650.20000  9.06486e-10      46693.1
       650.30000  9.06486e-10      46792.8
       650.40000  9.06486e-10      46892.5
       650.50000  6.02606e-10      31245.1
       650.60000  6.02606e-10      31323.5
       650.70000  6.02606e-10      31401.8
       650.80000  6.02606e-10      31492.2
       650.90000  6.02606e-10      31582.6
       651.00000  6.02606e-10      31679.0
       651.10000  6.02606e-10      31703.1
       651.20000  6.02606e-10      31727.2
       651.30000  6.01851e-10      31705.5
       651.40000  6.01851e-10      31723.6
       651.50000  3.06454e-10      16162.4
       651.60000  3.06454e-10      16165.4
       651.70000  3.06454e-10      16171.6
       651.80000  3.06454e-10      16174.6
       651.90000  3.06454e-10      16174.6
       652.00000  3.06454e-10      16174.6
       652.10000  3.06454e-10      16171.6
       652.20000  3.06454e-10      16168.5
       652.30000  3.06454e-10      16165.4
       652.40000  3.06454e-10      16159.3
       652.50000  3.40788e-10      17959.5
       652.60000  3.40788e-10      17949.3
       652.70000  3.40788e-10      17939.1
       652.80000  3.40788e-10      17922.1
       652.90000  3.40788e-10      17908.4
       653.00000  3.40788e-10      17891.4
       653.10000  3.40788e-10      17877.8
       653.20000  3.40788e-10      17864.1
       653.30000  3.40788e-10      17843.7
       653.40000  3.40788e-10      17823.2
       653.50000  1.53372e-10      8012.14
       653.60000  1.53372e-10      8001.40
       653.70000  1.53372e-10      7989.14
       653.80000  1.53185e-10      7965.62
       653.90000  1.53185e-10      7951.83
       654.00000  1.53185e-10      7936.51
       654.10000  1.53185e-10      7921.19
       654.20000  1.53185e-10      7902.81
       654.30000  1.53185e-10      7884.43
       654.40000  1.53185e-10      7866.04
       654.50000  8.75951e-11      4486.62
       654.60000  8.75951e-11      4474.36
       654.70000  8.75951e-11      4461.22
       654.80000  8.75951e-11      4448.08
       654.90000  8.75951e-11      4434.06
       655.00000  8.75951e-11      4419.17
       655.10000  8.75951e-11      4377.13
       655.20000  8.75951e-11      4336.83
       655.30000  8.75951e-11      4299.17
       655.40000  8.75951e-11      4264.13
       655.50000  9.91570e-11      4789.28
       655.60000  9.91570e-11      4754.58
       655.70000  9.91570e-11      4721.86
       655.80000  9.91570e-11      4692.11
       655.90000  9.91570e-11      4664.35
       656.00000  9.91570e-11      4639.56
       656.10000  9.91570e-11      4617.74
       656.20000  9.91570e-11      4597.91
       656.30000  9.90816e-11      4577.57
       656.40000  9.90816e-11      4562.71
       656.50000  6.73970e-11      3095.54
       656.60000  6.73970e-11      3089.48
       656.70000  6.73970e-11      3084.76
       656.80000  6.73970e-11      3082.06
       656.90000  6.73970e-11      3080.72
       657.00000  6.73970e-11      3081.39
       657.10000  6.73970e-11      3107.68
       657.20000  6.73970e-11      3133.29
       657.30000  6.73970e-11      3158.22
       657.40000  6.73970e-11      3182.49
       657.50000  5.93979e-11      2824.96
       657.60000  5.93979e-11      2845.16
       657.70000  5.93979e-11      2864.16
       657.80000  5.93979e-11      2882.58
       657.90000  5.93979e-11      2899.80
       658.00000  5.93979e-11      2917.03
       658.10000  5.93979e-11      2933.66
       658.20000  5.93979e-11      2949.10
       658.30000  5.93979e-11      2963.95
       658.40000  5.93979e-11      2978.21
       658.50000  5.02729e-11      2531.74
       658.60000  5.02729e-11      2542.80
       658.70000  5.02729e-11      2552.86
       658.80000  5.02207e-11      2560.25
       658.90000  5.02207e-11      2569.29
       659.00000  5.02207e-11      2577.33
       659.10000  5.02207e-11      2585.36
       659.20000  5.02207e-11      2592.90
       659.30000  5.02207e-11      2599.42
       659.40000  5.02207e-11      2605.45
       659.50000  4.22119e-11      2194.59
       659.60000  4.22119e-11      2198.82
       659.70000  4.22119e-11      2202.19
       659.80000  4.22119e-11      2205.57
       659.90000  4.22119e-11      2208.10
       660.00000  4.22119e-11      2210.21
       660.10000  4.22119e-11      2211.90
       660.20000  4.22119e-11      2212.75
       660.30000  4.22119e-11      2213.59
       660.40000  4.22119e-11      2213.59
       660.50000  3.74500e-11      1963.50
       660.60000  3.74500e-11      1962.75
       660.70000  3.74500e-11      1961.63
       660.80000  3.74500e-11      1959.76
       660.90000  3.74500e-11      1957.89
       661.00000  3.74500e-11      1955.26
       661.10000  3.74500e-11      1954.14
       661.20000  3.74500e-11      1952.64
       661.30000  3.73570e-11      1946.67
       661.40000  3.73570e-11      1945.55
       661.50000  3.13571e-11      1632.14
       661.60000  3.13571e-11      1631.51
       661.70000  3.13571e-11      1630.57
       661.80000  3.13571e-11      1629.94
       661.90000  3.13571e-11      1629.31
       662.00000  3.13571e-11      1628.69
       662.10000  3.13571e-11      1628.06
       662.20000  3.13571e-11      1627.43
       662.30000  3.13571e-11      1627.12
       662.40000  3.13571e-11      1626.81
       662.50000  2.08170e-11      1079.57
       662.60000  2.08170e-11      1079.57
       662.70000  2.08170e-11      1079.36
       662.80000  2.08170e-11      1079.15
       662.90000  2.08170e-11      1079.15
       663.00000  2.08170e-11      1079.15
       663.10000  2.08170e-11      1079.98
       663.20000  2.08170e-11      1080.61
       663.30000  2.08170e-11      1081.44
       663.40000  2.08170e-11      1082.07
       663.50000  1.53505e-11      798.379
       663.60000  1.53505e-11      798.839
       663.70000  1.53505e-11      799.146
       663.80000  1.53177e-11      797.901
       663.90000  1.53177e-11      798.207
       664.00000  1.53177e-11      798.361
       664.10000  1.53177e-11      798.667
       664.20000  1.53177e-11      798.820
       664.30000  1.53177e-11      798.973
       664.40000  1.53177e-11      799.126
       664.50000  9.26417e-12      483.312
       664.60000  9.26417e-12      483.312
       664.70000  9.26417e-12      483.312
       664.80000  9.26417e-12      483.312
       664.90000  9.26417e-12      483.312
       665.00000  9.26417e-12      483.219
       665.10000  9.26417e-12      483.127
       665.20000  9.26417e-12      483.034
       665.30000  9.26417e-12      482.849
       665.40000  9.26417e-12      482.663
       665.50000  1.21097e-11      630.671
       665.60000  1.21097e-11      630.429
       665.70000  1.21097e-11      630.065
       665.80000  1.21097e-11      629.823
       665.90000  1.21097e-11      629.460
       666.00000  1.21097e-11      628.975
       666.10000  1.21097e-11      628.612
       666.20000  1.21097e-11      628.128
       666.30000  1.20792e-11      626.067
       666.40000  1.20792e-11      625.584
       666.50000  8.36125e-12      432.611
       666.60000  8.36125e-12      432.193
       666.70000  8.36125e-12      431.775
       666.80000  8.36125e-12      431.357
       666.90000  8.36125e-12      430.939
       667.00000  8.36125e-12      430.437
       667.10000  8.36125e-12      430.939
       667.20000  8.36125e-12      431.357
       667.30000  8.36125e-12      431.775
       667.40000  8.36125e-12      432.193
       667.50000  9.22384e-12      477.242
       667.60000  9.22384e-12      477.611
       667.70000  9.22384e-12      477.979
       667.80000  9.22384e-12      478.256
       667.90000  9.22384e-12      478.533
       668.00000  9.22384e-12      478.810
       668.10000  9.22384e-12      479.086
       668.20000  9.22384e-12      479.271
       668.30000  9.22384e-12      479.455
       668.40000  9.22384e-12      479.548
       668.50000  1.06491e-11      553.754
       668.60000  1.06491e-11      553.861
       668.70000  1.06491e-11      553.861
       668.80000  1.06317e-11      552.955
       668.90000  1.06317e-11      552.955
       669.00000  1.06317e-11      552.848
       669.10000  1.06317e-11      552.104
       669.20000  1.06317e-11      551.360
       669.30000  1.06317e-11      550.722
       669.40000  1.06317e-11      550.084
       669.50000  9.96629e-12      515.058
       669.60000  9.96629e-12      514.460
       669.70000  9.96629e-12      513.961
       669.80000  9.96629e-12      513.463
       669.90000  9.96629e-12      512.965
       670.00000  9.96629e-12      512.566
       670.10000  9.96629e-12      512.167
       670.20000  9.96629e-12      511.769
       670.30000  9.96629e-12      511.370
       670.40000  9.96629e-12      511.071
       670.50000  4.01458e-12      205.747
       670.60000  4.01458e-12      205.627
       670.70000  4.01458e-12      205.547
       670.80000  4.01458e-12      205.466
       670.90000  4.01458e-12      205.386
       671.00000  4.01458e-12      205.346
       671.10000  4.01458e-12      205.266
       671.20000  4.01458e-12      205.266
       671.30000  4.01473e-12      205.233
       671.40000  4.01473e-12      205.233
       671.50000  5.86831e-12      299.988
       671.60000  5.86831e-12      299.988
       671.70000  5.86831e-12      299.988
       671.80000  5.86831e-12      300.047
       671.90000  5.86831e-12      300.105
       672.00000  5.86831e-12      300.223
       672.10000  5.86831e-12      300.340
       672.20000  5.86831e-12      300.458
       672.30000  5.86831e-12      300.575
       672.40000  5.86831e-12      300.751
       672.50000  5.34915e-12      274.305
       672.60000  5.34915e-12      274.465
       672.70000  5.34915e-12      274.626
       672.80000  5.34915e-12      274.840
       672.90000  5.34915e-12      275.054
       673.00000  5.34915e-12      275.321
       673.10000  5.34915e-12      275.214
       673.20000  5.34915e-12      275.107
       673.30000  5.34915e-12      275.000
       673.40000  5.34915e-12      274.947
       673.50000  4.11253e-12      211.302
       673.60000  4.11253e-12      211.260
       673.70000  4.11253e-12      211.219
       673.80000  4.11417e-12      211.221
       673.90000  4.11417e-12      211.180
       674.00000  4.11417e-12      211.139
       674.10000  4.11417e-12      211.098
       674.20000  4.11417e-12      211.057
       674.30000  4.11417e-12      211.016
       674.40000  4.11417e-12      210.975
       674.50000  4.19657e-12      215.158
       674.60000  4.19657e-12      215.158
       674.70000  4.19657e-12      215.116
       674.80000  4.19657e-12      215.116
       674.90000  4.19657e-12      215.074
       675.00000  4.19657e-12      215.074
       675.10000  4.19657e-12      215.116
       675.20000  4.19657e-12      215.158
       675.30000  4.19657e-12      215.200
       675.40000  4.19657e-12      215.242
       675.50000  4.33305e-12      222.242
       675.60000  4.33305e-12      222.286
       675.70000  4.33305e-12      222.329
       675.80000  4.33305e-12      222.329
       675.90000  4.33305e-12      222.372
       676.00000  4.33305e-12      222.372
       676.10000  4.33305e-12      222.416
       676.20000  4.33305e-12      222.416
       676.30000  4.32863e-12      222.189
       676.40000  4.32863e-12      222.189
       676.50000  3.89674e-12      200.058
       676.60000  3.89674e-12      200.058
       676.70000  3.89674e-12      200.058
       676.80000  3.89674e-12      200.020
       676.90000  3.89674e-12      200.020
       677.00000  3.89674e-12      200.020
       677.10000  3.89674e-12      200.020
       677.20000  3.89674e-12      199.981
       677.30000  3.89674e-12      199.981
       677.40000  3.89674e-12      199.942
       677.50000  5.51789e-12      283.123
       677.60000  5.51789e-12      283.068
       677.70000  5.51789e-12      283.068
       677.80000  5.51789e-12      283.012
       677.90000  5.51789e-12      282.957
       678.00000  5.51789e-12      282.902
       678.10000  5.51789e-12      282.847
       678.20000  5.51789e-12      282.792
       678.30000  5.51789e-12      282.737
       678.40000  5.51789e-12      282.681
       678.50000  5.22106e-12      267.371
       678.60000  5.22106e-12      267.318
       678.70000  5.22106e-12      267.266
       678.80000  5.22067e-12      267.142
       678.90000  5.22067e-12      267.089
       679.00000  5.22067e-12      266.985
       679.10000  5.22067e-12      266.985
       679.20000  5.22067e-12      267.037
       679.30000  5.22067e-12      267.037
       679.40000  5.22067e-12      267.037
       679.50000  4.64484e-12      237.583
       679.60000  4.64484e-12      237.583
       679.70000  4.64484e-12      237.583
       679.80000  4.64484e-12      237.583
       679.90000  4.64484e-12      237.583
       680.00000  4.64484e-12      237.537
       680.10000  4.64484e-12      237.537
       680.20000  4.64484e-12      237.537
       680.30000  4.64484e-12      237.491
       680.40000  4.64484e-12      237.491
       680.50000  4.73091e-12      241.844
       680.60000  4.73091e-12      241.844
       680.70000  4.73091e-12      241.797
       680.80000  4.73091e-12      241.749
       680.90000  4.73091e-12      241.702
       681.00000  4.73091e-12      241.702
       681.10000  4.73091e-12      241.655
       681.20000  4.73091e-12      241.608
       681.30000  4.73046e-12      241.585
       681.40000  4.73046e-12      241.537
       681.50000  6.18055e-12      315.517
       681.60000  6.18055e-12      315.455
       681.70000  6.18055e-12      315.394
       681.80000  6.18055e-12      315.270
       681.90000  6.18055e-12      315.208
       682.00000  6.18055e-12      315.146
       682.10000  6.18055e-12      315.023
       682.20000  6.18055e-12      314.899
       682.30000  6.18055e-12      314.837
       682.40000  6.18055e-12      314.714
       682.50000  4.37648e-12      222.763
       682.60000  4.37648e-12      222.675
       682.70000  4.37648e-12      222.588
       682.80000  4.37648e-12      222.500
       682.90000  4.37648e-12      222.369
       683.00000  4.37648e-12      222.281
       683.10000  4.37648e-12      222.194
       683.20000  4.37648e-12      222.063
       683.30000  4.37648e-12      221.931
       683.40000  4.37648e-12      221.800
       683.50000  3.14124e-12      159.135
       683.60000  3.14124e-12      159.041
       683.70000  3.14124e-12      158.947
       683.80000  3.13883e-12      158.699
       683.90000  3.13883e-12      158.605
       684.00000  3.13883e-12      158.511
       684.10000  3.13883e-12      158.385
       684.20000  3.13883e-12      158.291
       684.30000  3.13883e-12      158.166
       684.40000  3.13883e-12      158.071
       684.50000  4.50768e-12      226.827
       684.60000  4.50768e-12      226.646
       684.70000  4.50768e-12      226.466
       684.80000  4.50768e-12      226.286
       684.90000  4.50768e-12      226.060
       685.00000  4.50768e-12      225.880
       685.10000  4.50768e-12      226.060
       685.20000  4.50768e-12      226.286
       685.30000  4.50768e-12      226.466
       685.40000  4.50768e-12      226.601
       685.50000  4.01638e-12      202.064
       685.60000  4.01638e-12      202.225
       685.70000  4.01638e-12      202.345
       685.80000  4.01638e-12      202.466
       685.90000  4.01638e-12      202.586
       686.00000  4.01638e-12      202.706
       686.10000  4.01638e-12      202.827
       686.20000  4.01638e-12      202.907
       686.30000  4.01216e-12      202.815
       686.40000  4.01216e-12      202.895
       686.50000  4.27247e-12      216.144
       686.60000  4.27247e-12      216.230
       686.70000  4.27247e-12      216.315
       686.80000  4.27247e-12      216.358
       686.90000  4.27247e-12      216.443
       687.00000  4.27247e-12      216.486
       687.10000  4.27247e-12      216.529
       687.20000  4.27247e-12      216.529
       687.30000  4.27247e-12      216.529
       687.40000  4.27247e-12      216.529
       687.50000  4.14642e-12      210.140
       687.60000  4.14642e-12      210.140
       687.70000  4.14642e-12      210.140
       687.80000  4.14642e-12      210.140
       687.90000  4.14642e-12      210.140
       688.00000  4.14642e-12      210.099
       688.10000  4.14642e-12      210.099
       688.20000  4.14642e-12      210.099
       688.30000  4.14642e-12      210.057
       688.40000  4.14642e-12      210.057
       688.50000  3.26157e-12      165.199
       688.60000  3.26157e-12      165.166
       688.70000  3.26157e-12      165.166
       688.80000  3.25741e-12      164.923
       688.90000  3.25741e-12      164.890
       689.00000  3.25741e-12      164.858
       689.10000  3.25741e-12      164.825
       689.20000  3.25741e-12      164.792
       689.30000  3.25741e-12      164.760
       689.40000  3.25741e-12      164.727
       689.50000  3.50543e-12      177.234
       689.60000  3.50543e-12      177.199
       689.70000  3.50543e-12      177.129
       689.80000  3.50543e-12      177.094
       689.90000  3.50543e-12      177.059
       690.00000  3.50543e-12      176.989
       690.10000  3.50543e-12      176.919
       690.20000  3.50543e-12      176.884
       690.30000  3.50543e-12      176.814
       690.40000  3.50543e-12      176.744
       690.50000  2.93364e-12      147.885
       690.60000  2.93364e-12      147.826
       690.70000  2.93364e-12      147.768
       690.80000  2.93364e-12      147.709
       690.90000  2.93364e-12      147.650
       691.00000  2.93364e-12      147.592
       691.10000  2.93364e-12      147.650
       691.20000  2.93364e-12      147.680
       691.30000  2.93084e-12      147.597
       691.40000  2.93084e-12      147.626
       691.50000  1.98893e-12      100.202
       691.60000  1.98893e-12      100.242
       691.70000  1.98893e-12      100.262
       691.80000  1.98893e-12      100.282
       691.90000  1.98893e-12      100.301
       692.00000  1.98893e-12      100.301
       692.10000  1.98893e-12      100.321
       692.20000  1.98893e-12      100.341
       692.30000  1.98893e-12      100.341
       692.40000  1.98893e-12      100.341
       692.50000  1.79807e-12      90.7306
       692.60000  1.79807e-12      90.7306
       692.70000  1.79807e-12      90.7306
       692.80000  1.79807e-12      90.7306
       692.90000  1.79807e-12      90.7306
       693.00000  1.79807e-12      90.7126
       693.10000  1.79807e-12      90.7126
       693.20000  1.79807e-12      90.6946
       693.30000  1.79807e-12      90.6766
       693.40000  1.79807e-12      90.6586
       693.50000  1.30009e-12      65.5374
       693.60000  1.30009e-12      65.5244
       693.70000  1.30009e-12      65.5114
       693.80000  1.29493e-12      65.2385
       693.90000  1.29493e-12      65.2126
       694.00000  1.29493e-12      65.1997
       694.10000  1.29493e-12      65.1867
       694.20000  1.29493e-12      65.1608
       694.30000  1.29493e-12      65.1479
       694.40000  1.29493e-12      65.1220
       694.50000  1.02785e-12      51.6700
       694.60000  1.02785e-12      51.6597
       694.70000  1.02785e-12      51.6391
       694.80000  1.02785e-12      51.6186
       694.90000  1.02785e-12      51.5980
       695.00000  1.02785e-12      51.5775
       695.10000  1.02785e-12      51.5569
       695.20000  1.02785e-12      51.5363
       695.30000  1.02785e-12      51.5055
       695.40000  1.02785e-12      51.4850
       695.50000  1.67595e-12      83.9150
       695.60000  1.67595e-12      83.8647
       695.70000  1.67595e-12      83.8312
       695.80000  1.67595e-12      83.7809
       695.90000  1.67595e-12      83.7306
       696.00000  1.67595e-12      83.6971
       696.10000  1.67595e-12      83.6468
       696.20000  1.67595e-12      83.5965
       696.30000  1.67431e-12      83.4642
       696.40000  1.67431e-12      83.4140
       696.50000  1.98808e-12      98.9863
       696.60000  1.98808e-12      98.9266
       696.70000  1.98808e-12      98.8471
       696.80000  1.98808e-12      98.7875
       696.90000  1.98808e-12      98.7278
       697.00000  1.98808e-12      98.6483
       697.10000  1.98808e-12      98.7875
       697.20000  1.98808e-12      98.8869
       697.30000  1.98808e-12      99.0062
       697.40000  1.98808e-12      99.1056
       697.50000  1.55050e-12      77.3701
       697.60000  1.55050e-12      77.4321
       697.70000  1.55050e-12      77.4941
       697.80000  1.55050e-12      77.5406
       697.90000  1.55050e-12      77.5872
       698.00000  1.55050e-12      77.6182
       698.10000  1.55050e-12      77.6492
       698.20000  1.55050e-12      77.6802
       698.30000  1.55050e-12      77.6957
       698.40000  1.55050e-12      77.7112
       698.50000  1.79253e-12      89.8594
       698.60000  1.79253e-12      89.8594
       698.70000  1.79253e-12      89.8415
       698.80000  1.78947e-12      89.6702
       698.90000  1.78947e-12      89.6524
       699.00000  1.78947e-12      89.6166
       699.10000  1.78947e-12      89.4555
       699.20000  1.78947e-12      89.2766
       699.30000  1.78947e-12      89.1334
       699.40000  1.78947e-12      88.9724
       699.50000  1.48452e-12      73.6917
       699.60000  1.48452e-12      73.5729
       699.70000  1.48452e-12      73.4690
       699.80000  1.48452e-12      73.3651
       699.90000  1.48452e-12      73.2612
       700.00000  1.48452e-12      73.1721
       700.10000  1.48452e-12      73.0830
       700.20000  1.48452e-12      72.9940
       700.30000  1.48452e-12      72.9197
       700.40000  1.48452e-12      72.8455
       700.50000  1.10217e-12      54.0286
       700.60000  1.10217e-12      53.9845
       700.70000  1.10217e-12      53.9404
       700.80000  1.10217e-12      53.9074
       700.90000  1.10217e-12      53.8743
       701.00000  1.10217e-12      53.8412
       701.10000  1.10217e-12      53.8302
       701.20000  1.10217e-12      53.8192
       701.30000  1.10142e-12      53.7715
       701.40000  1.10142e-12      53.7715
       701.50000  1.25567e-12      61.3020
       701.60000  1.25567e-12      61.3020
       701.70000  1.25567e-12      61.3020
       701.80000  1.25567e-12      61.3145
       701.90000  1.25567e-12      61.3145
       702.00000  1.25567e-12      61.3271
       702.10000  1.25567e-12      61.3522
       702.20000  1.25567e-12      61.3648
       702.30000  1.25567e-12      61.3899
       702.40000  1.25567e-12      61.4024
       702.50000  1.14362e-12      55.9460
       702.60000  1.14362e-12      55.9803
       702.70000  1.14362e-12      56.0032
       702.80000  1.14362e-12      56.0375
       702.90000  1.14362e-12      56.0718
       703.00000  1.14362e-12      56.1061
       703.10000  1.14362e-12      56.2090
       703.20000  1.14362e-12      56.3120
       703.30000  1.14362e-12      56.4034
       703.40000  1.14362e-12      56.4949
       703.50000  8.25751e-13      40.8499
       703.60000  8.25751e-13      40.9160
       703.70000  8.25751e-13      40.9655
       703.80000  8.23529e-13      40.9129
       703.90000  8.23529e-13      40.9623
       704.00000  8.23529e-13      41.0035
       704.10000  8.23529e-13      41.0529
       704.20000  8.23529e-13      41.0941
       704.30000  8.23529e-13      41.1270
       704.40000  8.23529e-13      41.1600
       704.50000  1.32299e-12      66.1758
       704.60000  1.32299e-12      66.2287
       704.70000  1.32299e-12      66.2684
       704.80000  1.32299e-12      66.2948
       704.90000  1.32299e-12      66.3345
       705.00000  1.32299e-12      66.3610
       705.10000  1.32299e-12      66.3742
       705.20000  1.32299e-12      66.3874
       705.30000  1.32299e-12      66.4007
       705.40000  1.32299e-12      66.4139
       705.50000  1.32557e-12      66.5438
       705.60000  1.32557e-12      66.5438
       705.70000  1.32557e-12      66.5305
       705.80000  1.32557e-12      66.5173
       705.90000  1.32557e-12      66.5040
       706.00000  1.32557e-12      66.4775
       706.10000  1.32557e-12      66.4510
       706.20000  1.32557e-12      66.4112
       706.30000  1.32657e-12      66.4213
       706.40000  1.32657e-12      66.3815
       706.50000  7.16439e-13      35.8219
       706.60000  7.16439e-13      35.7933
       706.70000  7.16439e-13      35.7646
       706.80000  7.16439e-13      35.7288
       706.90000  7.16439e-13      35.6930
       707.00000  7.16439e-13      35.6572
       707.10000  7.16439e-13      35.6285
       707.20000  7.16439e-13      35.6070
       707.30000  7.16439e-13      35.5784
       707.40000  7.16439e-13      35.5569
       707.50000  1.43904e-12      71.3762
       707.60000  1.43904e-12      71.3330
       707.70000  1.43904e-12      71.3043
       707.80000  1.43904e-12      71.2611
       707.90000  1.43904e-12      71.2323
       708.00000  1.43904e-12      71.2035
       708.10000  1.43904e-12      71.1748
       708.20000  1.43904e-12      71.1460
       708.30000  1.43904e-12      71.1172
       708.40000  1.43904e-12      71.0884
       708.50000  9.82903e-13      48.5456
       708.60000  9.82903e-13      48.5259
       708.70000  9.82903e-13      48.5161
       708.80000  9.79556e-13      48.3411
       708.90000  9.79556e-13      48.3313
       709.00000  9.79556e-13      48.3313
       709.10000  9.79556e-13      48.3509
       709.20000  9.79556e-13      48.3705
       709.30000  9.79556e-13      48.3803
       709.40000  9.79556e-13      48.3999
       709.50000  1.33411e-12      65.9316
       709.60000  1.33411e-12      65.9583
       709.70000  1.33411e-12      65.9716
       709.80000  1.33411e-12      65.9850
       709.90000  1.33411e-12      65.9983
       710.00000  1.33411e-12      66.0117
       710.10000  1.33411e-12      66.0250
       710.20000  1.33411e-12      66.0383
       710.30000  1.33411e-12      66.0383
       710.40000  1.33411e-12      66.0517
       710.50000  8.65249e-13      42.8385
       710.60000  8.65249e-13      42.8385
       710.70000  8.65249e-13      42.8385
       710.80000  8.65249e-13      42.8385
       710.90000  8.65249e-13      42.8385
       711.00000  8.65249e-13      42.8385
       711.10000  8.65249e-13      42.8385
       711.20000  8.65249e-13      42.8298
       711.30000  8.65436e-13      42.8391
       711.40000  8.65436e-13      42.8304
       711.50000  9.53400e-13      47.1742
       711.60000  9.53400e-13      47.1647
       711.70000  9.53400e-13      47.1552
       711.80000  9.53400e-13      47.1456
       711.90000  9.53400e-13      47.1361
       712.00000  9.53400e-13      47.1170
       712.10000  9.53400e-13      47.1075
       712.20000  9.53400e-13      47.0884
       712.30000  9.53400e-13      47.0789
       712.40000  9.53400e-13      47.0598
       712.50000  1.22815e-12      60.5971
       712.60000  1.22815e-12      60.5725
       712.70000  1.22815e-12      60.5357
       712.80000  1.22815e-12      60.5111
       712.90000  1.22815e-12      60.4866
       713.00000  1.22815e-12      60.4497
       713.10000  1.22815e-12      60.4497
       713.20000  1.22815e-12      60.4497
       713.30000  1.22815e-12      60.4497
       713.40000  1.22815e-12      60.4374
       713.50000  1.40708e-12      69.2423
       713.60000  1.40708e-12      69.2423
       713.70000  1.40708e-12      69.2283
       713.80000  1.40675e-12      69.2121
       713.90000  1.40675e-12      69.1980
       714.00000  1.40675e-12      69.1980
       714.10000  1.40675e-12      69.1840
       714.20000  1.40675e-12      69.1699
       714.30000  1.40675e-12      69.1699
       714.40000  1.40675e-12      69.1558
       714.50000  9.89288e-13      48.6235
       714.60000  9.89288e-13      48.6136
       714.70000  9.89288e-13      48.6136
       714.80000  9.89288e-13      48.6037
       714.90000  9.89288e-13      48.5938
       715.00000  9.89288e-13      48.5839
       715.10000  9.89288e-13      48.5741
       715.20000  9.89288e-13      48.5741
       715.30000  9.89288e-13      48.5741
       715.40000  9.89288e-13      48.5642
       715.50000  1.47399e-12      72.3432
       715.60000  1.47399e-12      72.3285
       715.70000  1.47399e-12      72.3138
       715.80000  1.47399e-12      72.2990
       715.90000  1.47399e-12      72.2843
       716.00000  1.47399e-12      72.2548
       716.10000  1.47399e-12      72.2401
       716.20000  1.47399e-12      72.2106
       716.30000  1.47186e-12      72.0770
       716.40000  1.47186e-12      72.0476
       716.50000  9.45279e-13      46.2525
       716.60000  9.45279e-13      46.2336
       716.70000  9.45279e-13      46.2147
       716.80000  9.45279e-13      46.1863
       716.90000  9.45279e-13      46.1674
       717.00000  9.45279e-13      46.1391
       717.10000  9.45279e-13      46.1107
       717.20000  9.45279e-13      46.0824
       717.30000  9.45279e-13      46.0540
       717.40000  9.45279e-13      46.0257
       717.50000  8.57263e-13      41.7144
       717.60000  8.57263e-13      41.6801
       717.70000  8.57263e-13      41.6544
       717.80000  8.57263e-13      41.6201
       717.90000  8.57263e-13      41.5858
       718.00000  8.57263e-13      41.5515
       718.10000  8.57263e-13      41.5173
       718.20000  8.57263e-13      41.4830
       718.30000  8.57263e-13      41.4487
       718.40000  8.57263e-13      41.4058
       718.50000  1.31565e-12      63.4935
       718.60000  1.31565e-12      63.4277
       718.70000  1.31565e-12      63.3619
       718.80000  1.31025e-12      63.0361
       718.90000  1.31025e-12      62.9706
       719.00000  1.31025e-12      62.9051
       719.10000  1.31025e-12      62.9051
       719.20000  1.31025e-12      62.9051
       719.30000  1.31025e-12      62.9051
       719.40000  1.31025e-12      62.9182
       719.50000  9.87911e-13      47.4395
       719.60000  9.87911e-13      47.4494
       719.70000  9.87911e-13      47.4494
       719.80000  9.87911e-13      47.4592
       719.90000  9.87911e-13      47.4691
       720.00000  9.87911e-13      47.4889
       720.10000  9.87911e-13      47.4988
       720.20000  9.87911e-13      47.5086
       720.30000  9.87911e-13      47.5284
       720.40000  9.87911e-13      47.5383
       720.50000  2.42911e-12      116.937
       720.60000  2.42911e-12      116.986
       720.70000  2.42911e-12      117.034
       720.80000  2.42911e-12      117.083
       720.90000  2.42911e-12      117.156
       721.00000  2.42911e-12      117.204
       721.10000  2.42911e-12      117.326
       721.20000  2.42911e-12      117.447
       721.30000  2.42416e-12      117.329
       721.40000  2.42416e-12      117.426
       721.50000  3.67172e-12      178.042
       721.60000  3.67172e-12      178.189
       721.70000  3.67172e-12      178.335
       721.80000  3.67172e-12      178.519
       721.90000  3.67172e-12      178.666
       722.00000  3.67172e-12      178.776
       722.10000  3.67172e-12      178.923
       722.20000  3.67172e-12      179.070
       722.30000  3.67172e-12      179.180
       722.40000  3.67172e-12      179.290
       722.50000  6.80859e-12      332.668
       722.60000  6.80859e-12      332.940
       722.70000  6.80859e-12      333.076
       722.80000  6.80859e-12      333.280
       722.90000  6.80859e-12      333.485
       723.00000  6.80859e-12      333.621
       723.10000  6.80859e-12      333.825
       723.20000  6.80859e-12      333.961
       723.30000  6.80859e-12      334.097
       723.40000  6.80859e-12      334.234
       723.50000  7.59708e-12      373.092
       723.60000  7.59708e-12      373.168
       723.70000  7.59708e-12      373.320
       723.80000  7.57377e-12      372.251
       723.90000  7.57377e-12      372.326
       724.00000  7.57377e-12      372.402
       724.10000  7.57377e-12      372.478
       724.20000  7.57377e-12      372.554
       724.30000  7.57377e-12      372.629
       724.40000  7.57377e-12      372.705
       724.50000  1.41250e-11      695.089
       724.60000  1.41250e-11      695.089
       724.70000  1.41250e-11      695.089
       724.80000  1.41250e-11      695.089
       724.90000  1.41250e-11      695.089
       725.00000  1.41250e-11      695.089
       725.10000  1.41250e-11      695.371
       725.20000  1.41250e-11      695.654
       725.30000  1.41250e-11      695.795
       725.40000  1.41250e-11      696.078
       725.50000  1.46569e-11      722.441
       725.60000  1.46569e-11      722.587
       725.70000  1.46569e-11      722.587
       725.80000  1.46569e-11      722.734
       725.90000  1.46569e-11      722.734
       726.00000  1.46569e-11      722.734
       726.10000  1.46569e-11      722.734
       726.20000  1.46569e-11      722.734
       726.30000  1.46188e-11      720.707
       726.40000  1.46188e-11      720.560
       726.50000  1.40964e-11      694.669
       726.60000  1.40964e-11      694.528
       726.70000  1.40964e-11      694.387
       726.80000  1.40964e-11      694.105
       726.90000  1.40964e-11      693.823
       727.00000  1.40964e-11      693.541
       727.10000  1.40964e-11      692.554
       727.20000  1.40964e-11      691.567
       727.30000  1.40964e-11      690.581
       727.40000  1.40964e-11      689.735
       727.50000  1.45064e-11      708.928
       727.60000  1.45064e-11      708.057
       727.70000  1.45064e-11      707.332
       727.80000  1.45064e-11      706.607
       727.90000  1.45064e-11      705.881
       728.00000  1.45064e-11      705.301
       728.10000  1.45064e-11      704.721
       728.20000  1.45064e-11      704.141
       728.30000  1.45064e-11      703.560
       728.40000  1.45064e-11      703.125
       728.50000  1.34886e-11      653.390
       728.60000  1.34886e-11      653.120
       728.70000  1.34886e-11      652.715
       728.80000  1.34915e-11      652.718
       728.90000  1.34915e-11      652.448
       729.00000  1.34915e-11      652.313
       729.10000  1.34915e-11      652.178
       729.20000  1.34915e-11      652.043
       729.30000  1.34915e-11      652.043
       729.40000  1.34915e-11      651.909
       729.50000  7.61878e-12      368.216
       729.60000  7.61878e-12      368.216
       729.70000  7.61878e-12      368.292
       729.80000  7.61878e-12      368.368
       729.90000  7.61878e-12      368.521
       730.00000  7.61878e-12      368.673
       730.10000  7.61878e-12      368.825
       730.20000  7.61878e-12      368.978
       730.30000  7.61878e-12      369.206
       730.40000  7.61878e-12      369.435
       730.50000  6.93609e-12      336.539
       730.60000  6.93609e-12      336.816
       730.70000  6.93609e-12      337.094
       730.80000  6.93609e-12      337.371
       730.90000  6.93609e-12      337.718
       731.00000  6.93609e-12      338.065
       731.10000  6.93609e-12      337.995
       731.20000  6.93609e-12      337.926
       731.30000  6.93098e-12      337.608
       731.40000  6.93098e-12      337.608
       731.50000  6.57443e-12      320.175
       731.60000  6.57443e-12      320.109
       731.70000  6.57443e-12      320.043
       731.80000  6.57443e-12      320.043
       731.90000  6.57443e-12      319.977
       732.00000  6.57443e-12      319.912
       732.10000  6.57443e-12      319.846
       732.20000  6.57443e-12      319.780
       732.30000  6.57443e-12      319.780
       732.40000  6.57443e-12      319.714
       732.50000  5.87979e-12      285.875
       732.60000  5.87979e-12      285.817
       732.70000  5.87979e-12      285.758
       732.80000  5.87979e-12      285.699
       732.90000  5.87979e-12      285.640
       733.00000  5.87979e-12      285.581
       733.10000  5.87979e-12      285.523
       733.20000  5.87979e-12      285.405
       733.30000  5.87979e-12      285.346
       733.40000  5.87979e-12      285.229
       733.50000  6.31101e-12      306.084
       733.60000  6.31101e-12      306.021
       733.70000  6.31101e-12      305.895
       733.80000  6.30059e-12      305.326
       733.90000  6.30059e-12      305.263
       734.00000  6.30059e-12      305.200
       734.10000  6.30059e-12      305.137
       734.20000  6.30059e-12      305.074
       734.30000  6.30059e-12      305.011
       734.40000  6.30059e-12      305.011
       734.50000  7.75272e-12      375.232
       734.60000  7.75272e-12      375.154
       734.70000  7.75272e-12      375.154
       734.80000  7.75272e-12      375.076
       734.90000  7.75272e-12      375.076
       735.00000  7.75272e-12      374.999
       735.10000  7.75272e-12      374.999
       735.20000  7.75272e-12      374.999
       735.30000  7.75272e-12      374.999
       735.40000  7.75272e-12      374.921
       735.50000  7.66789e-12      370.819
       735.60000  7.66789e-12      370.819
       735.70000  7.66789e-12      370.819
       735.80000  7.66789e-12      370.896
       735.90000  7.66789e-12      370.896
       736.00000  7.66789e-12      370.896
       736.10000  7.66789e-12      370.896
       736.20000  7.66789e-12      370.973
       736.30000  7.65325e-12      370.264
       736.40000  7.65325e-12      370.341
       736.50000  1.55562e-11      752.765
       736.60000  1.55562e-11      752.920
       736.70000  1.55562e-11      753.076
       736.80000  1.55562e-11      753.076
       736.90000  1.55562e-11      753.231
       737.00000  1.55562e-11      753.387
       737.10000  1.55562e-11      752.609
       737.20000  1.55562e-11      751.676
       737.30000  1.55562e-11      750.898
       737.40000  1.55562e-11      750.120
       737.50000  1.51471e-11      729.485
       737.60000  1.51471e-11      728.727
       737.70000  1.51471e-11      727.970
       737.80000  1.51471e-11      727.212
       737.90000  1.51471e-11      726.607
       738.00000  1.51471e-11      725.849
       738.10000  1.51471e-11      725.092
       738.20000  1.51471e-11      724.334
       738.30000  1.51471e-11      723.729
       738.40000  1.51471e-11      723.123
       738.50000  1.44488e-11      689.064
       738.60000  1.44488e-11      688.486
       738.70000  1.44488e-11      687.908
       738.80000  1.43881e-11      684.443
       738.90000  1.43881e-11      683.867
       739.00000  1.43881e-11      683.291
       739.10000  1.43881e-11      682.140
       739.20000  1.43881e-11      681.133
       739.30000  1.43881e-11      680.270
       739.40000  1.43881e-11      679.407
       739.50000  1.41626e-11      667.910
       739.60000  1.41626e-11      667.202
       739.70000  1.41626e-11      666.635
       739.80000  1.41626e-11      665.927
       739.90000  1.41626e-11      665.502
       740.00000  1.41626e-11      664.936
       740.10000  1.41626e-11      664.653
       740.20000  1.41626e-11      664.228
       740.30000  1.41626e-11      663.944
       740.40000  1.41626e-11      663.803
       740.50000  2.04665e-11      959.059
       740.60000  2.04665e-11      958.854
       740.70000  2.04665e-11      958.854
       740.80000  2.04665e-11      958.854
       740.90000  2.04665e-11      959.059
       741.00000  2.04665e-11      959.263
       741.10000  2.04665e-11      959.673
       741.20000  2.04665e-11      960.082
       741.30000  2.04525e-11      959.838
       741.40000  2.04525e-11      960.452
       741.50000  1.46960e-11      690.566
       741.60000  1.46960e-11      691.154
       741.70000  1.46960e-11      691.888
       741.80000  1.46960e-11      692.476
       741.90000  1.46960e-11      693.358
       742.00000  1.46960e-11      694.093
       742.10000  1.46960e-11      694.975
       742.20000  1.46960e-11      696.003
       742.30000  1.46960e-11      697.032
       742.40000  1.46960e-11      698.061
       742.50000  1.37490e-11      654.178
       742.60000  1.37490e-11      655.278
       742.70000  1.37490e-11      656.516
       742.80000  1.37490e-11      657.753
       742.90000  1.37490e-11      659.128
       743.00000  1.37490e-11      660.503
       743.10000  1.37490e-11      660.228
       743.20000  1.37490e-11      660.090
       743.30000  1.37490e-11      659.953
       743.40000  1.37490e-11      659.678
       743.50000  1.37171e-11      658.008
       743.60000  1.37171e-11      657.871
       743.70000  1.37171e-11      657.734
       743.80000  1.37110e-11      657.303
       743.90000  1.37110e-11      657.166
       744.00000  1.37110e-11      657.029
       744.10000  1.37110e-11      657.029
       744.20000  1.37110e-11      656.892
       744.30000  1.37110e-11      656.892
       744.40000  1.37110e-11      656.892
       744.50000  7.89623e-12      378.229
       744.60000  7.89623e-12      378.229
       744.70000  7.89623e-12      378.229
       744.80000  7.89623e-12      378.229
       744.90000  7.89623e-12      378.308
       745.00000  7.89623e-12      378.308
       745.10000  7.89623e-12      378.545
       745.20000  7.89623e-12      378.782
       745.30000  7.89623e-12      378.940
       745.40000  7.89623e-12      379.177
       745.50000  7.06839e-12      339.566
       745.60000  7.06839e-12      339.707
       745.70000  7.06839e-12      339.848
       745.80000  7.06839e-12      339.990
       745.90000  7.06839e-12      340.060
       746.00000  7.06839e-12      340.202
       746.10000  7.06839e-12      340.272
       746.20000  7.06839e-12      340.343
       746.30000  7.03616e-12      338.861
       746.40000  7.03616e-12      338.932
       746.50000  5.93157e-12      285.783
       746.60000  5.93157e-12      285.783
       746.70000  5.93157e-12      285.842
       746.80000  5.93157e-12      285.842
       746.90000  5.93157e-12      285.842
       747.00000  5.93157e-12      285.842
       747.10000  5.93157e-12      285.665
       747.20000  5.93157e-12      285.546
       747.30000  5.93157e-12      285.427
       747.40000  5.93157e-12      285.309
       747.50000  4.55996e-12      219.243
       747.60000  4.55996e-12      219.152
       747.70000  4.55996e-12      219.061
       747.80000  4.55996e-12      218.969
       747.90000  4.55996e-12      218.878
       748.00000  4.55996e-12      218.787
       748.10000  4.55996e-12      218.741
       748.20000  4.55996e-12      218.650
       748.30000  4.55996e-12      218.559
       748.40000  4.55996e-12      218.513
       748.50000  4.65826e-12      223.130
       748.60000  4.65826e-12      223.037
       748.70000  4.65826e-12      222.991
       748.80000  4.64183e-12      222.112
       748.90000  4.64183e-12      222.065
       749.00000  4.64183e-12      222.019
       749.10000  4.64183e-12      221.926
       749.20000  4.64183e-12      221.880
       749.30000  4.64183e-12      221.833
       749.40000  4.64183e-12      221.787
       749.50000  3.10173e-12      148.170
       749.60000  3.10173e-12      148.139
       749.70000  3.10173e-12      148.076
       749.80000  3.10173e-12      148.045
       749.90000  3.10173e-12      148.045
       750.00000  3.10173e-12      148.014
       750.10000  3.10173e-12      147.983
       750.20000  3.10173e-12      147.952
       750.30000  3.10173e-12      147.921
       750.40000  3.10173e-12      147.921
       750.50000  2.98441e-12      142.297
       750.60000  2.98441e-12      142.267
       750.70000  2.98441e-12      142.267
       750.80000  2.98441e-12      142.237
       750.90000  2.98441e-12      142.237
       751.00000  2.98441e-12      142.207
       751.10000  2.98441e-12      142.207
       751.20000  2.98441e-12      142.207
       751.30000  2.97773e-12      141.859
       751.40000  2.97773e-12      141.859
       751.50000  2.58061e-12      122.940
       751.60000  2.58061e-12      122.940
       751.70000  2.58061e-12      122.940
       751.80000  2.58061e-12      122.940
       751.90000  2.58061e-12      122.940
       752.00000  2.58061e-12      122.940
       752.10000  2.58061e-12      122.940
       752.20000  2.58061e-12      122.940
       752.30000  2.58061e-12      122.940
       752.40000  2.58061e-12      122.940
       752.50000  2.15801e-12      102.829
       752.60000  2.15801e-12      102.829
       752.70000  2.15801e-12      102.829
       752.80000  2.15801e-12      102.851
       752.90000  2.15801e-12      102.851
       753.00000  2.15801e-12      102.872
       753.10000  2.15801e-12      102.872
       753.20000  2.15801e-12      102.872
       753.30000  2.15801e-12      102.872
       753.40000  2.15801e-12      102.872
       753.50000  2.66372e-12      126.979
       753.60000  2.66372e-12      126.979
       753.70000  2.66372e-12      126.979
       753.80000  2.66237e-12      126.915
       753.90000  2.66237e-12      126.915
       754.00000  2.66237e-12      126.915
       754.10000  2.66237e-12      126.915
       754.20000  2.66237e-12      126.889
       754.30000  2.66237e-12      126.889
       754.40000  2.66237e-12      126.889
       754.50000  2.72253e-12      129.756
       754.60000  2.72253e-12      129.756
       754.70000  2.72253e-12      129.729
       754.80000  2.72253e-12      129.729
       754.90000  2.72253e-12      129.701
       755.00000  2.72253e-12      129.701
       755.10000  2.72253e-12      129.674
       755.20000  2.72253e-12      129.674
       755.30000  2.72253e-12      129.647
       755.40000  2.72253e-12      129.647
       755.50000  2.17079e-12      103.351
       755.60000  2.17079e-12      103.330
       755.70000  2.17079e-12      103.330
       755.80000  2.17079e-12      103.308
       755.90000  2.17079e-12      103.286
       756.00000  2.17079e-12      103.286
       756.10000  2.17079e-12      103.264
       756.20000  2.17079e-12      103.243
       756.30000  2.16733e-12      103.057
       756.40000  2.16733e-12      103.057
       756.50000  2.64870e-12      125.919
       756.60000  2.64870e-12      125.893
       756.70000  2.64870e-12      125.866
       756.80000  2.64870e-12      125.866
       756.90000  2.64870e-12      125.840
       757.00000  2.64870e-12      125.813
       757.10000  2.64870e-12      125.787
       757.20000  2.64870e-12      125.760
       757.30000  2.64870e-12      125.760
       757.40000  2.64870e-12      125.734
       757.50000  2.88208e-12      136.784
       757.60000  2.88208e-12      136.755
       757.70000  2.88208e-12      136.726
       757.80000  2.88208e-12      136.697
       757.90000  2.88208e-12      136.668
       758.00000  2.88208e-12      136.668
       758.10000  2.88208e-12      136.640
       758.20000  2.88208e-12      136.611
       758.30000  2.88208e-12      136.582
       758.40000  2.88208e-12      136.553
       758.50000  2.90448e-12      137.585
       758.60000  2.90448e-12      137.556
       758.70000  2.90448e-12      137.527
       758.80000  2.89664e-12      137.127
       758.90000  2.89664e-12      137.098
       759.00000  2.89664e-12      137.069
       759.10000  2.89664e-12      137.069
       759.20000  2.89664e-12      137.040
       759.30000  2.89664e-12      137.040
       759.40000  2.89664e-12      137.011
       759.50000  3.62397e-12      171.414
       759.60000  3.62397e-12      171.414
       759.70000  3.62397e-12      171.378
       759.80000  3.62397e-12      171.378
       759.90000  3.62397e-12      171.378
       760.00000  3.62397e-12      171.378
       760.10000  3.62397e-12      171.378
       760.20000  3.62397e-12      171.378
       760.30000  3.62397e-12      171.414
       760.40000  3.62397e-12      171.414
       760.50000  3.73484e-12      176.658
       760.60000  3.73484e-12      176.695
       760.70000  3.73484e-12      176.695
       760.80000  3.73484e-12      176.733
       760.90000  3.73484e-12      176.733
       761.00000  3.73484e-12      176.770
       761.10000  3.73484e-12      176.919
       761.20000  3.73484e-12      177.031
       761.30000  3.72708e-12      176.775
       761.40000  3.72708e-12      176.887
       761.50000  3.63212e-12      172.490
       761.60000  3.63212e-12      172.562
       761.70000  3.63212e-12      172.635
       761.80000  3.63212e-12      172.707
       761.90000  3.63212e-12      172.780
       762.00000  3.63212e-12      172.816
       762.10000  3.63212e-12      172.889
       762.20000  3.63212e-12      172.925
       762.30000  3.63212e-12      172.962
       762.40000  3.63212e-12      172.962
       762.50000  3.46069e-12      164.798
       762.60000  3.46069e-12      164.833
       762.70000  3.46069e-12      164.833
       762.80000  3.46069e-12      164.798
       762.90000  3.46069e-12      164.798
       763.00000  3.46069e-12      164.764
       763.10000  3.46069e-12      164.729
       763.20000  3.46069e-12      164.694
       763.30000  3.46069e-12      164.625
       763.40000  3.46069e-12      164.556
       763.50000  4.47450e-12      212.673
       763.60000  4.47450e-12      212.583
       763.70000  4.47450e-12      212.494
       763.80000  4.46304e-12      211.816
       763.90000  4.46304e-12      211.682
       764.00000  4.46304e-12      211.548
       764.10000  4.46304e-12      211.414
       764.20000  4.46304e-12      211.236
       764.30000  4.46304e-12      211.057
       764.40000  4.46304e-12      210.879
       764.50000  4.54362e-12      214.504
       764.60000  4.54362e-12      214.323
       764.70000  4.54362e-12      214.095
       764.80000  4.54362e-12      213.868
       764.90000  4.54362e-12      213.641
       765.00000  4.54362e-12      213.368
       765.10000  4.54362e-12      212.869
       765.20000  4.54362e-12      212.369
       765.30000  4.54362e-12      211.915
       765.40000  4.54362e-12      211.460
       765.50000  4.19481e-12      194.849
       765.60000  4.19481e-12      194.513
       765.70000  4.19481e-12      194.136
       765.80000  4.19481e-12      193.842
       765.90000  4.19481e-12      193.549
       766.00000  4.19481e-12      193.255
       766.10000  4.19481e-12      193.003
       766.20000  4.19481e-12      192.752
       766.30000  4.19470e-12      192.537
       766.40000  4.19470e-12      192.369
       766.50000  5.25992e-12      241.010
       766.60000  5.25992e-12      240.799
       766.70000  5.25992e-12      240.694
       766.80000  5.25992e-12      240.536
       766.90000  5.25992e-12      240.431
       767.00000  5.25992e-12      240.379
       767.10000  5.25992e-12      240.642
       767.20000  5.25992e-12      240.957
       767.30000  5.25992e-12      241.220
       767.40000  5.25992e-12      241.483
       767.50000  7.14469e-12      328.370
       767.60000  7.14469e-12      328.727
       767.70000  7.14469e-12      329.084
       767.80000  7.14469e-12      329.370
       767.90000  7.14469e-12      329.727
       768.00000  7.14469e-12      330.013
       768.10000  7.14469e-12      330.299
       768.20000  7.14469e-12      330.585
       768.30000  7.14469e-12      330.799
       768.40000  7.14469e-12      331.085
       768.50000  8.98206e-12      416.498
       768.60000  8.98206e-12      416.767
       768.70000  8.98206e-12      417.037
       768.80000  8.97729e-12      417.085
       768.90000  8.97729e-12      417.354
       769.00000  8.97729e-12      417.534
       769.10000  8.97729e-12      417.803
       769.20000  8.97729e-12      417.983
       769.30000  8.97729e-12      418.162
       769.40000  8.97729e-12      418.342
       769.50000  1.10687e-11      515.910
       769.60000  1.10687e-11      516.132
       769.70000  1.10687e-11      516.242
       769.80000  1.10687e-11      516.464
       769.90000  1.10687e-11      516.574
       770.00000  1.10687e-11      516.574
       770.10000  1.10687e-11      516.685
       770.20000  1.10687e-11      516.796
       770.30000  1.10687e-11      516.796
       770.40000  1.10687e-11      516.796
       770.50000  1.44957e-11      676.802
       770.60000  1.44957e-11      676.802
       770.70000  1.44957e-11      676.802
       770.80000  1.44957e-11      676.802
       770.90000  1.44957e-11      676.657
       771.00000  1.44957e-11      676.513
       771.10000  1.44957e-11      677.092
       771.20000  1.44957e-11      677.527
       771.30000  1.44513e-11      675.887
       771.40000  1.44513e-11      676.321
       771.50000  1.68610e-11      789.601
       771.60000  1.68610e-11      789.938
       771.70000  1.68610e-11      790.444
       771.80000  1.68610e-11      790.782
       771.90000  1.68610e-11      790.950
       772.00000  1.68610e-11      791.287
       772.10000  1.68610e-11      791.456
       772.20000  1.68610e-11      791.625
       772.30000  1.68610e-11      791.793
       772.40000  1.68610e-11      791.962
       772.50000  1.90394e-11      894.283
       772.60000  1.90394e-11      894.283
       772.70000  1.90394e-11      894.283
       772.80000  1.90394e-11      894.092
       772.90000  1.90394e-11      894.092
       773.00000  1.90394e-11      893.902
       773.10000  1.90394e-11      892.760
       773.20000  1.90394e-11      891.808
       773.30000  1.90394e-11      890.665
       773.40000  1.90394e-11      889.713
       773.50000  3.78617e-11      1767.38
       773.60000  3.78617e-11      1765.87
       773.70000  3.78617e-11      1764.35
       773.80000  3.77119e-11      1755.86
       773.90000  3.77119e-11      1754.36
       774.00000  3.77119e-11      1752.85
       774.10000  3.77119e-11      1751.72
       774.20000  3.77119e-11      1750.58
       774.30000  3.77119e-11      1749.83
       774.40000  3.77119e-11      1748.70
       774.50000  3.74967e-11      1737.97
       774.60000  3.74967e-11      1737.60
       774.70000  3.74967e-11      1736.85
       774.80000  3.74967e-11      1736.47
       774.90000  3.74967e-11      1736.10
       775.00000  3.74967e-11      1735.72
       775.10000  3.74967e-11      1735.72
       775.20000  3.74967e-11      1735.72
       775.30000  3.74967e-11      1735.72
       775.40000  3.74967e-11      1735.72
       775.50000  7.45607e-11      3452.16
       775.60000  7.45607e-11      3452.90
       775.70000  7.45607e-11      3453.65
       775.80000  7.45607e-11      3454.40
       775.90000  7.45607e-11      3455.89
       776.00000  7.45607e-11      3457.38
       776.10000  7.45607e-11      3458.87
       776.20000  7.45607e-11      3461.11
       776.30000  7.43716e-11      3454.56
       776.40000  7.43716e-11      3456.79
       776.50000  1.10914e-10      5158.59
       776.60000  1.10914e-10      5163.03
       776.70000  1.10914e-10      5167.46
       776.80000  1.10914e-10      5171.90
       776.90000  1.10914e-10      5177.44
       777.00000  1.10914e-10      5181.88
       777.10000  1.10914e-10      5179.66
       777.20000  1.10914e-10      5178.55
       777.30000  1.10914e-10      5176.34
       777.40000  1.10914e-10      5174.12
       777.50000  1.47021e-10      6855.61
       777.60000  1.47021e-10      6854.14
       777.70000  1.47021e-10      6851.20
       777.80000  1.47021e-10      6849.73
       777.90000  1.47021e-10      6848.26
       778.00000  1.47021e-10      6845.32
       778.10000  1.47021e-10      6843.85
       778.20000  1.47021e-10      6842.38
       778.30000  1.47021e-10      6840.91
       778.40000  1.47021e-10      6839.44
       778.50000  1.82698e-10      8499.10
       778.60000  1.82698e-10      8497.27
       778.70000  1.82698e-10      8495.44
       778.80000  1.82235e-10      8473.92
       778.90000  1.82235e-10      8473.92
       779.00000  1.82235e-10      8472.10
       779.10000  1.82235e-10      8475.75
       779.20000  1.82235e-10      8477.57
       779.30000  1.82235e-10      8481.21
       779.40000  1.82235e-10      8483.04
       779.50000  2.71747e-10      12652.5
       779.60000  2.71747e-10      12655.2
       779.70000  2.71747e-10      12658.0
       779.80000  2.71747e-10      12660.7
       779.90000  2.71747e-10      12663.4
       780.00000  2.71747e-10      12666.1
       780.10000  2.71747e-10      12666.1
       780.20000  2.71747e-10      12668.8
       780.30000  2.71747e-10      12668.8
       780.40000  2.71747e-10      12668.8
       780.50000  2.70149e-10      12594.3
       780.60000  2.70149e-10      12594.3
       780.70000  2.70149e-10      12594.3
       780.80000  2.70149e-10      12594.3
       780.90000  2.70149e-10      12594.3
       781.00000  2.70149e-10      12591.6
       781.10000  2.70149e-10      12591.6
       781.20000  2.70149e-10      12588.9
       781.30000  2.68647e-10      12516.3
       781.40000  2.68647e-10      12513.6
       781.50000  5.34055e-10      24870.9
       781.60000  5.34055e-10      24865.6
       781.70000  5.34055e-10      24860.3
       781.80000  5.34055e-10      24854.9
       781.90000  5.34055e-10      24844.2
       782.00000  5.34055e-10      24838.9
       782.10000  5.34055e-10      24828.2
       782.20000  5.34055e-10      24817.5
       782.30000  5.34055e-10      24812.2
       782.40000  5.34055e-10      24801.5
       782.50000  5.83958e-10      27107.3
       782.60000  5.83958e-10      27089.8
       782.70000  5.83958e-10      27078.1
       782.80000  5.83958e-10      27066.4
       782.90000  5.83958e-10      27048.9
       783.00000  5.83958e-10      27037.2
       783.10000  5.83958e-10      27048.9
       783.20000  5.83958e-10      27060.6
       783.30000  5.83958e-10      27072.3
       783.40000  5.83958e-10      27078.1
       783.50000  5.62818e-10      26109.1
       783.60000  5.62818e-10      26120.4
       783.70000  5.62818e-10      26126.0
       783.80000  5.59949e-10      26004.0
       783.90000  5.59949e-10      26015.2
       784.00000  5.59949e-10      26020.8
       784.10000  5.59949e-10      26026.4
       784.20000  5.59949e-10      26037.6
       784.30000  5.59949e-10      26043.2
       784.40000  5.59949e-10      26048.8
       784.50000  5.21767e-10      24277.8
       784.60000  5.21767e-10      24283.1
       784.70000  5.21767e-10      24288.3
       784.80000  5.21767e-10      24293.5
       784.90000  5.21767e-10      24298.7
       785.00000  5.21767e-10      24298.7
       785.10000  5.21767e-10      24298.7
       785.20000  5.21767e-10      24298.7
       785.30000  5.21767e-10      24298.7
       785.40000  5.21767e-10      24298.7
       785.50000  3.28445e-10      15295.7
       785.60000  3.28445e-10      15295.7
       785.70000  3.28445e-10      15295.7
       785.80000  3.28445e-10      15295.7
       785.90000  3.28445e-10      15295.7
       786.00000  3.28445e-10      15295.7
       786.10000  3.28445e-10      15295.7
       786.20000  3.28445e-10      15295.7
       786.30000  3.27894e-10      15270.0
       786.40000  3.27894e-10      15270.0
       786.50000  4.49941e-10      20953.8
       786.60000  4.49941e-10      20953.8
       786.70000  4.49941e-10      20953.8
       786.80000  4.49941e-10      20953.8
       786.90000  4.49941e-10      20953.8
       787.00000  4.49941e-10      20953.8
       787.10000  4.49941e-10      20953.8
       787.20000  4.49941e-10      20953.8
       787.30000  4.49941e-10      20953.8
       787.40000  4.49941e-10      20953.8
       787.50000  3.67117e-10      17096.6
       787.60000  3.67117e-10      17096.6
       787.70000  3.67117e-10      17096.6
       787.80000  3.67117e-10      17096.6
       787.90000  3.67117e-10      17096.6
       788.00000  3.67117e-10      17096.6
       788.10000  3.67117e-10      17096.6
       788.20000  3.67117e-10      17096.6
       788.30000  3.67117e-10      17096.6
       788.40000  3.67117e-10      17096.6
       788.50000  3.53506e-10      16462.8
       788.60000  3.53506e-10      16462.8
       788.70000  3.53506e-10      16462.8
       788.80000  3.53567e-10      16465.6
       788.90000  3.53567e-10      16465.6
       789.00000  3.53567e-10      16465.6
       789.10000  3.53567e-10      16458.6
       789.20000  3.53567e-10      16447.9
       789.30000  3.53567e-10      16437.3
       789.40000  3.53567e-10      16430.3
       789.50000  3.83137e-10      17792.9
       789.60000  3.83137e-10      17781.4
       789.70000  3.83137e-10      17773.7
       789.80000  3.83137e-10      17762.2
       789.90000  3.83137e-10      17750.7
       790.00000  3.83137e-10      17743.1
       790.10000  3.83137e-10      17731.6
       790.20000  3.83137e-10      17723.9
       790.30000  3.83137e-10      17712.4
       790.40000  3.83137e-10      17704.8
       790.50000  3.22844e-10      14909.0
       790.60000  3.22844e-10      14899.3
       790.70000  3.22844e-10      14892.8
       790.80000  3.22844e-10      14883.1
       790.90000  3.22844e-10      14876.7
       791.00000  3.22844e-10      14867.0
       791.10000  3.22844e-10      14857.3
       791.20000  3.22844e-10      14850.8
       791.30000  3.21903e-10      14797.9
       791.40000  3.21903e-10      14788.2
       791.50000  5.19014e-10      23827.9
       791.60000  5.19014e-10      23812.4
       791.70000  5.19014e-10      23802.0
       791.80000  5.19014e-10      23786.4
       791.90000  5.19014e-10      23776.0
       792.00000  5.19014e-10      23760.5
       792.10000  5.19014e-10      23750.1
       792.20000  5.19014e-10      23739.7
       792.30000  5.19014e-10      23724.1
       792.40000  5.19014e-10      23713.8
       792.50000  5.39116e-10      24621.4
       792.60000  5.39116e-10      24610.6
       792.70000  5.39116e-10      24599.9
       792.80000  5.39116e-10      24589.1
       792.90000  5.39116e-10      24578.3
       793.00000  5.39116e-10      24567.5
       793.10000  5.39116e-10      24551.3
       793.20000  5.39116e-10      24529.8
       793.30000  5.39116e-10      24513.6
       793.40000  5.39116e-10      24497.4
       793.50000  6.24302e-10      28349.6
       793.60000  6.24302e-10      28337.1
       793.70000  6.24302e-10      28318.4
       793.80000  6.22521e-10      28231.3
       793.90000  6.22521e-10      28218.9
       794.00000  6.22521e-10      28212.7
       794.10000  6.22521e-10      28200.2
       794.20000  6.22521e-10      28200.2
       794.30000  6.22521e-10      28194.0
       794.40000  6.22521e-10      28194.0
       794.50000  9.04965e-10      40985.8
       794.60000  9.04965e-10      40985.8
       794.70000  9.04965e-10      40994.9
       794.80000  9.04965e-10      40994.9
       794.90000  9.04965e-10      41003.9
       795.00000  9.04965e-10      41022.0
       795.10000  9.04965e-10      41085.4
       795.20000  9.04965e-10      41148.7
       795.30000  9.04965e-10      41212.1
       795.40000  9.04965e-10      41275.4
       795.50000  9.90910e-10      45254.9
       795.60000  9.90910e-10      45314.3
       795.70000  9.90910e-10      45363.9
       795.80000  9.90910e-10      45413.4
       795.90000  9.90910e-10      45462.9
       796.00000  9.90910e-10      45502.6
       796.10000  9.90910e-10      45542.2
       796.20000  9.90910e-10      45581.9
       796.30000  9.89591e-10      45550.9
       796.40000  9.89591e-10      45580.6
       796.50000  1.00414e-09      46281.0
       796.60000  1.00414e-09      46301.0
       796.70000  1.00414e-09      46321.1
       796.80000  1.00414e-09      46331.2
       796.90000  1.00414e-09      46341.2
       797.00000  1.00414e-09      46351.2
       797.10000  1.00414e-09      46361.3
       797.20000  1.00414e-09      46361.3
       797.30000  1.00414e-09      46361.3
       797.40000  1.00414e-09      46351.2
       797.50000  1.38776e-09      64045.1
       797.60000  1.38776e-09      64031.2
       797.70000  1.38776e-09      64003.5
       797.80000  1.38776e-09      63975.7
       797.90000  1.38776e-09      63948.0
       798.00000  1.38776e-09      63906.3
       798.10000  1.38776e-09      63864.7
       798.20000  1.38776e-09      63823.1
       798.30000  1.38776e-09      63767.6
       798.40000  1.38776e-09      63712.0
       798.50000  1.50068e-09      68836.4
       798.60000  1.50068e-09      68761.4
       798.70000  1.50068e-09      68686.3
       798.80000  1.49725e-09      68454.5
       798.90000  1.49725e-09      68364.6
       799.00000  1.49725e-09      68274.8
       799.10000  1.49725e-09      68319.7
       799.20000  1.49725e-09      68379.6
       799.30000  1.49725e-09      68439.5
       799.40000  1.49725e-09      68484.4
       799.50000  1.50660e-09      68957.3
       799.60000  1.50660e-09      69002.5
       799.70000  1.50660e-09      69047.7
       799.80000  1.50660e-09      69077.8
       799.90000  1.50660e-09      69108.0
       800.00000  1.50660e-09      69138.1
       800.10000  1.50660e-09      69168.2
       800.20000  1.50660e-09      69198.4
       800.30000  1.50660e-09      69228.5
       800.40000  1.50660e-09      69243.6
       800.50000  1.76783e-09      81267.1
       800.60000  1.76783e-09      81284.8
       800.70000  1.76783e-09      81284.8
       800.80000  1.76783e-09      81302.5
       800.90000  1.76783e-09      81302.5
       801.00000  1.76783e-09      81302.5
       801.10000  1.76783e-09      81267.1
       801.20000  1.76783e-09      81231.8
       801.30000  1.76264e-09      80958.0
       801.40000  1.76264e-09      80922.8
       801.50000  2.59406e-09      119041.
       801.60000  2.59406e-09      118989.
       801.70000  2.59406e-09      118938.
       801.80000  2.59406e-09      118886.
       801.90000  2.59406e-09      118834.
       802.00000  2.59406e-09      118782.
       802.10000  2.59406e-09      118730.
       802.20000  2.59406e-09      118678.
       802.30000  2.59406e-09      118626.
       802.40000  2.59406e-09      118574.
       802.50000  2.73483e-09      124954.
       802.60000  2.73483e-09      124900.
       802.70000  2.73483e-09      124845.
       802.80000  2.73483e-09      124763.
       802.90000  2.73483e-09      124708.
       803.00000  2.73483e-09      124653.
       803.10000  2.73483e-09      124599.
       803.20000  2.73483e-09      124544.
       803.30000  2.73483e-09      124489.
       803.40000  2.73483e-09      124407.
       803.50000  7.15154e-09      325180.
       803.60000  7.15154e-09      325037.
       803.70000  7.15154e-09      324894.
       803.80000  7.12932e-09      323742.
       803.90000  7.12932e-09      323528.
       804.00000  7.12932e-09      323386.
       804.10000  7.12932e-09      323243.
       804.20000  7.12932e-09      323101.
       804.30000  7.12932e-09      322887.
       804.40000  7.12932e-09      322744.
       804.50000  7.68750e-09      347859.
       804.60000  7.68750e-09      347629.
       804.70000  7.68750e-09      347475.
       804.80000  7.68750e-09      347321.
       804.90000  7.68750e-09      347090.
       805.00000  7.68750e-09      346937.
       805.10000  7.68750e-09      347244.
       805.20000  7.68750e-09      347629.
       805.30000  7.68750e-09      347859.
       805.40000  7.68750e-09      348167.
       805.50000  1.02365e-08      463916.
       805.60000  1.02365e-08      464223.
       805.70000  1.02365e-08      464530.
       805.80000  1.02365e-08      464735.
       805.90000  1.02365e-08      464940.
       806.00000  1.02365e-08      465145.
       806.10000  1.02365e-08      465247.
       806.20000  1.02365e-08      465349.
       806.30000  1.02164e-08      464542.
       806.40000  1.02164e-08      464644.
       806.50000  1.40366e-08      638385.
       806.60000  1.40366e-08      638385.
       806.70000  1.40366e-08      638245.
       806.80000  1.40366e-08      638245.
       806.90000  1.40366e-08      638104.
       807.00000  1.40366e-08      637824.
       807.10000  1.40366e-08      636701.
       807.20000  1.40366e-08      635437.
       807.30000  1.40366e-08      634314.
       807.40000  1.40366e-08      633332.
       807.50000  1.99752e-08      899885.
       807.60000  1.99752e-08      898486.
       807.70000  1.99752e-08      897288.
       807.80000  1.99752e-08      896289.
       807.90000  1.99752e-08      895290.
       808.00000  1.99752e-08      894292.
       808.10000  1.99752e-08      893492.
       808.20000  1.99752e-08      892694.
       808.30000  1.99752e-08      891895.
       808.40000  1.99752e-08      891295.
       808.50000  1.75556e-08      782978.
       808.60000  1.75556e-08      782627.
       808.70000  1.75556e-08      782276.
       808.80000  1.75390e-08      781361.
       808.90000  1.75390e-08      781186.
       809.00000  1.75390e-08      781186.
       809.10000  1.75390e-08      781186.
       809.20000  1.75390e-08      781361.
       809.30000  1.75390e-08      781536.
       809.40000  1.75390e-08      781712.
       809.50000  3.42024e-08  1.52508e+06
       809.60000  3.42024e-08  1.52611e+06
       809.70000  3.42024e-08  1.52714e+06
       809.80000  3.42024e-08  1.52816e+06
       809.90000  3.42024e-08  1.52953e+06
       810.00000  3.42024e-08  1.53090e+06
       810.10000  3.42024e-08  1.53261e+06
       810.20000  3.42024e-08  1.53432e+06
       810.30000  3.42024e-08  1.53603e+06
       810.40000  3.42024e-08  1.53808e+06
       810.50000  4.98708e-08  2.24618e+06
       810.60000  4.98708e-08  2.24917e+06
       810.70000  4.98708e-08  2.25316e+06
       810.80000  4.98708e-08  2.25715e+06
       810.90000  4.98708e-08  2.26114e+06
       811.00000  4.98708e-08  2.26563e+06
       811.10000  4.98708e-08  2.26613e+06
       811.20000  4.98708e-08  2.26713e+06
       811.30000  4.98380e-08  2.26613e+06
       811.40000  4.98380e-08  2.26713e+06
       811.50000  4.84214e-08  2.20317e+06
       811.60000  4.84214e-08  2.20366e+06
       811.70000  4.84214e-08  2.20414e+06
       811.80000  4.84214e-08  2.20463e+06
       811.90000  4.84214e-08  2.20511e+06
       812.00000  4.84214e-08  2.20560e+06
       812.10000  4.84214e-08  2.20560e+06
       812.20000  4.84214e-08  2.20608e+06
       812.30000  4.84214e-08  2.20656e+06
       812.40000  4.84214e-08  2.20656e+06
       812.50000  1.02476e-07  4.66984e+06
       812.60000  1.02476e-07  4.67086e+06
       812.70000  1.02476e-07  4.67086e+06
       812.80000  1.02476e-07  4.67086e+06
       812.90000  1.02476e-07  4.67086e+06
       813.00000  1.02476e-07  4.67086e+06
       813.10000  1.02476e-07  4.66881e+06
       813.20000  1.02476e-07  4.66779e+06
       813.30000  1.02476e-07  4.66574e+06
       813.40000  1.02476e-07  4.66472e+06
       813.50000  1.45548e-07  6.62244e+06
       813.60000  1.45548e-07  6.62099e+06
       813.70000  1.45548e-07  6.61953e+06
       813.80000  1.45532e-07  6.61735e+06
       813.90000  1.45532e-07  6.61589e+06
       814.00000  1.45532e-07  6.61298e+06
       814.10000  1.45532e-07  6.61153e+06
       814.20000  1.45532e-07  6.61007e+06
       814.30000  1.45532e-07  6.60862e+06
       814.40000  1.45532e-07  6.60862e+06
       814.50000  1.29620e-07  5.88473e+06
       814.60000  1.29620e-07  5.88344e+06
       814.70000  1.29620e-07  5.88214e+06
       814.80000  1.29620e-07  5.88084e+06
       814.90000  1.29620e-07  5.88084e+06
       815.00000  1.29620e-07  5.87955e+06
       815.10000  1.29620e-07  5.88473e+06
       815.20000  1.29620e-07  5.88862e+06
       815.30000  1.29620e-07  5.89251e+06
       815.40000  1.29620e-07  5.89510e+06
       815.50000  1.91023e-07  8.69345e+06
       815.60000  1.91023e-07  8.69536e+06
       815.70000  1.91023e-07  8.69918e+06
       815.80000  1.91023e-07  8.69918e+06
       815.90000  1.91023e-07  8.70109e+06
       816.00000  1.91023e-07  8.70109e+06
       816.10000  1.91023e-07  8.70109e+06
       816.20000  1.91023e-07  8.69918e+06
       816.30000  1.91018e-07  8.69703e+06
       816.40000  1.91018e-07  8.69512e+06
       816.50000  2.24794e-07  1.02281e+07
       816.60000  2.24794e-07  1.02236e+07
       816.70000  2.24794e-07  1.02169e+07
       816.80000  2.24794e-07  1.02102e+07
       816.90000  2.24794e-07  1.02034e+07
       817.00000  2.24794e-07  1.01944e+07
       817.10000  2.24794e-07  1.01630e+07
       817.20000  2.24794e-07  1.01337e+07
       817.30000  2.24794e-07  1.01068e+07
       817.40000  2.24794e-07  1.00798e+07
       817.50000  1.59333e-07  7.12695e+06
       817.60000  1.59333e-07  7.11101e+06
       817.70000  1.59333e-07  7.09508e+06
       817.80000  1.59333e-07  7.07915e+06
       817.90000  1.59333e-07  7.06640e+06
       818.00000  1.59333e-07  7.05206e+06
       818.10000  1.59333e-07  7.04091e+06
       818.20000  1.59333e-07  7.02975e+06
       818.30000  1.59333e-07  7.01860e+06
       818.40000  1.59333e-07  7.01063e+06
       818.50000  2.82333e-07  1.24057e+07
       818.60000  2.82333e-07  1.23944e+07
       818.70000  2.82333e-07  1.23831e+07
       818.80000  2.82291e-07  1.23700e+07
       818.90000  2.82291e-07  1.23643e+07
       819.00000  2.82291e-07  1.23559e+07
       819.10000  2.82291e-07  1.23530e+07
       819.20000  2.82291e-07  1.23502e+07
       819.30000  2.82291e-07  1.23474e+07
       819.40000  2.82291e-07  1.23474e+07
       819.50000  1.95707e-07  8.56219e+06
       819.60000  1.95707e-07  8.56415e+06
       819.70000  1.95707e-07  8.56806e+06
       819.80000  1.95707e-07  8.57394e+06
       819.90000  1.95707e-07  8.57981e+06
       820.00000  1.95707e-07  8.58763e+06
       820.10000  1.95707e-07  8.59546e+06
       820.20000  1.95707e-07  8.60525e+06
       820.30000  1.95707e-07  8.61699e+06
       820.40000  1.95707e-07  8.62873e+06
       820.50000  1.84819e-07  8.16161e+06
       820.60000  1.84819e-07  8.17454e+06
       820.70000  1.84819e-07  8.18933e+06
       820.80000  1.84819e-07  8.20412e+06
       820.90000  1.84819e-07  8.22075e+06
       821.00000  1.84819e-07  8.23923e+06
       821.10000  1.84819e-07  8.23553e+06
       821.20000  1.84819e-07  8.23369e+06
       821.30000  1.85349e-07  8.25358e+06
       821.40000  1.85349e-07  8.25173e+06
       821.50000  2.53864e-07  1.12969e+07
       821.60000  2.53864e-07  1.12944e+07
       821.70000  2.53864e-07  1.12919e+07
       821.80000  2.53864e-07  1.12868e+07
       821.90000  2.53864e-07  1.12842e+07
       822.00000  2.53864e-07  1.12817e+07
       822.10000  2.53864e-07  1.12817e+07
       822.20000  2.53864e-07  1.12792e+07
       822.30000  2.53864e-07  1.12766e+07
       822.40000  2.53864e-07  1.12766e+07
       822.50000  2.08426e-07  9.25621e+06
       822.60000  2.08426e-07  9.25621e+06
       822.70000  2.08426e-07  9.25412e+06
       822.80000  2.08426e-07  9.25412e+06
       822.90000  2.08426e-07  9.25412e+06
       823.00000  2.08426e-07  9.25412e+06
       823.10000  2.08426e-07  9.25412e+06
       823.20000  2.08426e-07  9.25412e+06
       823.30000  2.08426e-07  9.25412e+06
       823.40000  2.08426e-07  9.25412e+06
       823.50000  1.96946e-07  8.74635e+06
       823.60000  1.96946e-07  8.74635e+06
       823.70000  1.96946e-07  8.74832e+06
       823.80000  1.97483e-07  8.77219e+06
       823.90000  1.97483e-07  8.77416e+06
       824.00000  1.97483e-07  8.77614e+06
       824.10000  1.97483e-07  8.77811e+06
       824.20000  1.97483e-07  8.78009e+06
       824.30000  1.97483e-07  8.78206e+06
       824.40000  1.97483e-07  8.78601e+06
       824.50000  1.90788e-07  8.49005e+06
       824.60000  1.90788e-07  8.49386e+06
       824.70000  1.90788e-07  8.49577e+06
       824.80000  1.90788e-07  8.49958e+06
       824.90000  1.90788e-07  8.50340e+06
       825.00000  1.90788e-07  8.50722e+06
       825.10000  1.90788e-07  8.51103e+06
       825.20000  1.90788e-07  8.51485e+06
       825.30000  1.90788e-07  8.52057e+06
       825.40000  1.90788e-07  8.52439e+06
       825.50000  2.02377e-07  9.04827e+06
       825.60000  2.02377e-07  9.05232e+06
       825.70000  2.02377e-07  9.05839e+06
       825.80000  2.02377e-07  9.06446e+06
       825.90000  2.02377e-07  9.07053e+06
       826.00000  2.02377e-07  9.07660e+06
       826.10000  2.02377e-07  9.08267e+06
       826.20000  2.02377e-07  9.08672e+06
       826.30000  2.02511e-07  9.09883e+06
       826.40000  2.02511e-07  9.10288e+06
       826.50000  2.03383e-07  9.14412e+06
       826.60000  2.03383e-07  9.14819e+06
       826.70000  2.03383e-07  9.15226e+06
       826.80000  2.03383e-07  9.15429e+06
       826.90000  2.03383e-07  9.15632e+06
       827.00000  2.03383e-07  9.15836e+06
       827.10000  2.03383e-07  9.15836e+06
       827.20000  2.03383e-07  9.16039e+06
       827.30000  2.03383e-07  9.16039e+06
       827.40000  2.03383e-07  9.16039e+06
       827.50000  7.05529e-08  3.17770e+06
       827.60000  7.05529e-08  3.17770e+06
       827.70000  7.05529e-08  3.17700e+06
       827.80000  7.05529e-08  3.17629e+06
       827.90000  7.05529e-08  3.17558e+06
       828.00000  7.05529e-08  3.17488e+06
       828.10000  7.05529e-08  3.17276e+06
       828.20000  7.05529e-08  3.16994e+06
       828.30000  7.05529e-08  3.16712e+06
       828.40000  7.05529e-08  3.16430e+06
       828.50000  1.30252e-07  5.83788e+06
       828.60000  1.30252e-07  5.83267e+06
       828.70000  1.30252e-07  5.82877e+06
       828.80000  1.30146e-07  5.82013e+06
       828.90000  1.30146e-07  5.81493e+06
       829.00000  1.30146e-07  5.81102e+06
       829.10000  1.30146e-07  5.80712e+06
       829.20000  1.30146e-07  5.80321e+06
       829.30000  1.30146e-07  5.79931e+06
       829.40000  1.30146e-07  5.79540e+06
       829.50000  1.41929e-07  6.31586e+06
       829.60000  1.41929e-07  6.31160e+06
       829.70000  1.41929e-07  6.30734e+06
       829.80000  1.41929e-07  6.30308e+06
       829.90000  1.41929e-07  6.30024e+06
       830.00000  1.41929e-07  6.29599e+06
       830.10000  1.41929e-07  6.29315e+06
       830.20000  1.41929e-07  6.28889e+06
       830.30000  1.41929e-07  6.28605e+06
       830.40000  1.41929e-07  6.28179e+06
       830.50000  1.53815e-07  6.80479e+06
       830.60000  1.53815e-07  6.80171e+06
       830.70000  1.53815e-07  6.79710e+06
       830.80000  1.53815e-07  6.79402e+06
       830.90000  1.53815e-07  6.79095e+06
       831.00000  1.53815e-07  6.78787e+06
       831.10000  1.53815e-07  6.78480e+06
       831.20000  1.53815e-07  6.78172e+06
       831.30000  1.54232e-07  6.79856e+06
       831.40000  1.54232e-07  6.79548e+06
       831.50000  1.70644e-07  7.51517e+06
       831.60000  1.70644e-07  7.51346e+06
       831.70000  1.70644e-07  7.51005e+06
       831.80000  1.70644e-07  7.50664e+06
       831.90000  1.70644e-07  7.50493e+06
       832.00000  1.70644e-07  7.50322e+06
       832.10000  1.70644e-07  7.49640e+06
       832.20000  1.70644e-07  7.48957e+06
       832.30000  1.70644e-07  7.48445e+06
       832.40000  1.70644e-07  7.47933e+06
       832.50000  1.49124e-07  6.53162e+06
       832.60000  1.49124e-07  6.52864e+06
       832.70000  1.49124e-07  6.52566e+06
       832.80000  1.49124e-07  6.52118e+06
       832.90000  1.49124e-07  6.51969e+06
       833.00000  1.49124e-07  6.51671e+06
       833.10000  1.49124e-07  6.51373e+06
       833.20000  1.49124e-07  6.51223e+06
       833.30000  1.49124e-07  6.51074e+06
       833.40000  1.49124e-07  6.50925e+06
       833.50000  1.21249e-07  5.29250e+06
       833.60000  1.21249e-07  5.29129e+06
       833.70000  1.21249e-07  5.29129e+06
       833.80000  1.21375e-07  5.29681e+06
       833.90000  1.21375e-07  5.29802e+06
       834.00000  1.21375e-07  5.29802e+06
       834.10000  1.21375e-07  5.30409e+06
       834.20000  1.21375e-07  5.30895e+06
       834.30000  1.21375e-07  5.31501e+06
       834.40000  1.21375e-07  5.31987e+06
       834.50000  1.55395e-07  6.81720e+06
       834.60000  1.55395e-07  6.82341e+06
       834.70000  1.55395e-07  6.82808e+06
       834.80000  1.55395e-07  6.83274e+06
       834.90000  1.55395e-07  6.83895e+06
       835.00000  1.55395e-07  6.84361e+06
       835.10000  1.55395e-07  6.84672e+06
       835.20000  1.55395e-07  6.85138e+06
       835.30000  1.55395e-07  6.85449e+06
       835.40000  1.55395e-07  6.85760e+06
       835.50000  8.30906e-08  3.66845e+06
       835.60000  8.30906e-08  3.67011e+06
       835.70000  8.30906e-08  3.67094e+06
       835.80000  8.30906e-08  3.67260e+06
       835.90000  8.30906e-08  3.67343e+06
       836.00000  8.30906e-08  3.67426e+06
       836.10000  8.30906e-08  3.67260e+06
       836.20000  8.30906e-08  3.67177e+06
       836.30000  8.30529e-08  3.66845e+06
       836.40000  8.30529e-08  3.66762e+06
       836.50000  1.26218e-07  5.57251e+06
       836.60000  1.26218e-07  5.56999e+06
       836.70000  1.26218e-07  5.56873e+06
       836.80000  1.26218e-07  5.56747e+06
       836.90000  1.26218e-07  5.56494e+06
       837.00000  1.26218e-07  5.56368e+06
       837.10000  1.26218e-07  5.56242e+06
       837.20000  1.26218e-07  5.56115e+06
       837.30000  1.26218e-07  5.55989e+06
       837.40000  1.26218e-07  5.55863e+06
       837.50000  1.95387e-07  8.60288e+06
       837.60000  1.95387e-07  8.60093e+06
       837.70000  1.95387e-07  8.59898e+06
       837.80000  1.95387e-07  8.59702e+06
       837.90000  1.95387e-07  8.59702e+06
       838.00000  1.95387e-07  8.59507e+06
       838.10000  1.95387e-07  8.59311e+06
       838.20000  1.95387e-07  8.59311e+06
       838.30000  1.95387e-07  8.59311e+06
       838.40000  1.95387e-07  8.59311e+06
       838.50000  1.65657e-07  7.28393e+06
       838.60000  1.65657e-07  7.28393e+06
       838.70000  1.65657e-07  7.28393e+06
       838.80000  1.65156e-07  7.26026e+06
       838.90000  1.65156e-07  7.26026e+06
       839.00000  1.65156e-07  7.26026e+06
       839.10000  1.65156e-07  7.25860e+06
       839.20000  1.65156e-07  7.25860e+06
       839.30000  1.65156e-07  7.25860e+06
       839.40000  1.65156e-07  7.25695e+06
       839.50000  8.64746e-08  3.79969e+06
       839.60000  8.64746e-08  3.79969e+06
       839.70000  8.64746e-08  3.79883e+06
       839.80000  8.64746e-08  3.79883e+06
       839.90000  8.64746e-08  3.79883e+06
       840.00000  8.64746e-08  3.79796e+06
       840.10000  8.64746e-08  3.79796e+06
       840.20000  8.64746e-08  3.79796e+06
       840.30000  8.64746e-08  3.79710e+06
       840.40000  8.64746e-08  3.79710e+06
       840.50000  8.55037e-08  3.75447e+06
       840.60000  8.55037e-08  3.75361e+06
       840.70000  8.55037e-08  3.75361e+06
       840.80000  8.55037e-08  3.75361e+06
       840.90000  8.55037e-08  3.75276e+06
       841.00000  8.55037e-08  3.75276e+06
       841.10000  8.55037e-08  3.75276e+06
       841.20000  8.55037e-08  3.75276e+06
       841.30000  8.54991e-08  3.75170e+06
       841.40000  8.54991e-08  3.75170e+06
       841.50000  1.05183e-07  4.61544e+06
       841.60000  1.05183e-07  4.61439e+06
       841.70000  1.05183e-07  4.61439e+06
       841.80000  1.05183e-07  4.61439e+06
       841.90000  1.05183e-07  4.61334e+06
       842.00000  1.05183e-07  4.61334e+06
       842.10000  1.05183e-07  4.60913e+06
       842.20000  1.05183e-07  4.60598e+06
       842.30000  1.05183e-07  4.60282e+06
       842.40000  1.05183e-07  4.59861e+06
       842.50000  6.62438e-08  2.89419e+06
       842.60000  6.62438e-08  2.89286e+06
       842.70000  6.62438e-08  2.89088e+06
       842.80000  6.62438e-08  2.88955e+06
       842.90000  6.62438e-08  2.88757e+06
       843.00000  6.62438e-08  2.88624e+06
       843.10000  6.62438e-08  2.88492e+06
       843.20000  6.62438e-08  2.88359e+06
       843.30000  6.62438e-08  2.88293e+06
       843.40000  6.62438e-08  2.88160e+06
       843.50000  1.28673e-07  5.59600e+06
       843.60000  1.28673e-07  5.59472e+06
       843.70000  1.28673e-07  5.59343e+06
       843.80000  1.28859e-07  5.60020e+06
       843.90000  1.28859e-07  5.60020e+06
       844.00000  1.28859e-07  5.59892e+06
       844.10000  1.28859e-07  5.60278e+06
       844.20000  1.28859e-07  5.60536e+06
       844.30000  1.28859e-07  5.60794e+06
       844.40000  1.28859e-07  5.61051e+06
       844.50000  1.04645e-07  4.55832e+06
       844.60000  1.04645e-07  4.56042e+06
       844.70000  1.04645e-07  4.56146e+06
       844.80000  1.04645e-07  4.56356e+06
       844.90000  1.04645e-07  4.56460e+06
       845.00000  1.04645e-07  4.56670e+06
       845.10000  1.04645e-07  4.56774e+06
       845.20000  1.04645e-07  4.56879e+06
       845.30000  1.04645e-07  4.57088e+06
       845.40000  1.04645e-07  4.57193e+06
       845.50000  7.78989e-08  3.40340e+06
       845.60000  7.78989e-08  3.40418e+06
       845.70000  7.78989e-08  3.40496e+06
       845.80000  7.78989e-08  3.40574e+06
       845.90000  7.78989e-08  3.40574e+06
       846.00000  7.78989e-08  3.40652e+06
       846.10000  7.78989e-08  3.40652e+06
       846.20000  7.78989e-08  3.40652e+06
       846.30000  7.81039e-08  3.41548e+06
       846.40000  7.81039e-08  3.41626e+06
       846.50000  1.09126e-07  4.77317e+06
       846.60000  1.09126e-07  4.77208e+06
       846.70000  1.09126e-07  4.77208e+06
       846.80000  1.09126e-07  4.77208e+06
       846.90000  1.09126e-07  4.77099e+06
       847.00000  1.09126e-07  4.77099e+06
       847.10000  1.09126e-07  4.76990e+06
       847.20000  1.09126e-07  4.76990e+06
       847.30000  1.09126e-07  4.76880e+06
       847.40000  1.09126e-07  4.76771e+06
       847.50000  9.41638e-08  4.11308e+06
       847.60000  9.41638e-08  4.11213e+06
       847.70000  9.41638e-08  4.11119e+06
       847.80000  9.41638e-08  4.11025e+06
       847.90000  9.41638e-08  4.10837e+06
       848.00000  9.41638e-08  4.10743e+06
       848.10000  9.41638e-08  4.08765e+06
       848.20000  9.41638e-08  4.06976e+06
       848.30000  9.41638e-08  4.05187e+06
       848.40000  9.41638e-08  4.03492e+06
       848.50000  3.72715e-08  1.59075e+06
       848.60000  3.72715e-08  1.58516e+06
       848.70000  3.72715e-08  1.57957e+06
       848.80000  3.74138e-08  1.58036e+06
       848.90000  3.74138e-08  1.57550e+06
       849.00000  3.74138e-08  1.57101e+06
