PDS_VERSION_ID         = PDS3
RECORD_TYPE            = STREAM
OBJECT                 = TEXT
  PUBLICATION_DATE     = 2014-04-25
  INTERCHANGE_FORMAT   = ASCII
  NOTE                 = "System transmission vs. wavelength."
END_OBJECT             = TEXT
END
    
The systrans directory contains the non-wavelength-integrated system 
transmission values (QE*optics*filter1*filter2) for each filter combination. 
The naming convention for these files is as follows:

<camera><filter 1><filter 2>_systrans.tab

where <camera> is "issna" or "isswa," and <filter 1> and <filter 2> represent
the filter names. For polarized filter combinations, values are given for the
parallel orientation of the filter (full transmission), with values for the 
perpendicular (blocking) orientation provided in files with subscript 
"_b_systrans.tab". 

Columns in systrans files are as follows:

 1st column: Wavelength (nm)  
 2nd column: Transmitted Flux
 3rd column: Transmitted Flux * Solar Flux (phot per cm^2-s-angstrom at 1 AU)

The solar spectrum used for this calculation is provided in solarflux.tab.

\begindata
       600.00000  1.99055e-10      10601.7
       600.10000  1.99055e-10      10585.7
       600.20000  1.99055e-10      10567.8
       600.30000  1.99055e-10      10545.9
       600.40000  1.99055e-10      10520.1
       600.50000  4.29137e-10      22624.1
       600.60000  4.29137e-10      22654.2
       600.70000  4.29137e-10      22679.9
       600.80000  4.29137e-10      22705.7
       600.90000  4.29137e-10      22722.8
       601.00000  4.29137e-10      22735.7
       601.10000  4.29137e-10      22740.0
       601.20000  4.29137e-10      22744.3
       601.30000  4.29081e-10      22741.3
       601.40000  4.29081e-10      22732.7
       601.50000  8.19807e-10      43417.0
       601.60000  8.19807e-10      43228.4
       601.70000  8.19807e-10      43072.7
       601.80000  8.19807e-10      42933.3
       601.90000  8.19807e-10      42826.7
       602.00000  8.19807e-10      42744.8
       602.10000  8.19807e-10      42679.2
       602.20000  8.19807e-10      42646.4
       602.30000  8.19807e-10      42638.2
       602.40000  8.19807e-10      42654.6
       602.50000  1.02233e-10      5323.27
       602.60000  1.02233e-10      5331.45
       602.70000  1.02233e-10      5342.70
       602.80000  1.02233e-10      5357.01
       602.90000  1.02233e-10      5374.39
       603.00000  1.02233e-10      5394.84
       603.10000  1.02233e-10      5418.35
       603.20000  1.02233e-10      5444.93
       603.30000  1.02233e-10      5474.58
       603.40000  1.02233e-10      5507.29
       603.50000  4.36250e-10      23653.5
       603.60000  4.36250e-10      23644.8
       603.70000  4.36250e-10      23636.0
       603.80000  4.36065e-10      23617.3
       603.90000  4.36065e-10      23604.2
       604.00000  4.36065e-10      23595.5
       604.10000  4.36065e-10      23582.4
       604.20000  4.36065e-10      23573.7
       604.30000  4.36065e-10      23560.6
       604.40000  4.36065e-10      23551.9
       604.50000  1.09694e-10      5921.29
       604.60000  1.09694e-10      5916.91
       604.70000  1.09694e-10      5912.52
       604.80000  1.09694e-10      5908.13
       604.90000  1.09694e-10      5903.74
       605.00000  1.09694e-10      5900.45
       605.10000  1.09694e-10      5897.16
       605.20000  1.09694e-10      5894.97
       605.30000  1.09694e-10      5891.68
       605.40000  1.09694e-10      5889.48
       605.50000  3.78124e-11      2029.39
       605.60000  3.78124e-11      2029.01
       605.70000  3.78124e-11      2028.26
       605.80000  3.78124e-11      2027.88
       605.90000  3.78124e-11      2027.88
       606.00000  3.78124e-11      2027.50
       606.10000  3.78124e-11      2027.50
       606.20000  3.78124e-11      2027.50
       606.30000  3.78135e-11      2027.56
       606.40000  3.78135e-11      2027.94
       606.50000  2.68064e-11      1437.90
       606.60000  2.68064e-11      1438.43
       606.70000  2.68064e-11      1438.70
       606.80000  2.68064e-11      1439.24
       606.90000  2.68064e-11      1439.24
       607.00000  2.68064e-11      1439.50
       607.10000  2.68064e-11      1439.50
       607.20000  2.68064e-11      1439.50
       607.30000  2.68064e-11      1439.24
       607.40000  2.68064e-11      1438.97
       607.50000  2.65134e-10      14229.7
       607.60000  2.65134e-10      14213.8
       607.70000  2.65134e-10      14200.6
       607.80000  2.65134e-10      14190.0
       607.90000  2.65134e-10      14179.3
       608.00000  2.65134e-10      14168.7
       608.10000  2.65134e-10      14160.8
       608.20000  2.65134e-10      14152.8
       608.30000  2.65134e-10      14147.5
       608.40000  2.65134e-10      14142.2
       608.50000  4.36388e-10      23272.6
       608.60000  4.36388e-10      23268.2
       608.70000  4.36388e-10      23263.9
       608.80000  4.36294e-10      23258.9
       608.90000  4.36294e-10      23263.2
       609.00000  4.36294e-10      23267.6
       609.10000  4.36294e-10      23271.9
       609.20000  4.36294e-10      23280.7
       609.30000  4.36294e-10      23289.4
       609.40000  4.36294e-10      23302.5
       609.50000  3.57905e-10      19130.0
       609.60000  3.57905e-10      19044.1
       609.70000  3.57905e-10      18968.9
       609.80000  3.57905e-10      18904.5
       609.90000  3.57905e-10      18850.8
       610.00000  3.57905e-10      18804.3
       610.10000  3.57905e-10      18764.9
       610.20000  3.57905e-10      18736.3
       610.30000  3.57905e-10      18718.4
       610.40000  3.57905e-10      18711.3
       610.50000  1.24322e-10      6498.29
       610.60000  1.24322e-10      6530.61
       610.70000  1.24322e-10      6559.21
       610.80000  1.24322e-10      6585.31
       610.90000  1.24322e-10      6607.69
       611.00000  1.24322e-10      6626.34
       611.10000  1.24322e-10      6642.50
       611.20000  1.24322e-10      6654.93
       611.30000  1.24322e-10      6664.90
       611.40000  1.24322e-10      6671.11
       611.50000  1.06887e-10      5737.68
       611.60000  1.06887e-10      5737.68
       611.70000  1.06887e-10      5734.47
       611.80000  1.06887e-10      5729.13
       611.90000  1.06887e-10      5720.58
       612.00000  1.06887e-10      5709.89
       612.10000  1.06887e-10      5695.99
       612.20000  1.06887e-10      5678.89
       612.30000  1.06887e-10      5659.65
       612.40000  1.06887e-10      5637.21
       612.50000  2.38319e-10      12514.1
       612.60000  2.38319e-10      12483.1
       612.70000  2.38319e-10      12454.5
       612.80000  2.38319e-10      12430.7
       612.90000  2.38319e-10      12411.6
       613.00000  2.38319e-10      12394.9
       613.10000  2.38319e-10      12383.0
       613.20000  2.38319e-10      12373.5
       613.30000  2.38319e-10      12368.7
       613.40000  2.38319e-10      12368.7
       613.50000  3.91624e-10      20329.2
       613.60000  3.91624e-10      20387.9
       613.70000  3.91624e-10      20438.9
       613.80000  3.91196e-10      20463.5
       613.90000  3.91196e-10      20510.4
       614.00000  3.91196e-10      20553.5
       614.10000  3.91196e-10      20588.7
       614.20000  3.91196e-10      20623.9
       614.30000  3.91196e-10      20655.2
       614.40000  3.91196e-10      20682.5
       614.50000  7.72618e-12      408.947
       614.60000  7.72618e-12      409.333
       614.70000  7.72618e-12      409.642
       614.80000  7.72618e-12      409.874
       614.90000  7.72618e-12      410.029
       615.00000  7.72618e-12      410.106
       615.10000  7.72618e-12      410.183
       615.20000  7.72618e-12      410.106
       615.30000  7.72618e-12      410.029
       615.40000  7.72618e-12      409.874
       615.50000  1.46167e-11      774.833
       615.60000  1.46167e-11      766.209
       615.70000  1.46167e-11      758.316
       615.80000  1.46167e-11      751.446
       615.90000  1.46167e-11      745.599
       616.00000  1.46167e-11      740.484
       616.10000  1.46167e-11      736.391
       616.20000  1.46167e-11      733.175
       616.30000  1.46188e-11      730.940
       616.40000  1.46188e-11      729.625
       616.50000  1.49255e-11      744.336
       616.60000  1.49255e-11      750.754
       616.70000  1.49255e-11      756.724
       616.80000  1.49255e-11      762.246
       616.90000  1.49255e-11      767.470
       617.00000  1.49255e-11      772.396
       617.10000  1.49255e-11      776.873
       617.20000  1.49255e-11      780.903
       617.30000  1.49255e-11      784.635
       617.40000  1.49255e-11      788.068
       617.50000  1.41934e-11      752.250
       617.60000  1.41934e-11      754.662
       617.70000  1.41934e-11      756.791
       617.80000  1.41934e-11      758.637
       617.90000  1.41934e-11      759.914
       618.00000  1.41934e-11      761.049
       618.10000  1.41934e-11      761.759
       618.20000  1.41934e-11      762.043
       618.30000  1.41934e-11      762.043
       618.40000  1.41934e-11      761.617
       618.50000  1.26279e-15    0.0676984
       618.60000  1.26279e-15    0.0675721
       618.70000  1.26279e-15    0.0674458
       618.80000  1.26152e-15    0.0672897
       618.90000  1.26152e-15    0.0672014
       619.00000  1.26152e-15    0.0671383
       619.10000  1.26152e-15    0.0670878
       619.20000  1.26152e-15    0.0670626
       619.30000  1.26152e-15    0.0670500
       619.40000  1.26152e-15    0.0670500
       619.50000  4.05769e-11      2157.48
       619.60000  4.05769e-11      2165.19
       619.70000  4.05769e-11      2172.08
       619.80000  4.05769e-11      2178.17
       619.90000  4.05769e-11      2183.45
       620.00000  4.05769e-11      2187.50
       620.10000  4.05769e-11      2190.75
       620.20000  4.05769e-11      2193.18
       620.30000  4.05769e-11      2194.81
       620.40000  4.05769e-11      2195.21
       620.50000  1.26248e-10      6830.01
       620.60000  1.26248e-10      6802.24
       620.70000  1.26248e-10      6775.73
       620.80000  1.26248e-10      6753.00
       620.90000  1.26248e-10      6732.80
       621.00000  1.26248e-10      6715.13
       621.10000  1.26248e-10      6699.98
       621.20000  1.26248e-10      6688.61
       621.30000  1.26086e-10      6669.95
       621.40000  1.26086e-10      6662.38
       621.50000  3.80802e-11      2011.01
       621.60000  3.80802e-11      2017.87
       621.70000  3.80802e-11      2023.96
       621.80000  3.80802e-11      2028.91
       621.90000  3.80802e-11      2033.48
       622.00000  3.80802e-11      2036.91
       622.10000  3.80802e-11      2039.57
       622.20000  3.80802e-11      2041.10
       622.30000  3.80802e-11      2042.24
       622.40000  3.80802e-11      2042.24
       622.50000  1.45863e-10      7819.70
       622.60000  1.45863e-10      7813.86
       622.70000  1.45863e-10      7805.11
       622.80000  1.45863e-10      7793.44
       622.90000  1.45863e-10      7777.40
       623.00000  1.45863e-10      7759.89
       623.10000  1.45863e-10      7738.01
       623.20000  1.45863e-10      7711.76
       623.30000  1.45863e-10      7684.05
       623.40000  1.45863e-10      7651.96
       623.50000  4.09065e-11      2136.55
       623.60000  4.09065e-11      2136.14
       623.70000  4.09065e-11      2136.14
       623.80000  4.08185e-11      2130.72
       623.90000  4.08185e-11      2130.32
       624.00000  4.08185e-11      2129.50
       624.10000  4.08185e-11      2128.28
       624.20000  4.08185e-11      2127.05
       624.30000  4.08185e-11      2125.83
       624.40000  4.08185e-11      2124.19
       624.50000  2.78957e-11      1450.58
       624.60000  2.78957e-11      1445.00
       624.70000  2.78957e-11      1440.54
       624.80000  2.78957e-11      1436.63
       624.90000  2.78957e-11      1433.56
       625.00000  2.78957e-11      1431.33
       625.10000  2.78957e-11      1429.93
       625.20000  2.78957e-11      1429.10
       625.30000  2.78957e-11      1429.38
       625.40000  2.78957e-11      1430.21
       625.50000  6.99602e-11      3591.06
       625.60000  6.99602e-11      3596.66
       625.70000  6.99602e-11      3605.05
       625.80000  6.99602e-11      3614.85
       625.90000  6.99602e-11      3626.74
       626.00000  6.99602e-11      3640.73
       626.10000  6.99602e-11      3656.82
       626.20000  6.99602e-11      3674.31
       626.30000  6.98499e-11      3688.77
       626.40000  6.98499e-11      3710.43
       626.50000  6.24808e-11      3339.60
       626.60000  6.24808e-11      3340.22
       626.70000  6.24808e-11      3340.85
       626.80000  6.24808e-11      3341.47
       626.90000  6.24808e-11      3342.10
       627.00000  6.24808e-11      3342.72
       627.10000  6.24808e-11      3343.35
       627.20000  6.24808e-11      3343.35
       627.30000  6.24808e-11      3343.97
       627.40000  6.24808e-11      3344.60
       627.50000  2.36989e-10      12688.4
       627.60000  2.36989e-10      12697.9
       627.70000  2.36989e-10      12705.0
       627.80000  2.36989e-10      12709.7
       627.90000  2.36989e-10      12714.5
       628.00000  2.36989e-10      12716.8
       628.10000  2.36989e-10      12719.2
       628.20000  2.36989e-10      12719.2
       628.30000  2.36989e-10      12716.8
       628.40000  2.36989e-10      12714.5
       628.50000  2.68541e-11      1440.19
       628.60000  2.68541e-11      1439.38
       628.70000  2.68541e-11      1438.58
       628.80000  2.67974e-11      1434.46
       628.90000  2.67974e-11      1433.12
       629.00000  2.67974e-11      1431.78
       629.10000  2.67974e-11      1430.18
       629.20000  2.67974e-11      1428.57
       629.30000  2.67974e-11      1426.69
       629.40000  2.67974e-11      1424.55
       629.50000  3.91097e-11      2075.94
       629.60000  3.91097e-11      2071.64
       629.70000  3.91097e-11      2067.34
       629.80000  3.91097e-11      2063.43
       629.90000  3.91097e-11      2059.91
       630.00000  3.91097e-11      2056.39
       630.10000  3.91097e-11      2052.87
       630.20000  3.91097e-11      2050.13
       630.30000  3.91097e-11      2047.00
       630.40000  3.91097e-11      2044.66
       630.50000  1.73419e-10      9055.95
       630.60000  1.73419e-10      9045.54
       630.70000  1.73419e-10      9036.87
       630.80000  1.73419e-10      9029.93
       630.90000  1.73419e-10      9023.00
       631.00000  1.73419e-10      9017.79
       631.10000  1.73419e-10      9023.00
       631.20000  1.73419e-10      9028.20
       631.30000  1.73411e-10      9034.70
       631.40000  1.73411e-10      9039.90
       631.50000  4.92525e-11      2569.01
       631.60000  4.92525e-11      2570.49
       631.70000  4.92525e-11      2571.97
       631.80000  4.92525e-11      2572.95
       631.90000  4.92525e-11      2574.43
       632.00000  4.92525e-11      2575.91
       632.10000  4.92525e-11      2577.38
       632.20000  4.92525e-11      2578.37
       632.30000  4.92525e-11      2579.85
       632.40000  4.92525e-11      2581.32
       632.50000  8.82823e-11      4628.64
       632.60000  8.82823e-11      4630.40
       632.70000  8.82823e-11      4633.05
       632.80000  8.82823e-11      4634.82
       632.90000  8.82823e-11      4636.58
       633.00000  8.82823e-11      4639.23
       633.10000  8.82823e-11      4641.00
       633.20000  8.82823e-11      4642.76
       633.30000  8.82823e-11      4644.53
       633.40000  8.82823e-11      4646.30
       633.50000  1.59513e-10      8398.36
       633.60000  1.59513e-10      8401.55
       633.70000  1.59513e-10      8404.74
       633.80000  1.59489e-10      8405.04
       633.90000  1.59489e-10      8408.23
       634.00000  1.59489e-10      8411.42
       634.10000  1.59489e-10      8413.02
       634.20000  1.59489e-10      8416.21
       634.30000  1.59489e-10      8417.80
       634.40000  1.59489e-10      8420.99
       634.50000  1.41274e-10      7460.67
       634.60000  1.41274e-10      7462.08
       634.70000  1.41274e-10      7464.91
       634.80000  1.41274e-10      7466.32
       634.90000  1.41274e-10      7467.73
       635.00000  1.41274e-10      7469.15
       635.10000  1.41274e-10      7470.56
       635.20000  1.41274e-10      7470.56
       635.30000  1.41274e-10      7471.97
       635.40000  1.41274e-10      7471.97
       635.50000  1.52900e-10      8088.40
       635.60000  1.52900e-10      8089.93
       635.70000  1.52900e-10      8089.93
       635.80000  1.52900e-10      8091.45
       635.90000  1.52900e-10      8091.45
       636.00000  1.52900e-10      8092.98
       636.10000  1.52900e-10      8092.98
       636.20000  1.52900e-10      8094.51
       636.30000  1.51994e-10      8046.54
       636.40000  1.51994e-10      8048.06
       636.50000  1.78877e-10      9471.52
       636.60000  1.78877e-10      9473.30
       636.70000  1.78877e-10      9473.30
       636.80000  1.78877e-10      9475.09
       636.90000  1.78877e-10      9475.09
       637.00000  1.78877e-10      9475.09
       637.10000  1.78877e-10      9476.88
       637.20000  1.78877e-10      9476.88
       637.30000  1.78877e-10      9478.67
       637.40000  1.78877e-10      9478.67
       637.50000  2.64098e-10      13994.5
       637.60000  2.64098e-10      13997.2
       637.70000  2.64098e-10      13997.2
       637.80000  2.64098e-10      13999.8
       637.90000  2.64098e-10      13999.8
       638.00000  2.64098e-10      13999.8
       638.10000  2.64098e-10      14002.5
       638.20000  2.64098e-10      14002.5
       638.30000  2.64098e-10      14002.5
       638.40000  2.64098e-10      14005.1
       638.50000  1.95862e-10      10386.6
       638.60000  1.95862e-10      10386.6
       638.70000  1.95862e-10      10388.5
       638.80000  1.94578e-10      10320.4
       638.90000  1.94578e-10      10320.4
       639.00000  1.94578e-10      10320.4
       639.10000  1.94578e-10      10304.9
       639.20000  1.94578e-10      10289.3
       639.30000  1.94578e-10      10273.7
       639.40000  1.94578e-10      10260.1
       639.50000  1.12482e-10      5922.20
       639.60000  1.12482e-10      5915.45
       639.70000  1.12482e-10      5907.58
       639.80000  1.12482e-10      5900.83
       639.90000  1.12482e-10      5895.21
       640.00000  1.12482e-10      5888.46
       640.10000  1.12482e-10      5882.83
       640.20000  1.12482e-10      5878.33
       640.30000  1.12482e-10      5873.83
       640.40000  1.12482e-10      5869.33
       640.50000  1.14077e-10      5948.00
       640.60000  1.14077e-10      5944.58
       640.70000  1.14077e-10      5941.15
       640.80000  1.14077e-10      5938.87
       640.90000  1.14077e-10      5935.45
       641.00000  1.14077e-10      5934.31
       641.10000  1.14077e-10      5936.59
       641.20000  1.14077e-10      5938.87
       641.30000  1.13306e-10      5900.97
       641.40000  1.13306e-10      5903.23
       641.50000  2.51768e-10      13122.1
       641.60000  2.51768e-10      13127.2
       641.70000  2.51768e-10      13132.2
       641.80000  2.51768e-10      13137.2
       641.90000  2.51768e-10      13142.3
       642.00000  2.51768e-10      13147.3
       642.10000  2.51768e-10      13149.8
       642.20000  2.51768e-10      13154.9
       642.30000  2.51768e-10      13159.9
       642.40000  2.51768e-10      13164.9
       642.50000  4.45680e-10      23313.5
       642.60000  4.45680e-10      23322.5
       642.70000  4.45680e-10      23331.4
       642.80000  4.45680e-10      23340.3
       642.90000  4.45680e-10      23349.2
       643.00000  4.45680e-10      23358.1
       643.10000  4.45680e-10      23362.6
       643.20000  4.45680e-10      23371.5
       643.30000  4.45680e-10      23380.4
       643.40000  4.45680e-10      23389.3
       643.50000  5.68235e-10      29832.3
       643.60000  5.68235e-10      29843.7
       643.70000  5.68235e-10      29849.4
       643.80000  5.67478e-10      29821.0
       643.90000  5.67478e-10      29832.3
       644.00000  5.67478e-10      29843.7
       644.10000  5.67478e-10      29855.0
       644.20000  5.67478e-10      29860.7
       644.30000  5.67478e-10      29872.0
       644.40000  5.67478e-10      29883.4
       644.50000  7.25432e-10      38215.8
       644.60000  7.25432e-10      38223.0
       644.70000  7.25432e-10      38237.5
       644.80000  7.25432e-10      38252.0
       644.90000  7.25432e-10      38266.5
       645.00000  7.25432e-10      38273.8
       645.10000  7.25432e-10      38266.5
       645.20000  7.25432e-10      38252.0
       645.30000  7.25432e-10      38244.8
       645.40000  7.25432e-10      38230.3
       645.50000  6.53566e-10      34423.3
       645.60000  6.53566e-10      34410.3
       645.70000  6.53566e-10      34397.2
       645.80000  6.53566e-10      34377.6
       645.90000  6.53566e-10      34358.0
       646.00000  6.53566e-10      34338.4
       646.10000  6.53566e-10      34318.8
       646.20000  6.53566e-10      34299.2
       646.30000  6.53166e-10      34252.0
       646.40000  6.53166e-10      34225.9
       646.50000  5.30945e-10      27805.6
       646.60000  5.30945e-10      27779.0
       646.70000  5.30945e-10      27757.8
       646.80000  5.30945e-10      27736.5
       646.90000  5.30945e-10      27710.0
       647.00000  5.30945e-10      27688.8
       647.10000  5.30945e-10      27614.4
       647.20000  5.30945e-10      27545.4
       647.30000  5.30945e-10      27481.7
       647.40000  5.30945e-10      27418.0
       647.50000  4.24012e-10      21849.3
       647.60000  4.24012e-10      21811.2
       647.70000  4.24012e-10      21768.8
       647.80000  4.24012e-10      21734.8
       647.90000  4.24012e-10      21700.9
       648.00000  4.24012e-10      21671.2
       648.10000  4.24012e-10      21645.8
       648.20000  4.24012e-10      21624.6
       648.30000  4.24012e-10      21603.4
       648.40000  4.24012e-10      21586.4
       648.50000  3.38737e-10      17234.9
       648.60000  3.38737e-10      17228.1
       648.70000  3.38737e-10      17221.4
       648.80000  3.39087e-10      17235.8
       648.90000  3.39087e-10      17235.8
       649.00000  3.39087e-10      17239.2
       649.10000  3.39087e-10      17242.6
       649.20000  3.39087e-10      17252.8
       649.30000  3.39087e-10      17259.5
       649.40000  3.39087e-10      17273.1
       649.50000  2.56663e-10      13087.3
       649.60000  2.56663e-10      13100.1
       649.70000  2.56663e-10      13115.5
       649.80000  2.56663e-10      13133.5
       649.90000  2.56663e-10      13151.4
       650.00000  2.56663e-10      13172.0
       650.10000  2.56663e-10      13195.1
       650.20000  2.56663e-10      13220.7
       650.30000  2.56663e-10      13249.0
       650.40000  2.56663e-10      13277.2
       650.50000  3.80368e-10      19722.1
       650.60000  3.80368e-10      19771.5
       650.70000  3.80368e-10      19821.0
       650.80000  3.80368e-10      19878.0
       650.90000  3.80368e-10      19935.1
       651.00000  3.80368e-10      19995.9
       651.10000  3.80368e-10      20011.2
       651.20000  3.80368e-10      20026.4
       651.30000  3.79891e-10      20012.7
       651.40000  3.79891e-10      20024.1
       651.50000  5.28149e-10      27854.6
       651.60000  5.28149e-10      27859.9
       651.70000  5.28149e-10      27870.4
       651.80000  5.28149e-10      27875.7
       651.90000  5.28149e-10      27875.7
       652.00000  5.28149e-10      27875.7
       652.10000  5.28149e-10      27870.4
       652.20000  5.28149e-10      27865.2
       652.30000  5.28149e-10      27859.9
       652.40000  5.28149e-10      27849.3
       652.50000  6.18077e-10      32572.6
       652.60000  6.18077e-10      32554.1
       652.70000  6.18077e-10      32535.6
       652.80000  6.18077e-10      32504.6
       652.90000  6.18077e-10      32479.9
       653.00000  6.18077e-10      32449.0
       653.10000  6.18077e-10      32424.3
       653.20000  6.18077e-10      32399.6
       653.30000  6.18077e-10      32362.5
       653.40000  6.18077e-10      32325.4
       653.50000  6.84035e-10      35734.0
       653.60000  6.84035e-10      35686.1
       653.70000  6.84035e-10      35631.4
       653.80000  6.83202e-10      35526.5
       653.90000  6.83202e-10      35465.0
       654.00000  6.83202e-10      35396.7
       654.10000  6.83202e-10      35328.4
       654.20000  6.83202e-10      35246.4
       654.30000  6.83202e-10      35164.4
       654.40000  6.83202e-10      35082.4
       654.50000  6.39659e-10      32763.4
       654.60000  6.39659e-10      32673.8
       654.70000  6.39659e-10      32577.9
       654.80000  6.39659e-10      32481.9
       654.90000  6.39659e-10      32379.6
       655.00000  6.39659e-10      32270.8
       655.10000  6.39659e-10      31963.8
       655.20000  6.39659e-10      31669.5
       655.30000  6.39659e-10      31394.5
       655.40000  6.39659e-10      31138.6
       655.50000  5.32233e-10      25706.9
       655.60000  5.32233e-10      25520.6
       655.70000  5.32233e-10      25345.0
       655.80000  5.32233e-10      25185.3
       655.90000  5.32233e-10      25036.3
       656.00000  5.32233e-10      24903.2
       656.10000  5.32233e-10      24786.1
       656.20000  5.32233e-10      24679.7
       656.30000  5.31829e-10      24570.5
       656.40000  5.31829e-10      24490.7
       656.50000  3.83457e-10      17612.2
       656.60000  3.83457e-10      17577.7
       656.70000  3.83457e-10      17550.8
       656.80000  3.83457e-10      17535.5
       656.90000  3.83457e-10      17527.8
       657.00000  3.83457e-10      17531.7
       657.10000  3.83457e-10      17681.2
       657.20000  3.83457e-10      17826.9
       657.30000  3.83457e-10      17968.8
       657.40000  3.83457e-10      18106.9
       657.50000  1.85040e-10      8800.51
       657.60000  1.85040e-10      8863.42
       657.70000  1.85040e-10      8922.63
       657.80000  1.85040e-10      8980.00
       657.90000  1.85040e-10      9033.66
       658.00000  1.85040e-10      9087.32
       658.10000  1.85040e-10      9139.13
       658.20000  1.85040e-10      9187.24
       658.30000  1.85040e-10      9233.50
       658.40000  1.85040e-10      9277.91
       658.50000  1.06990e-10      5388.03
       658.60000  1.06990e-10      5411.57
       658.70000  1.06990e-10      5432.97
       658.80000  1.06879e-10      5448.70
       658.90000  1.06879e-10      5467.94
       659.00000  1.06879e-10      5485.04
       659.10000  1.06879e-10      5502.14
       659.20000  1.06879e-10      5518.17
       659.30000  1.06879e-10      5532.07
       659.40000  1.06879e-10      5544.89
       659.50000  2.11601e-11      1100.12
       659.60000  2.11601e-11      1102.23
       659.70000  2.11601e-11      1103.92
       659.80000  2.11601e-11      1105.62
       659.90000  2.11601e-11      1106.89
       660.00000  2.11601e-11      1107.95
       660.10000  2.11601e-11      1108.79
       660.20000  2.11601e-11      1109.21
       660.30000  2.11601e-11      1109.64
       660.40000  2.11601e-11      1109.64
       660.50000  3.19677e-11      1676.07
       660.60000  3.19677e-11      1675.43
       660.70000  3.19677e-11      1674.47
       660.80000  3.19677e-11      1672.87
       660.90000  3.19677e-11      1671.27
       661.00000  3.19677e-11      1669.03
       661.10000  3.19677e-11      1668.07
       661.20000  3.19677e-11      1666.80
       661.30000  3.18883e-11      1661.70
       661.40000  3.18883e-11      1660.74
       661.50000  4.89575e-11      2548.24
       661.60000  4.89575e-11      2547.26
       661.70000  4.89575e-11      2545.79
       661.80000  4.89575e-11      2544.81
       661.90000  4.89575e-11      2543.83
       662.00000  4.89575e-11      2542.85
       662.10000  4.89575e-11      2541.87
       662.20000  4.89575e-11      2540.90
       662.30000  4.89575e-11      2540.41
       662.40000  4.89575e-11      2539.92
       662.50000  2.88225e-11      1494.74
       662.60000  2.88225e-11      1494.74
       662.70000  2.88225e-11      1494.45
       662.80000  2.88225e-11      1494.16
       662.90000  2.88225e-11      1494.16
       663.00000  2.88225e-11      1494.16
       663.10000  2.88225e-11      1495.31
       663.20000  2.88225e-11      1496.18
       663.30000  2.88225e-11      1497.33
       663.40000  2.88225e-11      1498.19
       663.50000  1.04747e-11      544.792
       663.60000  1.04747e-11      545.106
       663.70000  1.04747e-11      545.315
       663.80000  1.04524e-11      544.466
       663.90000  1.04524e-11      544.675
       664.00000  1.04524e-11      544.780
       664.10000  1.04524e-11      544.989
       664.20000  1.04524e-11      545.093
       664.30000  1.04524e-11      545.198
       664.40000  1.04524e-11      545.302
       664.50000  1.77253e-11      924.730
       664.60000  1.77253e-11      924.730
       664.70000  1.77253e-11      924.730
       664.80000  1.77253e-11      924.730
       664.90000  1.77253e-11      924.730
       665.00000  1.77253e-11      924.553
       665.10000  1.77253e-11      924.376
       665.20000  1.77253e-11      924.199
       665.30000  1.77253e-11      923.844
       665.40000  1.77253e-11      923.490
       665.50000  3.30314e-11      1720.28
       665.60000  3.30314e-11      1719.62
       665.70000  3.30314e-11      1718.63
       665.80000  3.30314e-11      1717.97
       665.90000  3.30314e-11      1716.97
       666.00000  3.30314e-11      1715.65
       666.10000  3.30314e-11      1714.66
       666.20000  3.30314e-11      1713.34
       666.30000  3.29485e-11      1707.72
       666.40000  3.29485e-11      1706.40
       666.50000  3.30228e-11      1708.60
       666.60000  3.30228e-11      1706.95
       666.70000  3.30228e-11      1705.29
       666.80000  3.30228e-11      1703.64
       666.90000  3.30228e-11      1701.99
       667.00000  3.30228e-11      1700.01
       667.10000  3.30228e-11      1701.99
       667.20000  3.30228e-11      1703.64
       667.30000  3.30228e-11      1705.29
       667.40000  3.30228e-11      1706.95
       667.50000  1.81660e-11      939.908
       667.60000  1.81660e-11      940.634
       667.70000  1.81660e-11      941.361
       667.80000  1.81660e-11      941.906
       667.90000  1.81660e-11      942.451
       668.00000  1.81660e-11      942.996
       668.10000  1.81660e-11      943.541
       668.20000  1.81660e-11      943.904
       668.30000  1.81660e-11      944.268
       668.40000  1.81660e-11      944.449
       668.50000  4.39955e-12      228.776
       668.60000  4.39955e-12      228.820
       668.70000  4.39955e-12      228.820
       668.80000  4.39235e-12      228.446
       668.90000  4.39235e-12      228.446
       669.00000  4.39235e-12      228.402
       669.10000  4.39235e-12      228.095
       669.20000  4.39235e-12      227.787
       669.30000  4.39235e-12      227.524
       669.40000  4.39235e-12      227.260
       669.50000  1.38943e-11      718.059
       669.60000  1.38943e-11      717.225
       669.70000  1.38943e-11      716.530
       669.80000  1.38943e-11      715.836
       669.90000  1.38943e-11      715.141
       670.00000  1.38943e-11      714.585
       670.10000  1.38943e-11      714.029
       670.20000  1.38943e-11      713.474
       670.30000  1.38943e-11      712.918
       670.40000  1.38943e-11      712.501
       670.50000  5.18504e-12      265.733
       670.60000  5.18504e-12      265.578
       670.70000  5.18504e-12      265.474
       670.80000  5.18504e-12      265.370
       670.90000  5.18504e-12      265.267
       671.00000  5.18504e-12      265.215
       671.10000  5.18504e-12      265.111
       671.20000  5.18504e-12      265.111
       671.30000  5.18523e-12      265.069
       671.40000  5.18523e-12      265.069
       671.50000  2.02666e-12      103.603
       671.60000  2.02666e-12      103.603
       671.70000  2.02666e-12      103.603
       671.80000  2.02666e-12      103.623
       671.90000  2.02666e-12      103.643
       672.00000  2.02666e-12      103.684
       672.10000  2.02666e-12      103.724
       672.20000  2.02666e-12      103.765
       672.30000  2.02666e-12      103.805
       672.40000  2.02666e-12      103.866
       672.50000  7.97554e-12      408.986
       672.60000  7.97554e-12      409.225
       672.70000  7.97554e-12      409.464
       672.80000  7.97554e-12      409.783
       672.90000  7.97554e-12      410.102
       673.00000  7.97554e-12      410.501
       673.10000  7.97554e-12      410.342
       673.20000  7.97554e-12      410.182
       673.30000  7.97554e-12      410.022
       673.40000  7.97554e-12      409.943
       673.50000  4.61327e-11      2370.30
       673.60000  4.61327e-11      2369.83
       673.70000  4.61327e-11      2369.37
       673.80000  4.61511e-11      2369.40
       673.90000  4.61511e-11      2368.94
       674.00000  4.61511e-11      2368.47
       674.10000  4.61511e-11      2368.01
       674.20000  4.61511e-11      2367.55
       674.30000  4.61511e-11      2367.09
       674.40000  4.61511e-11      2366.63
       674.50000  1.22545e-11      628.290
       674.60000  1.22545e-11      628.290
       674.70000  1.22545e-11      628.167
       674.80000  1.22545e-11      628.167
       674.90000  1.22545e-11      628.045
       675.00000  1.22545e-11      628.045
       675.10000  1.22545e-11      628.167
       675.20000  1.22545e-11      628.290
       675.30000  1.22545e-11      628.413
       675.40000  1.22545e-11      628.535
       675.50000  2.12831e-11      1091.61
       675.60000  2.12831e-11      1091.82
       675.70000  2.12831e-11      1092.03
       675.80000  2.12831e-11      1092.03
       675.90000  2.12831e-11      1092.25
       676.00000  2.12831e-11      1092.25
       676.10000  2.12831e-11      1092.46
       676.20000  2.12831e-11      1092.46
       676.30000  2.12614e-11      1091.35
       676.40000  2.12614e-11      1091.35
       676.50000  3.10704e-11      1595.15
       676.60000  3.10704e-11      1595.15
       676.70000  3.10704e-11      1595.15
       676.80000  3.10704e-11      1594.84
       676.90000  3.10704e-11      1594.84
       677.00000  3.10704e-11      1594.84
       677.10000  3.10704e-11      1594.84
       677.20000  3.10704e-11      1594.53
       677.30000  3.10704e-11      1594.53
       677.40000  3.10704e-11      1594.22
       677.50000  3.41766e-11      1753.60
       677.60000  3.41766e-11      1753.26
       677.70000  3.41766e-11      1753.26
       677.80000  3.41766e-11      1752.92
       677.90000  3.41766e-11      1752.57
       678.00000  3.41766e-11      1752.23
       678.10000  3.41766e-11      1751.89
       678.20000  3.41766e-11      1751.55
       678.30000  3.41766e-11      1751.21
       678.40000  3.41766e-11      1750.87
       678.50000  2.90049e-11      1485.34
       678.60000  2.90049e-11      1485.05
       678.70000  2.90049e-11      1484.76
       678.80000  2.90027e-11      1484.07
       678.90000  2.90027e-11      1483.78
       679.00000  2.90027e-11      1483.20
       679.10000  2.90027e-11      1483.20
       679.20000  2.90027e-11      1483.49
       679.30000  2.90027e-11      1483.49
       679.40000  2.90027e-11      1483.49
       679.50000  1.72334e-11      881.489
       679.60000  1.72334e-11      881.489
       679.70000  1.72334e-11      881.489
       679.80000  1.72334e-11      881.489
       679.90000  1.72334e-11      881.489
       680.00000  1.72334e-11      881.316
       680.10000  1.72334e-11      881.316
       680.20000  1.72334e-11      881.316
       680.30000  1.72334e-11      881.144
       680.40000  1.72334e-11      881.144
       680.50000  2.19213e-11      1120.62
       680.60000  2.19213e-11      1120.62
       680.70000  2.19213e-11      1120.40
       680.80000  2.19213e-11      1120.18
       680.90000  2.19213e-11      1119.96
       681.00000  2.19213e-11      1119.96
       681.10000  2.19213e-11      1119.74
       681.20000  2.19213e-11      1119.52
       681.30000  2.19193e-11      1119.42
       681.40000  2.19193e-11      1119.20
       681.50000  7.61495e-13      38.8743
       681.60000  7.61495e-13      38.8667
       681.70000  7.61495e-13      38.8591
       681.80000  7.61495e-13      38.8438
       681.90000  7.61495e-13      38.8362
       682.00000  7.61495e-13      38.8286
       682.10000  7.61495e-13      38.8134
       682.20000  7.61495e-13      38.7982
       682.30000  7.61495e-13      38.7905
       682.40000  7.61495e-13      38.7753
       682.50000  1.41390e-16   0.00719677
       682.60000  1.41390e-16   0.00719394
       682.70000  1.41390e-16   0.00719111
       682.80000  1.41390e-16   0.00718828
       682.90000  1.41390e-16   0.00718404
       683.00000  1.41390e-16   0.00718121
       683.10000  1.41390e-16   0.00717839
       683.20000  1.41390e-16   0.00717414
       683.30000  1.41390e-16   0.00716990
       683.40000  1.41390e-16   0.00716566
       683.50000  1.35219e-11      685.019
       683.60000  1.35219e-11      684.613
       683.70000  1.35219e-11      684.208
       683.80000  1.35115e-11      683.143
       683.90000  1.35115e-11      682.737
       684.00000  1.35115e-11      682.332
       684.10000  1.35115e-11      681.792
       684.20000  1.35115e-11      681.386
       684.30000  1.35115e-11      680.846
       684.40000  1.35115e-11      680.440
       684.50000  3.46795e-11      1745.07
       684.60000  3.46795e-11      1743.68
       684.70000  3.46795e-11      1742.30
       684.80000  3.46795e-11      1740.91
       684.90000  3.46795e-11      1739.18
       685.00000  3.46795e-11      1737.79
       685.10000  3.46795e-11      1739.18
       685.20000  3.46795e-11      1740.91
       685.30000  3.46795e-11      1742.30
       685.40000  3.46795e-11      1743.34
       685.50000  1.27180e-12      63.9841
       685.60000  1.27180e-12      64.0349
       685.70000  1.27180e-12      64.0731
       685.80000  1.27180e-12      64.1112
       685.90000  1.27180e-12      64.1494
       686.00000  1.27180e-12      64.1875
       686.10000  1.27180e-12      64.2257
       686.20000  1.27180e-12      64.2511
       686.30000  1.27046e-12      64.2218
       686.40000  1.27046e-12      64.2472
       686.50000  1.24424e-11      629.460
       686.60000  1.24424e-11      629.708
       686.70000  1.24424e-11      629.957
       686.80000  1.24424e-11      630.082
       686.90000  1.24424e-11      630.331
       687.00000  1.24424e-11      630.455
       687.10000  1.24424e-11      630.579
       687.20000  1.24424e-11      630.579
       687.30000  1.24424e-11      630.579
       687.40000  1.24424e-11      630.579
       687.50000  1.22042e-11      618.511
       687.60000  1.22042e-11      618.511
       687.70000  1.22042e-11      618.511
       687.80000  1.22042e-11      618.511
       687.90000  1.22042e-11      618.511
       688.00000  1.22042e-11      618.389
       688.10000  1.22042e-11      618.389
       688.20000  1.22042e-11      618.389
       688.30000  1.22042e-11      618.267
       688.40000  1.22042e-11      618.267
       688.50000  5.44141e-13      27.5607
       688.60000  5.44141e-13      27.5553
       688.70000  5.44141e-13      27.5553
       688.80000  5.43447e-13      27.5147
       688.90000  5.43447e-13      27.5093
       689.00000  5.43447e-13      27.5039
       689.10000  5.43447e-13      27.4984
       689.20000  5.43447e-13      27.4930
       689.30000  5.43447e-13      27.4875
       689.40000  5.43447e-13      27.4821
       689.50000  3.77441e-12      190.834
       689.60000  3.77441e-12      190.796
       689.70000  3.77441e-12      190.721
       689.80000  3.77441e-12      190.683
       689.90000  3.77441e-12      190.645
       690.00000  3.77441e-12      190.570
       690.10000  3.77441e-12      190.494
       690.20000  3.77441e-12      190.457
       690.30000  3.77441e-12      190.381
       690.40000  3.77441e-12      190.306
       690.50000  2.72553e-12      137.394
       690.60000  2.72553e-12      137.339
       690.70000  2.72553e-12      137.285
       690.80000  2.72553e-12      137.230
       690.90000  2.72553e-12      137.176
       691.00000  2.72553e-12      137.121
       691.10000  2.72553e-12      137.176
       691.20000  2.72553e-12      137.203
       691.30000  2.72293e-12      137.127
       691.40000  2.72293e-12      137.154
       691.50000  3.12355e-11      1573.64
       691.60000  3.12355e-11      1574.27
       691.70000  3.12355e-11      1574.58
       691.80000  3.12355e-11      1574.89
       691.90000  3.12355e-11      1575.20
       692.00000  3.12355e-11      1575.20
       692.10000  3.12355e-11      1575.52
       692.20000  3.12355e-11      1575.83
       692.30000  3.12355e-11      1575.83
       692.40000  3.12355e-11      1575.83
       692.50000  9.80241e-12      494.630
       692.60000  9.80241e-12      494.630
       692.70000  9.80241e-12      494.630
       692.80000  9.80241e-12      494.630
       692.90000  9.80241e-12      494.630
       693.00000  9.80241e-12      494.532
       693.10000  9.80241e-12      494.532
       693.20000  9.80241e-12      494.434
       693.30000  9.80241e-12      494.336
       693.40000  9.80241e-12      494.238
       693.50000  2.22119e-11      1119.70
       693.60000  2.22119e-11      1119.48
       693.70000  2.22119e-11      1119.26
       693.80000  2.21238e-11      1114.60
       693.90000  2.21238e-11      1114.15
       694.00000  2.21238e-11      1113.93
       694.10000  2.21238e-11      1113.71
       694.20000  2.21238e-11      1113.27
       694.30000  2.21238e-11      1113.05
       694.40000  2.21238e-11      1112.61
       694.50000  1.23794e-11      622.314
       694.60000  1.23794e-11      622.190
       694.70000  1.23794e-11      621.943
       694.80000  1.23794e-11      621.695
       694.90000  1.23794e-11      621.447
       695.00000  1.23794e-11      621.200
       695.10000  1.23794e-11      620.952
       695.20000  1.23794e-11      620.705
       695.30000  1.23794e-11      620.333
       695.40000  1.23794e-11      620.086
       695.50000  9.94373e-12      497.882
       695.60000  9.94373e-12      497.584
       695.70000  9.94373e-12      497.385
       695.80000  9.94373e-12      497.087
       695.90000  9.94373e-12      496.789
       696.00000  9.94373e-12      496.590
       696.10000  9.94373e-12      496.291
       696.20000  9.94373e-12      495.993
       696.30000  9.93396e-12      495.208
       696.40000  9.93396e-12      494.910
       696.50000  7.43301e-12      370.089
       696.60000  7.43301e-12      369.866
       696.70000  7.43301e-12      369.569
       696.80000  7.43301e-12      369.346
       696.90000  7.43301e-12      369.123
       697.00000  7.43301e-12      368.826
       697.10000  7.43301e-12      369.346
       697.20000  7.43301e-12      369.718
       697.30000  7.43301e-12      370.164
       697.40000  7.43301e-12      370.535
       697.50000  9.99625e-12      498.813
       697.60000  9.99625e-12      499.213
       697.70000  9.99625e-12      499.613
       697.80000  9.99625e-12      499.913
       697.90000  9.99625e-12      500.213
       698.00000  9.99625e-12      500.413
       698.10000  9.99625e-12      500.612
       698.20000  9.99625e-12      500.812
       698.30000  9.99625e-12      500.912
       698.40000  9.99625e-12      501.012
       698.50000  1.33915e-11      671.316
       698.60000  1.33915e-11      671.316
       698.70000  1.33915e-11      671.182
       698.80000  1.33686e-11      669.903
       698.90000  1.33686e-11      669.769
       699.00000  1.33686e-11      669.502
       699.10000  1.33686e-11      668.299
       699.20000  1.33686e-11      666.962
       699.30000  1.33686e-11      665.892
       699.40000  1.33686e-11      664.689
       699.50000  3.90110e-13      19.3651
       699.60000  3.90110e-13      19.3339
       699.70000  3.90110e-13      19.3066
       699.80000  3.90110e-13      19.2793
       699.90000  3.90110e-13      19.2519
       700.00000  3.90110e-13      19.2285
       700.10000  3.90110e-13      19.2051
       700.20000  3.90110e-13      19.1817
       700.30000  3.90110e-13      19.1622
       700.40000  3.90110e-13      19.1427
       700.50000  1.53205e-11      751.012
       700.60000  1.53205e-11      750.399
       700.70000  1.53205e-11      749.786
       700.80000  1.53205e-11      749.326
       700.90000  1.53205e-11      748.867
       701.00000  1.53205e-11      748.407
       701.10000  1.53205e-11      748.254
       701.20000  1.53205e-11      748.101
       701.30000  1.53101e-11      747.437
       701.40000  1.53101e-11      747.437
       701.50000  1.83533e-12      89.6010
       701.60000  1.83533e-12      89.6010
       701.70000  1.83533e-12      89.6010
       701.80000  1.83533e-12      89.6194
       701.90000  1.83533e-12      89.6194
       702.00000  1.83533e-12      89.6377
       702.10000  1.83533e-12      89.6744
       702.20000  1.83533e-12      89.6928
       702.30000  1.83533e-12      89.7295
       702.40000  1.83533e-12      89.7478
       702.50000  1.64240e-11      803.462
       702.60000  1.64240e-11      803.955
       702.70000  1.64240e-11      804.284
       702.80000  1.64240e-11      804.776
       702.90000  1.64240e-11      805.269
       703.00000  1.64240e-11      805.762
       703.10000  1.64240e-11      807.240
       703.20000  1.64240e-11      808.718
       703.30000  1.64240e-11      810.032
       703.40000  1.64240e-11      811.346
       703.50000  2.48787e-11      1230.75
       703.60000  2.48787e-11      1232.74
       703.70000  2.48787e-11      1234.23
       703.80000  2.48117e-11      1232.65
       703.90000  2.48117e-11      1234.13
       704.00000  2.48117e-11      1235.37
       704.10000  2.48117e-11      1236.86
       704.20000  2.48117e-11      1238.10
       704.30000  2.48117e-11      1239.10
       704.40000  2.48117e-11      1240.09
       704.50000  1.43246e-11      716.518
       704.60000  1.43246e-11      717.091
       704.70000  1.43246e-11      717.521
       704.80000  1.43246e-11      717.807
       704.90000  1.43246e-11      718.237
       705.00000  1.43246e-11      718.524
       705.10000  1.43246e-11      718.667
       705.20000  1.43246e-11      718.810
       705.30000  1.43246e-11      718.953
       705.40000  1.43246e-11      719.097
       705.50000  1.10205e-11      553.230
       705.60000  1.10205e-11      553.230
       705.70000  1.10205e-11      553.120
       705.80000  1.10205e-11      553.010
       705.90000  1.10205e-11      552.899
       706.00000  1.10205e-11      552.679
       706.10000  1.10205e-11      552.459
       706.20000  1.10205e-11      552.128
       706.30000  1.10288e-11      552.212
       706.40000  1.10288e-11      551.881
       706.50000  1.43366e-11      716.830
       706.60000  1.43366e-11      716.257
       706.70000  1.43366e-11      715.683
       706.80000  1.43366e-11      714.966
       706.90000  1.43366e-11      714.250
       707.00000  1.43366e-11      713.533
       707.10000  1.43366e-11      712.959
       707.20000  1.43366e-11      712.529
       707.30000  1.43366e-11      711.956
       707.40000  1.43366e-11      711.526
       707.50000  1.18349e-11      587.012
       707.60000  1.18349e-11      586.657
       707.70000  1.18349e-11      586.420
       707.80000  1.18349e-11      586.065
       707.90000  1.18349e-11      585.828
       708.00000  1.18349e-11      585.591
       708.10000  1.18349e-11      585.355
       708.20000  1.18349e-11      585.118
       708.30000  1.18349e-11      584.881
       708.40000  1.18349e-11      584.645
       708.50000  9.35973e-12      462.277
       708.60000  9.35973e-12      462.090
       708.70000  9.35973e-12      461.996
       708.80000  9.32786e-12      460.330
       708.90000  9.32786e-12      460.237
       709.00000  9.32786e-12      460.237
       709.10000  9.32786e-12      460.423
       709.20000  9.32786e-12      460.610
       709.30000  9.32786e-12      460.703
       709.40000  9.32786e-12      460.890
       709.50000  6.09865e-12      301.395
       709.60000  6.09865e-12      301.517
       709.70000  6.09865e-12      301.578
       709.80000  6.09865e-12      301.639
       709.90000  6.09865e-12      301.700
       710.00000  6.09865e-12      301.761
       710.10000  6.09865e-12      301.822
       710.20000  6.09865e-12      301.883
       710.30000  6.09865e-12      301.883
       710.40000  6.09865e-12      301.944
       710.50000  8.66924e-13      42.9214
       710.60000  8.66924e-13      42.9214
       710.70000  8.66924e-13      42.9214
       710.80000  8.66924e-13      42.9214
       710.90000  8.66924e-13      42.9214
       711.00000  8.66924e-13      42.9214
       711.10000  8.66924e-13      42.9214
       711.20000  8.66924e-13      42.9127
       711.30000  8.67111e-13      42.9220
       711.40000  8.67111e-13      42.9133
       711.50000  1.60913e-11      796.198
       711.60000  1.60913e-11      796.037
       711.70000  1.60913e-11      795.876
       711.80000  1.60913e-11      795.715
       711.90000  1.60913e-11      795.555
       712.00000  1.60913e-11      795.233
       712.10000  1.60913e-11      795.072
       712.20000  1.60913e-11      794.750
       712.30000  1.60913e-11      794.589
       712.40000  1.60913e-11      794.267
       712.50000  2.19771e-11      1084.35
       712.60000  2.19771e-11      1083.91
       712.70000  2.19771e-11      1083.25
       712.80000  2.19771e-11      1082.81
       712.90000  2.19771e-11      1082.37
       713.00000  2.19771e-11      1081.72
       713.10000  2.19771e-11      1081.72
       713.20000  2.19771e-11      1081.72
       713.30000  2.19771e-11      1081.72
       713.40000  2.19771e-11      1081.50
       713.50000  1.83871e-11      904.830
       713.60000  1.83871e-11      904.830
       713.70000  1.83871e-11      904.646
       713.80000  1.83828e-11      904.435
       713.90000  1.83828e-11      904.251
       714.00000  1.83828e-11      904.251
       714.10000  1.83828e-11      904.067
       714.20000  1.83828e-11      903.883
       714.30000  1.83828e-11      903.883
       714.40000  1.83828e-11      903.699
       714.50000  5.08779e-17   0.00250065
       714.60000  5.08779e-17   0.00250014
       714.70000  5.08779e-17   0.00250014
       714.80000  5.08779e-17   0.00249963
       714.90000  5.08779e-17   0.00249912
       715.00000  5.08779e-17   0.00249861
       715.10000  5.08779e-17   0.00249810
       715.20000  5.08779e-17   0.00249810
       715.30000  5.08779e-17   0.00249810
       715.40000  5.08779e-17   0.00249759
       715.50000  1.40671e-11      690.412
       715.60000  1.40671e-11      690.271
       715.70000  1.40671e-11      690.131
       715.80000  1.40671e-11      689.990
       715.90000  1.40671e-11      689.849
       716.00000  1.40671e-11      689.568
       716.10000  1.40671e-11      689.427
       716.20000  1.40671e-11      689.146
       716.30000  1.40468e-11      687.871
       716.40000  1.40468e-11      687.591
       716.50000  1.21465e-11      594.330
       716.60000  1.21465e-11      594.087
       716.70000  1.21465e-11      593.844
       716.80000  1.21465e-11      593.479
       716.90000  1.21465e-11      593.236
       717.00000  1.21465e-11      592.872
       717.10000  1.21465e-11      592.508
       717.20000  1.21465e-11      592.143
       717.30000  1.21465e-11      591.779
       717.40000  1.21465e-11      591.415
       717.50000  1.22517e-11      596.169
       717.60000  1.22517e-11      595.679
       717.70000  1.22517e-11      595.311
       717.80000  1.22517e-11      594.821
       717.90000  1.22517e-11      594.331
       718.00000  1.22517e-11      593.841
       718.10000  1.22517e-11      593.351
       718.20000  1.22517e-11      592.861
       718.30000  1.22517e-11      592.371
       718.40000  1.22517e-11      591.758
       718.50000  1.44312e-11      696.448
       718.60000  1.44312e-11      695.727
       718.70000  1.44312e-11      695.005
       718.80000  1.43719e-11      691.432
       718.90000  1.43719e-11      690.713
       719.00000  1.43719e-11      689.995
       719.10000  1.43719e-11      689.995
       719.20000  1.43719e-11      689.995
       719.30000  1.43719e-11      689.995
       719.40000  1.43719e-11      690.138
       719.50000  2.33286e-11      1120.24
       719.60000  2.33286e-11      1120.47
       719.70000  2.33286e-11      1120.47
       719.80000  2.33286e-11      1120.70
       719.90000  2.33286e-11      1120.94
       720.00000  2.33286e-11      1121.40
       720.10000  2.33286e-11      1121.64
       720.20000  2.33286e-11      1121.87
       720.30000  2.33286e-11      1122.34
       720.40000  2.33286e-11      1122.57
       720.50000  1.63123e-11      785.275
       720.60000  1.63123e-11      785.601
       720.70000  1.63123e-11      785.927
       720.80000  1.63123e-11      786.254
       720.90000  1.63123e-11      786.743
       721.00000  1.63123e-11      787.069
       721.10000  1.63123e-11      787.885
       721.20000  1.63123e-11      788.700
       721.30000  1.62791e-11      787.909
       721.40000  1.62791e-11      788.560
       721.50000  1.95334e-11      947.172
       721.60000  1.95334e-11      947.954
       721.70000  1.95334e-11      948.735
       721.80000  1.95334e-11      949.712
       721.90000  1.95334e-11      950.493
       722.00000  1.95334e-11      951.079
       722.10000  1.95334e-11      951.860
       722.20000  1.95334e-11      952.642
       722.30000  1.95334e-11      953.228
       722.40000  1.95334e-11      953.814
       722.50000  2.00870e-11      981.451
       722.60000  2.00870e-11      982.254
       722.70000  2.00870e-11      982.656
       722.80000  2.00870e-11      983.258
       722.90000  2.00870e-11      983.861
       723.00000  2.00870e-11      984.263
       723.10000  2.00870e-11      984.865
       723.20000  2.00870e-11      985.267
       723.30000  2.00870e-11      985.669
       723.40000  2.00870e-11      986.071
       723.50000  1.97926e-11      972.012
       723.60000  1.97926e-11      972.210
       723.70000  1.97926e-11      972.606
       723.80000  1.97318e-11      969.819
       723.90000  1.97318e-11      970.017
       724.00000  1.97318e-11      970.214
       724.10000  1.97318e-11      970.411
       724.20000  1.97318e-11      970.609
       724.30000  1.97318e-11      970.806
       724.40000  1.97318e-11      971.003
       724.50000  2.45428e-11      1207.75
       724.60000  2.45428e-11      1207.75
       724.70000  2.45428e-11      1207.75
       724.80000  2.45428e-11      1207.75
       724.90000  2.45428e-11      1207.75
       725.00000  2.45428e-11      1207.75
       725.10000  2.45428e-11      1208.24
       725.20000  2.45428e-11      1208.73
       725.30000  2.45428e-11      1208.98
       725.40000  2.45428e-11      1209.47
       725.50000  3.35256e-11      1652.48
       725.60000  3.35256e-11      1652.81
       725.70000  3.35256e-11      1652.81
       725.80000  3.35256e-11      1653.15
       725.90000  3.35256e-11      1653.15
       726.00000  3.35256e-11      1653.15
       726.10000  3.35256e-11      1653.15
       726.20000  3.35256e-11      1653.15
       726.30000  3.34383e-11      1648.51
       726.40000  3.34383e-11      1648.18
       726.50000  3.98104e-11      1961.86
       726.60000  3.98104e-11      1961.46
       726.70000  3.98104e-11      1961.06
       726.80000  3.98104e-11      1960.26
       726.90000  3.98104e-11      1959.47
       727.00000  3.98104e-11      1958.67
       727.10000  3.98104e-11      1955.88
       727.20000  3.98104e-11      1953.10
       727.30000  3.98104e-11      1950.31
       727.40000  3.98104e-11      1947.92
       727.50000  5.40436e-11      2641.11
       727.60000  5.40436e-11      2637.87
       727.70000  5.40436e-11      2635.17
       727.80000  5.40436e-11      2632.46
       727.90000  5.40436e-11      2629.76
       728.00000  5.40436e-11      2627.60
       728.10000  5.40436e-11      2625.44
       728.20000  5.40436e-11      2623.28
       728.30000  5.40436e-11      2621.11
       728.40000  5.40436e-11      2619.49
       728.50000  6.80594e-11      3296.80
       728.60000  6.80594e-11      3295.43
       728.70000  6.80594e-11      3293.39
       728.80000  6.80737e-11      3293.41
       728.90000  6.80737e-11      3292.04
       729.00000  6.80737e-11      3291.36
       729.10000  6.80737e-11      3290.68
       729.20000  6.80737e-11      3290.00
       729.30000  6.80737e-11      3290.00
       729.40000  6.80737e-11      3289.32
       729.50000  8.87089e-11      4287.30
       729.60000  8.87089e-11      4287.30
       729.70000  8.87089e-11      4288.19
       729.80000  8.87089e-11      4289.08
       729.90000  8.87089e-11      4290.85
       730.00000  8.87089e-11      4292.63
       730.10000  8.87089e-11      4294.40
       730.20000  8.87089e-11      4296.17
       730.30000  8.87089e-11      4298.84
       730.40000  8.87089e-11      4301.50
       730.50000  1.98517e-10      9632.03
       730.60000  1.98517e-10      9639.97
       730.70000  1.98517e-10      9647.91
       730.80000  1.98517e-10      9655.85
       730.90000  1.98517e-10      9665.78
       731.00000  1.98517e-10      9675.70
       731.10000  1.98517e-10      9673.72
       731.20000  1.98517e-10      9671.73
       731.30000  1.98371e-10      9662.63
       731.40000  9.91853e-11      4831.31
       731.50000  1.98409e-10      9662.54
       731.60000  1.98409e-10      9660.55
       731.70000  2.97614e-10      14487.9
       731.80000  5.95863e-11      2900.66
       731.90000  1.98409e-10      9656.58
       732.00000  2.97614e-10      14481.9
       732.10000  9.32028e-11      4534.32
       732.20000  2.97614e-10      14476.0
       732.30000  2.97614e-10      14476.0
       732.40000  3.96819e-10      19297.3
       732.50000  2.09477e-10      10184.8
       732.60000  3.14216e-10      15274.0
       732.70000  3.14216e-10      15270.9
       732.80000  4.18954e-10      20357.0
       732.90000  3.14216e-10      15264.6
       733.00000  2.09477e-10      10174.3
       733.10000  4.18954e-10      20344.4
       733.20000  3.14216e-10      15252.0
       733.30000  3.14216e-10      15248.9
       733.40000  3.14216e-10      15242.6
       733.50000  3.06000e-10      14841.0
       733.60000  3.06000e-10      14838.0
       733.70000  5.10001e-10      24719.7
       733.80000  3.05495e-10      14804.3
       733.90000  3.05495e-10      14801.2
       734.00000  3.05495e-10      14798.2
       734.10000  4.07327e-10      19726.8
       734.20000  4.07327e-10      19722.8
       734.30000  4.07327e-10      19718.7
       734.40000  3.05495e-10      14789.0
       734.50000  5.78094e-10      27979.8
       734.60000  1.92698e-10      9324.66
       734.70000  3.85396e-10      18649.3
       734.80000  5.78094e-10      27968.2
       734.90000  2.89047e-10      13984.1
       735.00000  3.85396e-10      18641.6
       735.10000  4.81745e-10      23302.0
       735.20000  4.81745e-10      23302.0
       735.30000  5.78094e-10      27962.4
       735.40000  6.74444e-10      32616.1
       735.50000  6.93848e-10      33554.5
       735.60000  5.94727e-10      28761.0
       735.70000  5.94727e-10      28761.0
       735.80000  8.92090e-10      43150.4
       735.90000  6.93848e-10      33561.4
       736.00000  7.92969e-10      38355.9
       736.10000  8.92090e-10      43150.4
       736.20000  7.92969e-10      38363.9
       736.30000  7.91455e-10      38290.6
       736.40000  8.90387e-10      43085.8
       736.50000  1.18741e-09      57459.0
       736.60000  1.08846e-09      52681.6
       736.70000  1.18741e-09      57482.8
       736.80000  1.38532e-09      67063.2
       736.90000  1.58322e-09      76659.5
       737.00000  1.38532e-09      67090.9
       737.10000  1.58322e-09      76596.2
       737.20000  1.68217e-09      81282.5
       737.30000  1.68217e-09      81198.4
       737.40000  1.78112e-09      85885.7
       737.50000  1.81447e-09      87384.8
       737.60000  1.63302e-09      78564.7
       737.70000  1.99591e-09      95923.7
       737.80000  2.08664e-09      100180.
       737.90000  2.26809e-09      108800.
       738.00000  2.35881e-09      113034.
       738.10000  2.63098e-09      125945.
       738.20000  2.63098e-09      125813.
       738.30000  2.81243e-09      134378.
       738.40000  2.90315e-09      138596.
       738.50000  3.36567e-09      160509.
       738.60000  3.55265e-09      169284.
       738.70000  3.92661e-09      186946.
       738.80000  4.00321e-09      190433.
       738.90000  4.28251e-09      203548.
       739.00000  4.65490e-09      221061.
       739.10000  5.21349e-09      247172.
       739.20000  5.58588e-09      264436.
       739.30000  5.86518e-09      277305.
       739.40000  6.51686e-09      307726.
       739.50000  7.09325e-09      334518.
       739.60000  7.47667e-09      352226.
       739.70000  7.66838e-09      360951.
       739.80000  8.43522e-09      396624.
       739.90000  9.20206e-09      432405.
       740.00000  9.96890e-09      468040.
       740.10000  1.14067e-08      535317.
       740.20000  1.21736e-08      570940.
       740.30000  1.34197e-08      629114.
       740.40000  1.44741e-08      678400.
       740.50000  1.49946e-08      702649.
       740.60000  1.69505e-08      794129.
       740.70000  1.86269e-08      872669.
       740.80000  2.07690e-08      973026.
       740.90000  2.20729e-08  1.03433e+06
       741.00000  2.48669e-08  1.16551e+06
       741.10000  2.68227e-08  1.25772e+06
       741.20000  2.98030e-08  1.39806e+06
       741.30000  3.22026e-08  1.51127e+06
       741.40000  3.59254e-08  1.68706e+06
       741.50000  3.80380e-08  1.78740e+06
       741.60000  4.22845e-08  1.98864e+06
       741.70000  4.59889e-08  2.16516e+06
       741.80000  5.14100e-08  2.42244e+06
       741.90000  5.68310e-08  2.68129e+06
       742.00000  6.39688e-08  3.02125e+06
       742.10000  6.99320e-08  3.30708e+06
       742.20000  7.84250e-08  3.71421e+06
       742.30000  8.48400e-08  4.02396e+06
       742.40000  9.43269e-08  4.48053e+06
       742.50000  1.01389e-07  4.82408e+06
       742.60000  1.14446e-07  5.45449e+06
       742.70000  1.26013e-07  6.01712e+06
       742.80000  1.40998e-07  6.74534e+06
       742.90000  1.56158e-07  7.48622e+06
       743.00000  1.75787e-07  8.44482e+06
       743.10000  1.96205e-07  9.42178e+06
       743.20000  2.19953e-07  1.05600e+07
       743.30000  2.45980e-07  1.18070e+07
       743.40000  2.79104e-07  1.33914e+07
       743.50000  3.14218e-07  1.50730e+07
       743.60000  3.50416e-07  1.68060e+07
       743.70000  3.96519e-07  1.90131e+07
       743.80000  4.48206e-07  2.14870e+07
       743.90000  5.07167e-07  2.43085e+07
       744.00000  5.74363e-07  2.75235e+07
       744.10000  6.54525e-07  3.13648e+07
       744.20000  7.42046e-07  3.55514e+07
       744.30000  8.45950e-07  4.05295e+07
       744.40000  9.71318e-07  4.65358e+07
       744.50000  1.07357e-06  5.14242e+07
       744.60000  1.22697e-06  5.87717e+07
       744.70000  1.40133e-06  6.71235e+07
       744.80000  1.59801e-06  7.65447e+07
       744.90000  1.80938e-06  8.66874e+07
       745.00000  2.03934e-06  9.77048e+07
       745.10000  2.31591e-06  1.11025e+08
       745.20000  2.62252e-06  1.25802e+08
       745.30000  2.92472e-06  1.40357e+08
       745.40000  3.25349e-06  1.56233e+08
       745.50000  3.63833e-06  1.74786e+08
       745.60000  4.02958e-06  1.93662e+08
       745.70000  4.45157e-06  2.14031e+08
       745.80000  4.86362e-06  2.33940e+08
       745.90000  5.28340e-06  2.54184e+08
       746.00000  5.66743e-06  2.72773e+08
       746.10000  6.02650e-06  2.90116e+08
       746.20000  6.36095e-06  3.06280e+08
       746.30000  6.58524e-06  3.17145e+08
       746.40000  6.81598e-06  3.28326e+08
       746.50000  7.47192e-06  3.59997e+08
       746.60000  7.64002e-06  3.68096e+08
       746.70000  7.75431e-06  3.73680e+08
       746.80000  7.82306e-06  3.76993e+08
       746.90000  7.88560e-06  3.80007e+08
       747.00000  7.91656e-06  3.81499e+08
       747.10000  7.93195e-06  3.82003e+08
       747.20000  7.92565e-06  3.81541e+08
       747.30000  7.90000e-06  3.80148e+08
       747.40000  7.88173e-06  3.79111e+08
       747.50000  7.87139e-06  3.78456e+08
       747.60000  7.86509e-06  3.77996e+08
       747.70000  7.84169e-06  3.76715e+08
       747.80000  7.80947e-06  3.75011e+08
       747.90000  7.82198e-06  3.75455e+08
       748.00000  7.79578e-06  3.74042e+08
       748.10000  7.79173e-06  3.73769e+08
       748.20000  7.78111e-06  3.73104e+08
       748.30000  7.79948e-06  3.73829e+08
       748.40000  7.78579e-06  3.73095e+08
       748.50000  7.29863e-06  3.49604e+08
       748.60000  7.31495e-06  3.50240e+08
       748.70000  7.31216e-06  3.50033e+08
       748.80000  7.29228e-06  3.48936e+08
       748.90000  7.28554e-06  3.48540e+08
       749.00000  7.27905e-06  3.48157e+08
       749.10000  7.29717e-06  3.48878e+08
       749.20000  7.29633e-06  3.48765e+08
       749.30000  7.28849e-06  3.48317e+08
       749.40000  7.30358e-06  3.48965e+08
       749.50000  7.53759e-06  3.60071e+08
       749.60000  7.54960e-06  3.60569e+08
       749.70000  7.54960e-06  3.60418e+08
       749.80000  7.52262e-06  3.59055e+08
       749.90000  7.54081e-06  3.59923e+08
       750.00000  7.54324e-06  3.59964e+08
       750.10000  7.55055e-06  3.60237e+08
       750.20000  7.54255e-06  3.59780e+08
       750.30000  7.53907e-06  3.59538e+08
       750.40000  7.53315e-06  3.59256e+08
       750.50000  7.07752e-06  3.37456e+08
       750.60000  7.07466e-06  3.37249e+08
       750.70000  7.10183e-06  3.38544e+08
       750.80000  7.10419e-06  3.38586e+08
       750.90000  7.09661e-06  3.38224e+08
       751.00000  7.11333e-06  3.38950e+08
       751.10000  7.11872e-06  3.39207e+08
       751.20000  7.11252e-06  3.38911e+08
       751.30000  7.11093e-06  3.38765e+08
       751.40000  7.11516e-06  3.38966e+08
       751.50000  7.31337e-06  3.48409e+08
       751.60000  7.33237e-06  3.49314e+08
       751.70000  7.34166e-06  3.49757e+08
       751.80000  7.32534e-06  3.48979e+08
       751.90000  7.34099e-06  3.49725e+08
       752.00000  7.34727e-06  3.50024e+08
       752.10000  7.35321e-06  3.50307e+08
       752.20000  7.37112e-06  3.51160e+08
       752.30000  7.38233e-06  3.51694e+08
       752.40000  7.38216e-06  3.51686e+08
       752.50000  7.57608e-06  3.61000e+08
       752.60000  7.59052e-06  3.61688e+08
       752.70000  7.58528e-06  3.61439e+08
       752.80000  7.57385e-06  3.60970e+08
       752.90000  7.59113e-06  3.61793e+08
       753.00000  7.59285e-06  3.61951e+08
       753.10000  7.57583e-06  3.61140e+08
       753.20000  7.57110e-06  3.60914e+08
       753.30000  7.55331e-06  3.60066e+08
       753.40000  7.53148e-06  3.59026e+08
       753.50000  7.71646e-06  3.67844e+08
       753.60000  7.69336e-06  3.66742e+08
       753.70000  7.64830e-06  3.64594e+08
       753.80000  7.59826e-06  3.62209e+08
       753.90000  7.51990e-06  3.58474e+08
       754.00000  7.45257e-06  3.55264e+08
       754.10000  7.38294e-06  3.51945e+08
       754.20000  7.29180e-06  3.47527e+08
       754.30000  7.15616e-06  3.41062e+08
       754.40000  7.04828e-06  3.35921e+08
       754.50000  6.42634e-06  3.06279e+08
       754.60000  6.26210e-06  2.98452e+08
       754.70000  6.07083e-06  2.89275e+08
       754.80000  5.86277e-06  2.79361e+08
       754.90000  5.62472e-06  2.67962e+08
       755.00000  5.35973e-06  2.55338e+08
       755.10000  5.07984e-06  2.41953e+08
       755.20000  4.81873e-06  2.29516e+08
       755.30000  4.48925e-06  2.13778e+08
       755.40000  4.16759e-06  1.98461e+08
       755.50000  3.70939e-06  1.76604e+08
       755.60000  3.41478e-06  1.62544e+08
       755.70000  3.14547e-06  1.49724e+08
       755.80000  2.86133e-06  1.36171e+08
       755.90000  2.57544e-06  1.22539e+08
       756.00000  2.31057e-06  1.09937e+08
       756.10000  2.07869e-06  9.88831e+07
       756.20000  1.85632e-06  8.82866e+07
       756.30000  1.64085e-06  7.80226e+07
       756.40000  1.44885e-06  6.88928e+07
       756.50000  1.39933e-06  6.65243e+07
       756.60000  1.23082e-06  5.85008e+07
       756.70000  1.07885e-06  5.12669e+07
       756.80000  9.54261e-07  4.53465e+07
       756.90000  8.35650e-07  3.97017e+07
       757.00000  7.41471e-07  3.52199e+07
       757.10000  6.57170e-07  3.12090e+07
       757.20000  5.81879e-07  2.76276e+07
       757.30000  5.09361e-07  2.41844e+07
       757.40000  4.50705e-07  2.13950e+07
       757.50000  3.98285e-07  1.89026e+07
       757.60000  3.51828e-07  1.66943e+07
       757.70000  3.11233e-07  1.47649e+07
       757.80000  2.76498e-07  1.31143e+07
       757.90000  2.45470e-07  1.16402e+07
       758.00000  2.18234e-07  1.03486e+07
       758.10000  1.92807e-07  9.14100e+06
       758.20000  1.72208e-07  8.16266e+06
       758.30000  1.55487e-07  7.36853e+06
       758.40000  1.39628e-07  6.61558e+06
       758.50000  1.06790e-07  5.05864e+06
       758.60000  9.59510e-08  4.54424e+06
       758.70000  8.64941e-08  4.09550e+06
       758.80000  7.82078e-08  3.70236e+06
       758.90000  7.11706e-08  3.36850e+06
       759.00000  6.33353e-08  2.99702e+06
       759.10000  5.78215e-08  2.73612e+06
       759.20000  5.24529e-08  2.48155e+06
       759.30000  4.80274e-08  2.27218e+06
       759.40000  4.33843e-08  2.05208e+06
       759.50000  4.57746e-08  2.16514e+06
       759.60000  4.10735e-08  1.94277e+06
       759.70000  3.81868e-08  1.80585e+06
       759.80000  3.60424e-08  1.70444e+06
       759.90000  3.24134e-08  1.53283e+06
       760.00000  3.01865e-08  1.42752e+06
       760.10000  2.78772e-08  1.31831e+06
       760.20000  2.53204e-08  1.19740e+06
       760.30000  2.32585e-08  1.10013e+06
       760.40000  2.14440e-08  1.01430e+06
       760.50000  1.88439e-08      891316.
       760.60000  1.76133e-08      833284.
       760.70000  1.63057e-08      771424.
       760.80000  1.50751e-08      713354.
       760.90000  1.42291e-08      673319.
       761.00000  1.32292e-08      626137.
       761.10000  1.19986e-08      568372.
       761.20000  1.18447e-08      561440.
       761.30000  1.05153e-08      498740.
       761.40000  9.90126e-09      469914.
       761.50000  8.62158e-09      409439.
       761.60000  7.98031e-09      379144.
       761.70000  7.62404e-09      362371.
       761.80000  7.26778e-09      345583.
       761.90000  6.91151e-09      328781.
       762.00000  5.84272e-09      277997.
       762.10000  5.62897e-09      267939.
       762.20000  5.48646e-09      261210.
       762.30000  5.05894e-09      240907.
       762.40000  4.63143e-09      220549.
       762.50000  5.18376e-09      246851.
       762.60000  4.37380e-09      208324.
       762.70000  4.37380e-09      208324.
       762.80000  4.04981e-09      192852.
       762.90000  3.64483e-09      173567.
       763.00000  3.48284e-09      165818.
       763.10000  3.32085e-09      158072.
       763.20000  2.91587e-09      138766.
       763.30000  3.07786e-09      146414.
       763.40000  2.51088e-09      119393.
       763.50000  2.41937e-09      114992.
       763.60000  2.26328e-09      107528.
       763.70000  2.02915e-09      96364.1
       763.80000  1.94611e-09      92362.3
       763.90000  1.86826e-09      88611.7
       764.00000  1.63473e-09      77486.2
       764.10000  1.63473e-09      77437.2
       764.20000  1.24551e-09      58949.9
       764.30000  1.24551e-09      58900.1
       764.40000  1.47904e-09      69884.7
       764.50000  1.15880e-09      54707.1
       764.60000  1.15880e-09      54660.7
       764.70000  1.01395e-09      47777.4
       764.80000  8.69102e-10      40908.6
       764.90000  1.01395e-09      47676.1
       765.00000  7.96677e-10      37411.9
       765.10000  7.96677e-10      37324.3
       765.20000  8.69102e-10      40621.8
       765.30000  5.79401e-10      27023.3
       765.40000  7.24252e-10      33706.7
       765.50000  7.45180e-10      34613.6
       765.60000  5.96144e-10      27643.2
       765.70000  7.45180e-10      34486.9
       765.80000  5.96144e-10      27547.8
       765.90000  4.47108e-10      20629.6
       766.00000  5.96144e-10      27464.3
       766.10000  4.47108e-10      20571.4
       766.20000  4.47108e-10      20544.6
       766.30000  5.21612e-10      23942.0
       766.40000  3.72580e-10      17086.5
       766.50000  4.74285e-10      21731.7
       766.60000  3.95237e-10      18094.0
       766.70000  3.95237e-10      18086.0
       766.80000  4.74285e-10      21689.0
       766.90000  3.95237e-10      18066.3
       767.00000  3.16190e-10      14449.9
       767.10000  3.16190e-10      14465.7
       767.20000  3.16190e-10      14484.6
       767.30000  3.16190e-10      14500.5
       767.40000  4.74285e-10      21774.4
       767.50000  2.21095e-10      10161.5
       767.60000  1.47397e-10      6781.73
       767.70000  2.21095e-10      10183.6
       767.80000  2.21095e-10      10192.5
       767.90000  1.47397e-10      6802.36
       768.00000  2.21095e-10      10212.4
       768.10000  3.49456e-11      1615.53
       768.20000  1.47397e-10      6820.05
       768.30000  1.47397e-10      6824.47
       768.40000  1.47397e-10      6830.37
       768.50000  1.41694e-10      6570.35
       768.60000  7.08470e-11      3287.30
       768.70000  7.08470e-11      3289.43
       768.80000  1.41619e-10      6579.61
       768.90000  2.39385e-11      1112.90
       769.00000  4.49144e-11      2088.97
       769.10000  4.35867e-11      2028.53
       769.20000  7.08094e-11      3296.88
       769.30000  4.05865e-11      1890.52
       769.40000  1.41619e-10      6599.43
       769.50000  3.28158e-11      1529.54
       769.60000  2.00676e-11      935.753
       769.70000  2.54669e-11      1187.78
       769.80000  7.52724e-11      3512.21
       769.90000  7.52724e-11      3512.96
       770.00000  3.07556e-11      1435.36
       770.10000  4.45078e-11      2077.62
       770.20000  2.30868e-11      1077.92
       770.30000  4.15120e-11      1938.19
       770.40000  7.52724e-11      3514.47
       770.50000  1.79404e-11      837.635
       770.60000  1.58581e-12      74.0416
       770.70000  1.35210e-10      6312.96
       770.80000  2.13125e-11      995.081
       770.90000  4.74743e-11      2216.10
       771.00000  6.76051e-11      3155.13
       771.10000  6.76051e-11      3157.83
       771.20000  6.76051e-11      3159.86
       771.30000  6.73982e-11      3152.21
       771.40000  6.73982e-11      3154.24
       771.50000  6.94136e-11      3250.64
       771.60000  6.94136e-11      3252.03
       771.70000  6.94136e-11      3254.11
       771.80000  6.94136e-11      3255.50
       771.90000  6.94136e-11      3256.19
       772.00000  6.94136e-11      3257.58
       772.10000  6.94136e-11      3258.28
       772.20000  6.94136e-11      3258.97
       772.30000  6.94136e-11      3259.66
       772.40000  6.94136e-11      3260.36
       772.50000  6.26389e-11      2942.15
       772.60000  6.26389e-11      2942.15
       772.70000  6.26389e-11      2942.15
       772.80000  6.26389e-11      2941.52
       772.90000  6.26389e-11      2941.52
       773.00000  6.26389e-11      2940.90
       773.10000  6.26389e-11      2937.14
       773.20000  6.26389e-11      2934.01
       773.30000  6.26389e-11      2930.25
       773.40000  6.26389e-11      2927.12
       773.50000  5.27567e-11      2462.68
       773.60000  5.27567e-11      2460.57
       773.70000  5.27567e-11      2458.46
       773.80000  5.25479e-11      2446.63
       773.90000  5.25479e-11      2444.53
       774.00000  5.25479e-11      2442.43
       774.10000  5.25479e-11      2440.85
       774.20000  5.25479e-11      2439.28
       774.30000  5.25479e-11      2438.22
       774.40000  5.25479e-11      2436.65
       774.50000  4.48164e-11      2077.24
       774.60000  4.48164e-11      2076.79
       774.70000  4.48164e-11      2075.89
       774.80000  4.48164e-11      2075.45
       774.90000  4.48164e-11      2075.00
       775.00000  4.48164e-11      2074.55
       775.10000  4.48164e-11      2074.55
       775.20000  4.48164e-11      2074.55
       775.30000  4.48164e-11      2074.55
       775.40000  4.48164e-11      2074.55
       775.50000  3.88469e-11      1798.61
       775.60000  3.88469e-11      1799.00
       775.70000  3.88469e-11      1799.39
       775.80000  3.88469e-11      1799.78
       775.90000  3.88469e-11      1800.55
       776.00000  3.88469e-11      1801.33
       776.10000  3.88469e-11      1802.11
       776.20000  3.88469e-11      1803.27
       776.30000  3.87484e-11      1799.86
       776.40000  3.87484e-11      1801.03
       776.50000  3.32889e-11      1548.27
       776.60000  3.32889e-11      1549.60
       776.70000  3.32889e-11      1550.93
       776.80000  3.32889e-11      1552.26
       776.90000  3.32889e-11      1553.93
       777.00000  3.32889e-11      1555.26
       777.10000  3.32889e-11      1554.59
       777.20000  3.32889e-11      1554.26
       777.30000  3.32889e-11      1553.59
       777.40000  3.32889e-11      1552.93
       777.50000  2.73871e-11      1277.06
       777.60000  2.73871e-11      1276.79
       777.70000  2.73871e-11      1276.24
       777.80000  2.73871e-11      1275.97
       777.90000  2.73871e-11      1275.69
       778.00000  2.73871e-11      1275.14
       778.10000  2.73871e-11      1274.87
       778.20000  2.73871e-11      1274.60
       778.30000  2.73871e-11      1274.32
       778.40000  2.73871e-11      1274.05
       778.50000  2.57823e-11      1199.39
       778.60000  2.57823e-11      1199.14
       778.70000  2.57823e-11      1198.88
       778.80000  2.57170e-11      1195.84
       778.90000  2.57170e-11      1195.84
       779.00000  2.57170e-11      1195.58
       779.10000  2.57170e-11      1196.10
       779.20000  2.57170e-11      1196.35
       779.30000  2.57170e-11      1196.87
       779.40000  2.57170e-11      1197.13
       779.50000  2.32587e-11      1082.92
       779.60000  2.32587e-11      1083.16
       779.70000  2.32587e-11      1083.39
       779.80000  2.32587e-11      1083.62
       779.90000  2.32587e-11      1083.85
       780.00000  2.32587e-11      1084.09
       780.10000  2.32587e-11      1084.09
       780.20000  2.32587e-11      1084.32
       780.30000  2.32587e-11      1084.32
       780.40000  2.32587e-11      1084.32
       780.50000  1.78971e-11      834.361
       780.60000  1.78971e-11      834.361
       780.70000  1.78971e-11      834.361
       780.80000  1.78971e-11      834.361
       780.90000  1.78971e-11      834.361
       781.00000  1.78971e-11      834.182
       781.10000  1.78971e-11      834.182
       781.20000  1.78971e-11      834.003
       781.30000  1.77976e-11      829.189
       781.40000  1.77976e-11      829.011
       781.50000  2.18921e-11      1019.51
       781.60000  2.18921e-11      1019.30
       781.70000  2.18921e-11      1019.08
       781.80000  2.18921e-11      1018.86
       781.90000  2.18921e-11      1018.42
       782.00000  2.18921e-11      1018.20
       782.10000  2.18921e-11      1017.76
       782.20000  2.18921e-11      1017.33
       782.30000  2.18921e-11      1017.11
       782.40000  2.18921e-11      1016.67
       782.50000  1.83297e-11      850.863
       782.60000  1.83297e-11      850.313
       782.70000  1.83297e-11      849.946
       782.80000  1.83297e-11      849.580
       782.90000  1.83297e-11      849.030
       783.00000  1.83297e-11      848.663
       783.10000  1.83297e-11      849.030
       783.20000  1.83297e-11      849.396
       783.30000  1.83297e-11      849.763
       783.40000  1.83297e-11      849.946
       783.50000  2.05918e-11      955.256
       783.60000  2.05918e-11      955.668
       783.70000  2.05918e-11      955.874
       783.80000  2.04869e-11      951.411
       783.90000  2.04869e-11      951.820
       784.00000  2.04869e-11      952.025
       784.10000  2.04869e-11      952.230
       784.20000  2.04869e-11      952.640
       784.30000  2.04869e-11      952.845
       784.40000  2.04869e-11      953.050
       784.50000  1.76675e-11      822.067
       784.60000  1.76675e-11      822.244
       784.70000  1.76675e-11      822.420
       784.80000  1.76675e-11      822.597
       784.90000  1.76675e-11      822.774
       785.00000  1.76675e-11      822.774
       785.10000  1.76675e-11      822.774
       785.20000  1.76675e-11      822.774
       785.30000  1.76675e-11      822.774
       785.40000  1.76675e-11      822.774
       785.50000  2.05180e-11      955.525
       785.60000  2.05180e-11      955.525
       785.70000  2.05180e-11      955.525
       785.80000  2.05180e-11      955.525
       785.90000  2.05180e-11      955.525
       786.00000  2.05180e-11      955.525
       786.10000  2.05180e-11      955.525
       786.20000  2.05180e-11      955.525
       786.30000  2.04836e-11      953.923
       786.40000  2.04836e-11      953.923
       786.50000  1.88648e-11      878.533
       786.60000  1.88648e-11      878.533
       786.70000  1.88648e-11      878.533
       786.80000  1.88648e-11      878.533
       786.90000  1.88648e-11      878.533
       787.00000  1.88648e-11      878.533
       787.10000  1.88648e-11      878.533
       787.20000  1.88648e-11      878.533
       787.30000  1.88648e-11      878.533
       787.40000  1.88648e-11      878.533
       787.50000  2.61048e-11      1215.70
       787.60000  2.61048e-11      1215.70
       787.70000  2.61048e-11      1215.70
       787.80000  2.61048e-11      1215.70
       787.90000  2.61048e-11      1215.70
       788.00000  2.61048e-11      1215.70
       788.10000  2.61048e-11      1215.70
       788.20000  2.61048e-11      1215.70
       788.30000  2.61048e-11      1215.70
       788.40000  2.61048e-11      1215.70
       788.50000  2.43019e-11      1131.74
       788.60000  2.43019e-11      1131.74
       788.70000  2.43019e-11      1131.74
       788.80000  2.43062e-11      1131.94
       788.90000  2.43062e-11      1131.94
       789.00000  2.43062e-11      1131.94
       789.10000  2.43062e-11      1131.45
       789.20000  2.43062e-11      1130.72
       789.30000  2.43062e-11      1129.99
       789.40000  2.43062e-11      1129.51
       789.50000  3.03251e-11      1408.30
       789.60000  3.03251e-11      1407.39
       789.70000  3.03251e-11      1406.78
       789.80000  3.03251e-11      1405.87
       789.90000  3.03251e-11      1404.96
       790.00000  3.03251e-11      1404.36
       790.10000  3.03251e-11      1403.45
       790.20000  3.03251e-11      1402.84
       790.30000  3.03251e-11      1401.93
       790.40000  3.03251e-11      1401.32
       790.50000  2.53806e-11      1172.08
       790.60000  2.53806e-11      1171.32
       790.70000  2.53806e-11      1170.81
       790.80000  2.53806e-11      1170.05
       790.90000  2.53806e-11      1169.54
       791.00000  2.53806e-11      1168.78
       791.10000  2.53806e-11      1168.02
       791.20000  2.53806e-11      1167.51
       791.30000  2.53067e-11      1163.35
       791.40000  2.53067e-11      1162.59
       791.50000  2.29337e-11      1052.88
       791.60000  2.29337e-11      1052.20
       791.70000  2.29337e-11      1051.74
       791.80000  2.29337e-11      1051.05
       791.90000  2.29337e-11      1050.59
       792.00000  2.29337e-11      1049.90
       792.10000  2.29337e-11      1049.44
       792.20000  2.29337e-11      1048.99
       792.30000  2.29337e-11      1048.30
       792.40000  2.29337e-11      1047.84
       792.50000  2.05074e-11      936.572
       792.60000  2.05074e-11      936.161
       792.70000  2.05074e-11      935.751
       792.80000  2.05074e-11      935.341
       792.90000  2.05074e-11      934.931
       793.00000  2.05074e-11      934.521
       793.10000  2.05074e-11      933.906
       793.20000  2.05074e-11      933.085
       793.30000  2.05074e-11      932.470
       793.40000  2.05074e-11      931.855
       793.50000  1.71715e-11      779.756
       793.60000  1.71715e-11      779.412
       793.70000  1.71715e-11      778.897
       793.80000  1.71225e-11      776.503
       793.90000  1.71225e-11      776.161
       794.00000  1.71225e-11      775.990
       794.10000  1.71225e-11      775.647
       794.20000  1.71225e-11      775.647
       794.30000  1.71225e-11      775.476
       794.40000  1.71225e-11      775.476
       794.50000  2.14301e-11      970.568
       794.60000  2.14301e-11      970.568
       794.70000  2.14301e-11      970.782
       794.80000  2.14301e-11      970.782
       794.90000  2.14301e-11      970.997
       795.00000  2.14301e-11      971.425
       795.10000  2.14301e-11      972.925
       795.20000  2.14301e-11      974.425
       795.30000  2.14301e-11      975.926
       795.40000  2.14301e-11      977.426
       795.50000  1.20165e-11      548.792
       795.60000  1.20165e-11      549.513
       795.70000  1.20165e-11      550.114
       795.80000  1.20165e-11      550.714
       795.90000  1.20165e-11      551.315
       796.00000  1.20165e-11      551.796
       796.10000  1.20165e-11      552.277
       796.20000  1.20165e-11      552.757
       796.30000  1.20005e-11      552.382
       796.40000  1.20005e-11      552.742
       796.50000  7.09349e-12      326.939
       796.60000  7.09349e-12      327.081
       796.70000  7.09349e-12      327.223
       796.80000  7.09349e-12      327.294
       796.90000  7.09349e-12      327.365
       797.00000  7.09349e-12      327.435
       797.10000  7.09349e-12      327.506
       797.20000  7.09349e-12      327.506
       797.30000  7.09349e-12      327.506
       797.40000  7.09349e-12      327.435
       797.50000  7.15878e-12      330.378
       797.60000  7.15878e-12      330.306
       797.70000  7.15878e-12      330.163
       797.80000  7.15878e-12      330.020
       797.90000  7.15878e-12      329.877
       798.00000  7.15878e-12      329.662
       798.10000  7.15878e-12      329.447
       798.20000  7.15878e-12      329.232
       798.30000  7.15878e-12      328.946
       798.40000  7.15878e-12      328.660
       798.50000  3.88115e-12      178.028
       798.60000  3.88115e-12      177.834
       798.70000  3.88115e-12      177.640
       798.80000  3.87227e-12      177.040
       798.90000  3.87227e-12      176.808
       799.00000  3.87227e-12      176.576
       799.10000  3.87227e-12      176.692
       799.20000  3.87227e-12      176.847
       799.30000  3.87227e-12      177.002
       799.40000  3.87227e-12      177.118
       799.50000  2.51721e-12      115.213
       799.60000  2.51721e-12      115.288
       799.70000  2.51721e-12      115.364
       799.80000  2.51721e-12      115.414
       799.90000  2.51721e-12      115.464
       800.00000  2.51721e-12      115.515
       800.10000  2.51721e-12      115.565
       800.20000  2.51721e-12      115.615
       800.30000  2.51721e-12      115.666
       800.40000  2.51721e-12      115.691
       800.50000  4.62679e-12      212.694
       800.60000  4.62679e-12      212.740
       800.70000  4.62679e-12      212.740
       800.80000  4.62679e-12      212.786
       800.90000  4.62679e-12      212.786
       801.00000  4.62679e-12      212.786
       801.10000  4.62679e-12      212.694
       801.20000  4.62679e-12      212.601
       801.30000  4.61321e-12      211.885
       801.40000  4.61321e-12      211.792
       801.50000  1.61870e-12      74.2822
       801.60000  1.61870e-12      74.2499
       801.70000  1.61870e-12      74.2175
       801.80000  1.61870e-12      74.1851
       801.90000  1.61870e-12      74.1527
       802.00000  1.61870e-12      74.1204
       802.10000  1.61870e-12      74.0880
       802.20000  1.61870e-12      74.0556
       802.30000  1.61870e-12      74.0232
       802.40000  1.61870e-12      73.9909
       802.50000  5.81117e-12      265.513
       802.60000  5.81117e-12      265.396
       802.70000  5.81117e-12      265.280
       802.80000  5.81117e-12      265.106
       802.90000  5.81117e-12      264.990
       803.00000  5.81117e-12      264.873
       803.10000  5.81117e-12      264.757
       803.20000  5.81117e-12      264.641
       803.30000  5.81117e-12      264.525
       803.40000  5.81117e-12      264.350
       803.50000  2.55435e-12      116.146
       803.60000  2.55435e-12      116.095
       803.70000  2.55435e-12      116.044
       803.80000  2.54641e-12      115.632
       803.90000  2.54641e-12      115.556
       804.00000  2.54641e-12      115.505
       804.10000  2.54641e-12      115.454
       804.20000  2.54641e-12      115.403
       804.30000  2.54641e-12      115.327
       804.40000  2.54641e-12      115.276
       804.50000  4.01680e-12      181.760
       804.60000  4.01680e-12      181.640
       804.70000  4.01680e-12      181.559
       804.80000  4.01680e-12      181.479
       804.90000  4.01680e-12      181.359
       805.00000  4.01680e-12      181.278
       805.10000  4.01680e-12      181.439
       805.20000  4.01680e-12      181.640
       805.30000  4.01680e-12      181.760
       805.40000  4.01680e-12      181.921
       805.50000  3.95792e-12      179.373
       805.60000  3.95792e-12      179.492
       805.70000  3.95792e-12      179.610
       805.80000  3.95792e-12      179.689
       805.90000  3.95792e-12      179.769
       806.00000  3.95792e-12      179.848
       806.10000  3.95792e-12      179.887
       806.20000  3.95792e-12      179.927
       806.30000  3.95018e-12      179.615
       806.40000  3.95018e-12      179.654
       806.50000  1.97326e-13      8.97441
       806.60000  1.97326e-13      8.97441
       806.70000  1.97326e-13      8.97243
       806.80000  1.97326e-13      8.97243
       806.90000  1.97326e-13      8.97046
       807.00000  1.97326e-13      8.96651
       807.10000  1.97326e-13      8.95073
       807.20000  1.97326e-13      8.93297
       807.30000  1.97326e-13      8.91718
       807.40000  1.97326e-13      8.90337
       807.50000  1.79837e-12      81.0164
       807.60000  1.79837e-12      80.8905
       807.70000  1.79837e-12      80.7826
       807.80000  1.79837e-12      80.6927
       807.90000  1.79837e-12      80.6028
       808.00000  1.79837e-12      80.5129
       808.10000  1.79837e-12      80.4410
       808.20000  1.79837e-12      80.3690
       808.30000  1.79837e-12      80.2971
       808.40000  1.79837e-12      80.2431
       808.50000  4.63455e-12      206.701
       808.60000  4.63455e-12      206.608
       808.70000  4.63455e-12      206.516
       808.80000  4.63017e-12      206.274
       808.90000  4.63017e-12      206.228
       809.00000  4.63017e-12      206.228
       809.10000  4.63017e-12      206.228
       809.20000  4.63017e-12      206.274
       809.30000  4.63017e-12      206.320
       809.40000  4.63017e-12      206.367
       809.50000  5.64129e-13      25.1545
       809.60000  5.64129e-13      25.1714
       809.70000  5.64129e-13      25.1883
       809.80000  5.64129e-13      25.2053
       809.90000  5.64129e-13      25.2278
       810.00000  5.64129e-13      25.2504
       810.10000  5.64129e-13      25.2786
       810.20000  5.64129e-13      25.3068
       810.30000  5.64129e-13      25.3350
       810.40000  5.64129e-13      25.3689
       810.50000  1.04710e-12      47.1612
       810.60000  1.04710e-12      47.2240
       810.70000  1.04710e-12      47.3078
       810.80000  1.04710e-12      47.3916
       810.90000  1.04710e-12      47.4753
       811.00000  1.04710e-12      47.5696
       811.10000  1.04710e-12      47.5801
       811.20000  1.04710e-12      47.6010
       811.30000  1.04641e-12      47.5801
       811.40000  1.04641e-12      47.6010
       811.50000  3.47669e-12      158.189
       811.60000  3.47669e-12      158.224
       811.70000  3.47669e-12      158.259
       811.80000  3.47669e-12      158.294
       811.90000  3.47669e-12      158.329
       812.00000  3.47669e-12      158.363
       812.10000  3.47669e-12      158.363
       812.20000  3.47669e-12      158.398
       812.30000  3.47669e-12      158.433
       812.40000  3.47669e-12      158.433
       812.50000  5.58699e-12      254.599
       812.60000  5.58699e-12      254.655
       812.70000  5.58699e-12      254.655
       812.80000  5.58699e-12      254.655
       812.90000  5.58699e-12      254.655
       813.00000  5.58699e-12      254.655
       813.10000  5.58699e-12      254.543
       813.20000  5.58699e-12      254.487
       813.30000  5.58699e-12      254.376
       813.40000  5.58699e-12      254.320
       813.50000  2.36615e-12      107.660
       813.60000  2.36615e-12      107.636
       813.70000  2.36615e-12      107.613
       813.80000  2.36589e-12      107.577
       813.90000  2.36589e-12      107.553
       814.00000  2.36589e-12      107.506
       814.10000  2.36589e-12      107.482
       814.20000  2.36589e-12      107.459
       814.30000  2.36589e-12      107.435
       814.40000  2.36589e-12      107.435
       814.50000  2.34314e-12      106.378
       814.60000  2.34314e-12      106.355
       814.70000  2.34314e-12      106.332
       814.80000  2.34314e-12      106.308
       814.90000  2.34314e-12      106.308
       815.00000  2.34314e-12      106.285
       815.10000  2.34314e-12      106.378
       815.20000  2.34314e-12      106.449
       815.30000  2.34314e-12      106.519
       815.40000  2.34314e-12      106.566
       815.50000  4.62471e-12      210.471
       815.60000  4.62471e-12      210.517
       815.70000  4.62471e-12      210.609
       815.80000  4.62471e-12      210.609
       815.90000  4.62471e-12      210.656
       816.00000  4.62471e-12      210.656
       816.10000  4.62471e-12      210.656
       816.20000  4.62471e-12      210.609
       816.30000  4.62458e-12      210.557
       816.40000  4.62458e-12      210.511
       816.50000  3.37776e-12      153.688
       816.60000  3.37776e-12      153.621
       816.70000  3.37776e-12      153.519
       816.80000  3.37776e-12      153.418
       816.90000  3.37776e-12      153.317
       817.00000  3.37776e-12      153.182
       817.10000  3.37776e-12      152.709
       817.20000  3.37776e-12      152.270
       817.30000  3.37776e-12      151.864
       817.40000  3.37776e-12      151.459
       817.50000  2.13935e-12      95.6931
       817.60000  2.13935e-12      95.4791
       817.70000  2.13935e-12      95.2652
       817.80000  2.13935e-12      95.0513
       817.90000  2.13935e-12      94.8801
       818.00000  2.13935e-12      94.6876
       818.10000  2.13935e-12      94.5378
       818.20000  2.13935e-12      94.3881
       818.30000  2.13935e-12      94.2383
       818.40000  2.13935e-12      94.1313
       818.50000  1.42523e-12      62.6244
       818.60000  1.42523e-12      62.5674
       818.70000  1.42523e-12      62.5104
       818.80000  1.42501e-12      62.4439
       818.90000  1.42501e-12      62.4154
       819.00000  1.42501e-12      62.3727
       819.10000  1.42501e-12      62.3584
       819.20000  1.42501e-12      62.3442
       819.30000  1.42501e-12      62.3299
       819.40000  1.42501e-12      62.3299
       819.50000  5.62608e-12      246.141
       819.60000  5.62608e-12      246.197
       819.70000  5.62608e-12      246.310
       819.80000  5.62608e-12      246.479
       819.90000  5.62608e-12      246.648
       820.00000  5.62608e-12      246.873
       820.10000  5.62608e-12      247.098
       820.20000  5.62608e-12      247.379
       820.30000  5.62608e-12      247.716
       820.40000  5.62608e-12      248.054
       820.50000  7.14739e-12      315.629
       820.60000  7.14739e-12      316.129
       820.70000  7.14739e-12      316.701
       820.80000  7.14739e-12      317.273
       820.90000  7.14739e-12      317.916
       821.00000  7.14739e-12      318.631
       821.10000  7.14739e-12      318.488
       821.20000  7.14739e-12      318.416
       821.30000  7.16788e-12      319.186
       821.40000  7.16788e-12      319.114
       821.50000  3.53551e-12      157.330
       821.60000  3.53551e-12      157.295
       821.70000  3.53551e-12      157.260
       821.80000  3.53551e-12      157.189
       821.90000  3.53551e-12      157.154
       822.00000  3.53551e-12      157.118
       822.10000  3.53551e-12      157.118
       822.20000  3.53551e-12      157.083
       822.30000  3.53551e-12      157.047
       822.40000  3.53551e-12      157.047
       822.50000  4.43971e-12      197.167
       822.60000  4.43971e-12      197.167
       822.70000  4.43971e-12      197.123
       822.80000  4.43971e-12      197.123
       822.90000  4.43971e-12      197.123
       823.00000  4.43971e-12      197.123
       823.10000  4.43971e-12      197.123
       823.20000  4.43971e-12      197.123
       823.30000  4.43971e-12      197.123
       823.40000  4.43971e-12      197.123
       823.50000  1.31351e-12      58.3331
       823.60000  1.31351e-12      58.3331
       823.70000  1.31351e-12      58.3463
       823.80000  1.31710e-12      58.5054
       823.90000  1.31710e-12      58.5186
       824.00000  1.31710e-12      58.5318
       824.10000  1.31710e-12      58.5450
       824.20000  1.31710e-12      58.5581
       824.30000  1.31710e-12      58.5713
       824.40000  1.31710e-12      58.5976
       824.50000  9.03456e-14      4.02038
       824.60000  9.03456e-14      4.02219
       824.70000  9.03456e-14      4.02309
       824.80000  9.03456e-14      4.02490
       824.90000  9.03456e-14      4.02670
       825.00000  9.03456e-14      4.02851
       825.10000  9.03456e-14      4.03032
       825.20000  9.03456e-14      4.03212
       825.30000  9.03456e-14      4.03483
       825.40000  9.03456e-14      4.03664
       825.50000  1.06158e-12      47.4633
       825.60000  1.06158e-12      47.4845
       825.70000  1.06158e-12      47.5164
       825.80000  1.06158e-12      47.5482
       825.90000  1.06158e-12      47.5800
       826.00000  1.06158e-12      47.6119
       826.10000  1.06158e-12      47.6437
       826.20000  1.06158e-12      47.6650
       826.30000  1.06229e-12      47.7285
       826.40000  1.06229e-12      47.7498
       826.50000  3.18956e-12      143.403
       826.60000  3.18956e-12      143.466
       826.70000  3.18956e-12      143.530
       826.80000  3.18956e-12      143.562
       826.90000  3.18956e-12      143.594
       827.00000  3.18956e-12      143.626
       827.10000  3.18956e-12      143.626
       827.20000  3.18956e-12      143.658
       827.30000  3.18956e-12      143.658
       827.40000  3.18956e-12      143.658
       827.50000  9.35195e-13      42.1212
       827.60000  9.35195e-13      42.1212
       827.70000  9.35195e-13      42.1118
       827.80000  9.35195e-13      42.1025
       827.90000  9.35195e-13      42.0931
       828.00000  9.35195e-13      42.0838
       828.10000  9.35195e-13      42.0557
       828.20000  9.35195e-13      42.0183
       828.30000  9.35195e-13      41.9809
       828.40000  9.35195e-13      41.9435
       828.50000  2.76926e-12      124.118
       828.60000  2.76926e-12      124.007
       828.70000  2.76926e-12      123.924
       828.80000  2.76701e-12      123.741
       828.90000  2.76701e-12      123.630
       829.00000  2.76701e-12      123.547
       829.10000  2.76701e-12      123.464
       829.20000  2.76701e-12      123.381
       829.30000  2.76701e-12      123.298
       829.40000  2.76701e-12      123.215
       829.50000  3.08294e-12      137.191
       829.60000  3.08294e-12      137.098
       829.70000  3.08294e-12      137.006
       829.80000  3.08294e-12      136.913
       829.90000  3.08294e-12      136.852
       830.00000  3.08294e-12      136.759
       830.10000  3.08294e-12      136.698
       830.20000  3.08294e-12      136.605
       830.30000  3.08294e-12      136.543
       830.40000  3.08294e-12      136.451
       830.50000  2.61978e-12      115.899
       830.60000  2.61978e-12      115.846
       830.70000  2.61978e-12      115.768
       830.80000  2.61978e-12      115.716
       830.90000  2.61978e-12      115.663
       831.00000  2.61978e-12      115.611
       831.10000  2.61978e-12      115.558
       831.20000  2.61978e-12      115.506
       831.30000  2.62688e-12      115.793
       831.40000  2.62688e-12      115.740
       831.50000  9.06460e-13      39.9205
       831.60000  9.06460e-13      39.9114
       831.70000  9.06460e-13      39.8933
       831.80000  9.06460e-13      39.8752
       831.90000  9.06460e-13      39.8661
       832.00000  9.06460e-13      39.8570
       832.10000  9.06460e-13      39.8208
       832.20000  9.06460e-13      39.7845
       832.30000  9.06460e-13      39.7573
       832.40000  9.06460e-13      39.7301
       832.50000  5.51511e-13      24.1562
       832.60000  5.51511e-13      24.1452
       832.70000  5.51511e-13      24.1341
       832.80000  5.51511e-13      24.1176
       832.90000  5.51511e-13      24.1121
       833.00000  5.51511e-13      24.1010
       833.10000  5.51511e-13      24.0900
       833.20000  5.51511e-13      24.0845
       833.30000  5.51511e-13      24.0790
       833.40000  5.51511e-13      24.0735
       833.50000  6.43607e-13      28.0935
       833.60000  6.43607e-13      28.0870
       833.70000  6.43607e-13      28.0870
       833.80000  6.44279e-13      28.1163
       833.90000  6.44279e-13      28.1228
       834.00000  6.44279e-13      28.1228
       834.10000  6.44279e-13      28.1550
       834.20000  6.44279e-13      28.1808
       834.30000  6.44279e-13      28.2130
       834.40000  6.44279e-13      28.2387
       834.50000  4.15179e-12      182.139
       834.60000  4.15179e-12      182.305
       834.70000  4.15179e-12      182.430
       834.80000  4.15179e-12      182.554
       834.90000  4.15179e-12      182.720
       835.00000  4.15179e-12      182.845
       835.10000  4.15179e-12      182.928
       835.20000  4.15179e-12      183.052
       835.30000  4.15179e-12      183.136
       835.40000  4.15179e-12      183.219
       835.50000  3.45097e-12      152.361
       835.60000  3.45097e-12      152.430
       835.70000  3.45097e-12      152.464
       835.80000  3.45097e-12      152.533
       835.90000  3.45097e-12      152.568
       836.00000  3.45097e-12      152.602
       836.10000  3.45097e-12      152.533
       836.20000  3.45097e-12      152.499
       836.30000  3.44941e-12      152.360
       836.40000  3.44941e-12      152.326
       836.50000  1.28067e-12      56.5415
       836.60000  1.28067e-12      56.5159
       836.70000  1.28067e-12      56.5031
       836.80000  1.28067e-12      56.4903
       836.90000  1.28067e-12      56.4646
       837.00000  1.28067e-12      56.4518
       837.10000  1.28067e-12      56.4390
       837.20000  1.28067e-12      56.4262
       837.30000  1.28067e-12      56.4134
       837.40000  1.28067e-12      56.4006
       837.50000  1.41652e-12      62.3693
       837.60000  1.41652e-12      62.3551
       837.70000  1.41652e-12      62.3409
       837.80000  1.41652e-12      62.3268
       837.90000  1.41652e-12      62.3268
       838.00000  1.41652e-12      62.3126
       838.10000  1.41652e-12      62.2984
       838.20000  1.41652e-12      62.2984
       838.30000  1.41652e-12      62.2984
       838.40000  1.41652e-12      62.2984
       838.50000  1.54347e-12      67.8665
       838.60000  1.54347e-12      67.8665
       838.70000  1.54347e-12      67.8665
       838.80000  1.53881e-12      67.6459
       838.90000  1.53881e-12      67.6459
       839.00000  1.53881e-12      67.6459
       839.10000  1.53881e-12      67.6305
       839.20000  1.53881e-12      67.6305
       839.30000  1.53881e-12      67.6305
       839.40000  1.53881e-12      67.6151
       839.50000  2.20402e-12      96.8447
       839.60000  2.20402e-12      96.8447
       839.70000  2.20402e-12      96.8227
       839.80000  2.20402e-12      96.8227
       839.90000  2.20402e-12      96.8227
       840.00000  2.20402e-12      96.8007
       840.10000  2.20402e-12      96.8007
       840.20000  2.20402e-12      96.8007
       840.30000  2.20402e-12      96.7786
       840.40000  2.20402e-12      96.7786
       840.50000  3.89144e-12      170.873
       840.60000  3.89144e-12      170.834
       840.70000  3.89144e-12      170.834
       840.80000  3.89144e-12      170.834
       840.90000  3.89144e-12      170.795
       841.00000  3.89144e-12      170.795
       841.10000  3.89144e-12      170.795
       841.20000  3.89144e-12      170.795
       841.30000  3.89123e-12      170.747
       841.40000  3.89123e-12      170.747
       841.50000  3.79542e-12      166.543
       841.60000  3.79542e-12      166.505
       841.70000  3.79542e-12      166.505
       841.80000  3.79542e-12      166.505
       841.90000  3.79542e-12      166.467
       842.00000  3.79542e-12      166.467
       842.10000  3.79542e-12      166.315
       842.20000  3.79542e-12      166.202
       842.30000  3.79542e-12      166.088
       842.40000  3.79542e-12      165.936
       842.50000  2.48880e-12      108.736
       842.60000  2.48880e-12      108.686
       842.70000  2.48880e-12      108.611
       842.80000  2.48880e-12      108.561
       842.90000  2.48880e-12      108.487
       843.00000  2.48880e-12      108.437
       843.10000  2.48880e-12      108.387
       843.20000  2.48880e-12      108.337
       843.30000  2.48880e-12      108.312
       843.40000  2.48880e-12      108.263
       843.50000  1.41205e-12      61.4100
       843.60000  1.41205e-12      61.3958
       843.70000  1.41205e-12      61.3817
       843.80000  1.41408e-12      61.4561
       843.90000  1.41408e-12      61.4561
       844.00000  1.41408e-12      61.4419
       844.10000  1.41408e-12      61.4844
       844.20000  1.41408e-12      61.5126
       844.30000  1.41408e-12      61.5409
       844.40000  1.41408e-12      61.5692
       844.50000  1.29046e-12      56.2126
       844.60000  1.29046e-12      56.2384
       844.70000  1.29046e-12      56.2513
       844.80000  1.29046e-12      56.2771
       844.90000  1.29046e-12      56.2901
       845.00000  1.29046e-12      56.3159
       845.10000  1.29046e-12      56.3288
       845.20000  1.29046e-12      56.3417
       845.30000  1.29046e-12      56.3675
       845.40000  1.29046e-12      56.3804
       845.50000  7.38469e-14      3.22637
       845.60000  7.38469e-14      3.22711
       845.70000  7.38469e-14      3.22785
       845.80000  7.38469e-14      3.22859
       845.90000  7.38469e-14      3.22859
       846.00000  7.38469e-14      3.22932
       846.10000  7.38469e-14      3.22932
       846.20000  7.38469e-14      3.22932
       846.30000  7.40412e-14      3.23782
       846.40000  7.40412e-14      3.23856
       846.50000  1.70160e-12      74.4278
       846.60000  1.70160e-12      74.4108
       846.70000  1.70160e-12      74.4108
       846.80000  1.70160e-12      74.4108
       846.90000  1.70160e-12      74.3937
       847.00000  1.70160e-12      74.3937
       847.10000  1.70160e-12      74.3767
       847.20000  1.70160e-12      74.3767
       847.30000  1.70160e-12      74.3597
       847.40000  1.70160e-12      74.3427
       847.50000  2.39280e-12      104.518
       847.60000  2.39280e-12      104.494
       847.70000  2.39280e-12      104.470
       847.80000  2.39280e-12      104.446
       847.90000  2.39280e-12      104.398
       848.00000  2.39280e-12      104.374
       848.10000  2.39280e-12      103.872
       848.20000  2.39280e-12      103.417
       848.30000  2.39280e-12      102.962
       848.40000  2.39280e-12      102.532
       848.50000  1.45728e-13      6.21967
       848.60000  1.45728e-13      6.19781
       848.70000  1.45728e-13      6.17595
       848.80000  1.46284e-13      6.17905
       848.90000  1.46284e-13      6.16003
       849.00000  1.46284e-13      6.14247
