PDS_VERSION_ID         = PDS3
RECORD_TYPE            = STREAM
OBJECT                 = TEXT
  PUBLICATION_DATE     = 2014-04-25
  INTERCHANGE_FORMAT   = ASCII
  NOTE                 = "System transmission vs. wavelength."
END_OBJECT             = TEXT
END
    
The systrans directory contains the non-wavelength-integrated system 
transmission values (QE*optics*filter1*filter2) for each filter combination. 
The naming convention for these files is as follows:

<camera><filter 1><filter 2>_systrans.tab

where <camera> is "issna" or "isswa," and <filter 1> and <filter 2> represent
the filter names. For polarized filter combinations, values are given for the
parallel orientation of the filter (full transmission), with values for the 
perpendicular (blocking) orientation provided in files with subscript 
"_b_systrans.tab". 

Columns in systrans files are as follows:

 1st column: Wavelength (nm)  
 2nd column: Transmitted Flux
 3rd column: Transmitted Flux * Solar Flux (phot per cm^2-s-angstrom at 1 AU)

The solar spectrum used for this calculation is provided in solarflux.tab.

\begindata
       600.00000  0.000499825  2.66207e+10
       600.10000  0.000499825  2.65807e+10
       600.20000  0.000499825  2.65357e+10
       600.30000  0.000499825  2.64807e+10
       600.40000  0.000499825  2.64157e+10
       600.50000  0.000483155  2.54719e+10
       600.60000  0.000483155  2.55057e+10
       600.70000  0.000483155  2.55347e+10
       600.80000  0.000483155  2.55637e+10
       600.90000  0.000483155  2.55830e+10
       601.00000  0.000483155  2.55975e+10
       601.10000  0.000483155  2.56024e+10
       601.20000  0.000483155  2.56072e+10
       601.30000  0.000483091  2.56038e+10
       601.40000  0.000483091  2.55942e+10
       601.50000  0.000468990  2.48377e+10
       601.60000  0.000468990  2.47298e+10
       601.70000  0.000468990  2.46407e+10
       601.80000  0.000468990  2.45610e+10
       601.90000  0.000468990  2.45000e+10
       602.00000  0.000468990  2.44531e+10
       602.10000  0.000468990  2.44156e+10
       602.20000  0.000468990  2.43969e+10
       602.30000  0.000468990  2.43922e+10
       602.40000  0.000468990  2.44016e+10
       602.50000  0.000454084  2.36442e+10
       602.60000  0.000454084  2.36805e+10
       602.70000  0.000454084  2.37304e+10
       602.80000  0.000454084  2.37940e+10
       602.90000  0.000454084  2.38712e+10
       603.00000  0.000454084  2.39620e+10
       603.10000  0.000454084  2.40665e+10
       603.20000  0.000454084  2.41845e+10
       603.30000  0.000454084  2.43162e+10
       603.40000  0.000454084  2.44615e+10
       603.50000  0.000441749  2.39517e+10
       603.60000  0.000441749  2.39428e+10
       603.70000  0.000441749  2.39340e+10
       603.80000  0.000441562  2.39150e+10
       603.90000  0.000441562  2.39017e+10
       604.00000  0.000441562  2.38929e+10
       604.10000  0.000441562  2.38797e+10
       604.20000  0.000441562  2.38708e+10
       604.30000  0.000441562  2.38576e+10
       604.40000  0.000441562  2.38488e+10
       604.50000  0.000427198  2.30601e+10
       604.60000  0.000427198  2.30431e+10
       604.70000  0.000427198  2.30260e+10
       604.80000  0.000427198  2.30089e+10
       604.90000  0.000427198  2.29918e+10
       605.00000  0.000427198  2.29790e+10
       605.10000  0.000427198  2.29662e+10
       605.20000  0.000427198  2.29576e+10
       605.30000  0.000427198  2.29448e+10
       605.40000  0.000427198  2.29363e+10
       605.50000  0.000415074  2.22770e+10
       605.60000  0.000415074  2.22728e+10
       605.70000  0.000415074  2.22645e+10
       605.80000  0.000415074  2.22604e+10
       605.90000  0.000415074  2.22604e+10
       606.00000  0.000415074  2.22562e+10
       606.10000  0.000415074  2.22562e+10
       606.20000  0.000415074  2.22562e+10
       606.30000  0.000415085  2.22568e+10
       606.40000  0.000415085  2.22610e+10
       606.50000  0.000403076  2.16210e+10
       606.60000  0.000403076  2.16291e+10
       606.70000  0.000403076  2.16331e+10
       606.80000  0.000403076  2.16412e+10
       606.90000  0.000403076  2.16412e+10
       607.00000  0.000403076  2.16452e+10
       607.10000  0.000403076  2.16452e+10
       607.20000  0.000403076  2.16452e+10
       607.30000  0.000403076  2.16412e+10
       607.40000  0.000403076  2.16371e+10
       607.50000  0.000388489  2.08502e+10
       607.60000  0.000388489  2.08269e+10
       607.70000  0.000388489  2.08075e+10
       607.80000  0.000388489  2.07919e+10
       607.90000  0.000388489  2.07764e+10
       608.00000  0.000388489  2.07609e+10
       608.10000  0.000388489  2.07492e+10
       608.20000  0.000388489  2.07376e+10
       608.30000  0.000388489  2.07298e+10
       608.40000  0.000388489  2.07220e+10
       608.50000  0.000376503  2.00789e+10
       608.60000  0.000376503  2.00751e+10
       608.70000  0.000376503  2.00714e+10
       608.80000  0.000376422  2.00670e+10
       608.90000  0.000376422  2.00708e+10
       609.00000  0.000376422  2.00746e+10
       609.10000  0.000376422  2.00783e+10
       609.20000  0.000376422  2.00859e+10
       609.30000  0.000376422  2.00934e+10
       609.40000  0.000376422  2.01047e+10
       609.50000  0.000366312  1.95794e+10
       609.60000  0.000366312  1.94915e+10
       609.70000  0.000366312  1.94146e+10
       609.80000  0.000366312  1.93486e+10
       609.90000  0.000366312  1.92937e+10
       610.00000  0.000366312  1.92460e+10
       610.10000  0.000366312  1.92058e+10
       610.20000  0.000366312  1.91765e+10
       610.30000  0.000366312  1.91581e+10
       610.40000  0.000366312  1.91508e+10
       610.50000  0.000358470  1.87372e+10
       610.60000  0.000358470  1.88304e+10
       610.70000  0.000358470  1.89129e+10
       610.80000  0.000358470  1.89882e+10
       610.90000  0.000358470  1.90527e+10
       611.00000  0.000358470  1.91065e+10
       611.10000  0.000358470  1.91531e+10
       611.20000  0.000358470  1.91889e+10
       611.30000  0.000358471  1.92176e+10
       611.40000  0.000358471  1.92356e+10
       611.50000  0.000352498  1.89221e+10
       611.60000  0.000352498  1.89221e+10
       611.70000  0.000352498  1.89115e+10
       611.80000  0.000352498  1.88939e+10
       611.90000  0.000352498  1.88657e+10
       612.00000  0.000352498  1.88304e+10
       612.10000  0.000352498  1.87846e+10
       612.20000  0.000352498  1.87282e+10
       612.30000  0.000352498  1.86648e+10
       612.40000  0.000352498  1.85907e+10
       612.50000  0.000346842  1.82127e+10
       612.60000  0.000346842  1.81676e+10
       612.70000  0.000346842  1.81260e+10
       612.80000  0.000346842  1.80913e+10
       612.90000  0.000346842  1.80635e+10
       613.00000  0.000346842  1.80392e+10
       613.10000  0.000346842  1.80219e+10
       613.20000  0.000346842  1.80080e+10
       613.30000  0.000346842  1.80011e+10
       613.40000  0.000346842  1.80011e+10
       613.50000  0.000342808  1.77952e+10
       613.60000  0.000342808  1.78466e+10
       613.70000  0.000342808  1.78912e+10
       613.80000  0.000342434  1.79127e+10
       613.90000  0.000342434  1.79538e+10
       614.00000  0.000342434  1.79915e+10
       614.10000  0.000342434  1.80223e+10
       614.20000  0.000342434  1.80531e+10
       614.30000  0.000342434  1.80805e+10
       614.40000  0.000342434  1.81045e+10
       614.50000  0.000335407  1.77531e+10
       614.60000  0.000335407  1.77699e+10
       614.70000  0.000335407  1.77833e+10
       614.80000  0.000335407  1.77934e+10
       614.90000  0.000335407  1.78001e+10
       615.00000  0.000335407  1.78034e+10
       615.10000  0.000335407  1.78068e+10
       615.20000  0.000335407  1.78034e+10
       615.30000  0.000335407  1.78001e+10
       615.40000  0.000335407  1.77934e+10
       615.50000  0.000328114  1.73933e+10
       615.60000  0.000328114  1.71997e+10
       615.70000  0.000328114  1.70225e+10
       615.80000  0.000328114  1.68683e+10
       615.90000  0.000328114  1.67371e+10
       616.00000  0.000328114  1.66222e+10
       616.10000  0.000328114  1.65304e+10
       616.20000  0.000328114  1.64582e+10
       616.30000  0.000328160  1.64080e+10
       616.40000  0.000328160  1.63785e+10
       616.50000  0.000318502  1.58837e+10
       616.60000  0.000318502  1.60207e+10
       616.70000  0.000318502  1.61481e+10
       616.80000  0.000318502  1.62659e+10
       616.90000  0.000318502  1.63774e+10
       617.00000  0.000318502  1.64825e+10
       617.10000  0.000318502  1.65780e+10
       617.20000  0.000318502  1.66640e+10
       617.30000  0.000318502  1.67437e+10
       617.40000  0.000318502  1.68169e+10
       617.50000  0.000310606  1.64621e+10
       617.60000  0.000310606  1.65149e+10
       617.70000  0.000310606  1.65615e+10
       617.80000  0.000310606  1.66019e+10
       617.90000  0.000310606  1.66299e+10
       618.00000  0.000310606  1.66547e+10
       618.10000  0.000310606  1.66702e+10
       618.20000  0.000310606  1.66764e+10
       618.30000  0.000310606  1.66764e+10
       618.40000  0.000310606  1.66671e+10
       618.50000  0.000300646  1.61176e+10
       618.60000  0.000300646  1.60876e+10
       618.70000  0.000300646  1.60575e+10
       618.80000  0.000300343  1.60203e+10
       618.90000  0.000300343  1.59993e+10
       619.00000  0.000300343  1.59843e+10
       619.10000  0.000300343  1.59723e+10
       619.20000  0.000300343  1.59662e+10
       619.30000  0.000300343  1.59632e+10
       619.40000  0.000300343  1.59632e+10
       619.50000  0.000290300  1.54353e+10
       619.60000  0.000290300  1.54904e+10
       619.70000  0.000290300  1.55398e+10
       619.80000  0.000290300  1.55833e+10
       619.90000  0.000290300  1.56211e+10
       620.00000  0.000290300  1.56501e+10
       620.10000  0.000290300  1.56733e+10
       620.20000  0.000290300  1.56907e+10
       620.30000  0.000290300  1.57023e+10
       620.40000  0.000290300  1.57052e+10
       620.50000  0.000276869  1.49786e+10
       620.60000  0.000276869  1.49177e+10
       620.70000  0.000276869  1.48596e+10
       620.80000  0.000276869  1.48097e+10
       620.90000  0.000276869  1.47654e+10
       621.00000  0.000276869  1.47267e+10
       621.10000  0.000276869  1.46934e+10
       621.20000  0.000276869  1.46685e+10
       621.30000  0.000276514  1.46276e+10
       621.40000  0.000276514  1.46110e+10
       621.50000  0.000258651  1.36594e+10
       621.60000  0.000258651  1.37059e+10
       621.70000  0.000258651  1.37473e+10
       621.80000  0.000258651  1.37809e+10
       621.90000  0.000258651  1.38120e+10
       622.00000  0.000258651  1.38353e+10
       622.10000  0.000258651  1.38534e+10
       622.20000  0.000258651  1.38637e+10
       622.30000  0.000258651  1.38715e+10
       622.40000  0.000258651  1.38715e+10
       622.50000  0.000234146  1.25526e+10
       622.60000  0.000234146  1.25432e+10
       622.70000  0.000234146  1.25291e+10
       622.80000  0.000234146  1.25104e+10
       622.90000  0.000234146  1.24847e+10
       623.00000  0.000234146  1.24566e+10
       623.10000  0.000234146  1.24214e+10
       623.20000  0.000234146  1.23793e+10
       623.30000  0.000234146  1.23348e+10
       623.40000  0.000234146  1.22833e+10
       623.50000  0.000204467  1.06793e+10
       623.60000  0.000204467  1.06773e+10
       623.70000  0.000204467  1.06773e+10
       623.80000  0.000204027  1.06502e+10
       623.90000  0.000204027  1.06482e+10
       624.00000  0.000204027  1.06441e+10
       624.10000  0.000204027  1.06380e+10
       624.20000  0.000204027  1.06319e+10
       624.30000  0.000204027  1.06257e+10
       624.40000  0.000204027  1.06176e+10
       624.50000  0.000169244  8.80071e+09
       624.60000  0.000169244  8.76686e+09
       624.70000  0.000169244  8.73978e+09
       624.80000  0.000169244  8.71608e+09
       624.90000  0.000169244  8.69747e+09
       625.00000  0.000169244  8.68393e+09
       625.10000  0.000169244  8.67547e+09
       625.20000  0.000169244  8.67039e+09
       625.30000  0.000169244  8.67208e+09
       625.40000  0.000169244  8.67716e+09
       625.50000  0.000134109  6.88383e+09
       625.60000  0.000134109  6.89456e+09
       625.70000  0.000134109  6.91065e+09
       625.80000  0.000134109  6.92943e+09
       625.90000  0.000134109  6.95223e+09
       626.00000  0.000134109  6.97905e+09
       626.10000  0.000134109  7.00989e+09
       626.20000  0.000134109  7.04342e+09
       626.30000  0.000133898  7.07114e+09
       626.40000  0.000133898  7.11265e+09
       626.50000  0.000101340  5.41661e+09
       626.60000  0.000101340  5.41763e+09
       626.70000  0.000101340  5.41864e+09
       626.80000  0.000101340  5.41965e+09
       626.90000  0.000101340  5.42067e+09
       627.00000  0.000101340  5.42168e+09
       627.10000  0.000101340  5.42269e+09
       627.20000  0.000101340  5.42269e+09
       627.30000  0.000101340  5.42371e+09
       627.40000  0.000101340  5.42472e+09
       627.50000  7.38400e-05  3.95339e+09
       627.60000  7.38400e-05  3.95635e+09
       627.70000  7.38400e-05  3.95856e+09
       627.80000  7.38400e-05  3.96004e+09
       627.90000  7.38400e-05  3.96151e+09
       628.00000  7.38400e-05  3.96225e+09
       628.10000  7.38400e-05  3.96299e+09
       628.20000  7.38400e-05  3.96299e+09
       628.30000  7.38400e-05  3.96225e+09
       628.40000  7.38400e-05  3.96151e+09
       628.50000  5.21827e-05  2.79856e+09
       628.60000  5.21827e-05  2.79699e+09
       628.70000  5.21827e-05  2.79543e+09
       628.80000  5.20724e-05  2.78744e+09
       628.90000  5.20724e-05  2.78483e+09
       629.00000  5.20724e-05  2.78223e+09
       629.10000  5.20724e-05  2.77911e+09
       629.20000  5.20724e-05  2.77598e+09
       629.30000  5.20724e-05  2.77234e+09
       629.40000  5.20724e-05  2.76817e+09
       629.50000  3.61289e-05  1.91772e+09
       629.60000  3.61289e-05  1.91375e+09
       629.70000  3.61289e-05  1.90978e+09
       629.80000  3.61289e-05  1.90616e+09
       629.90000  3.61289e-05  1.90291e+09
       630.00000  3.61289e-05  1.89966e+09
       630.10000  3.61289e-05  1.89641e+09
       630.20000  3.61289e-05  1.89388e+09
       630.30000  3.61289e-05  1.89099e+09
       630.40000  3.61289e-05  1.88882e+09
       630.50000  2.47647e-05  1.29321e+09
       630.60000  2.47647e-05  1.29173e+09
       630.70000  2.47647e-05  1.29049e+09
       630.80000  2.47647e-05  1.28950e+09
       630.90000  2.47647e-05  1.28851e+09
       631.00000  2.47647e-05  1.28776e+09
       631.10000  2.47647e-05  1.28851e+09
       631.20000  2.47647e-05  1.28925e+09
       631.30000  2.47635e-05  1.29018e+09
       631.40000  2.47635e-05  1.29092e+09
       631.50000  1.69763e-05  8.85485e+08
       631.60000  1.69763e-05  8.85994e+08
       631.70000  1.69763e-05  8.86503e+08
       631.80000  1.69763e-05  8.86843e+08
       631.90000  1.69763e-05  8.87352e+08
       632.00000  1.69763e-05  8.87862e+08
       632.10000  1.69763e-05  8.88371e+08
       632.20000  1.69763e-05  8.88710e+08
       632.30000  1.69763e-05  8.89220e+08
       632.40000  1.69763e-05  8.89729e+08
       632.50000  1.16774e-05  6.12244e+08
       632.60000  1.16774e-05  6.12478e+08
       632.70000  1.16774e-05  6.12828e+08
       632.80000  1.16774e-05  6.13061e+08
       632.90000  1.16774e-05  6.13295e+08
       633.00000  1.16774e-05  6.13645e+08
       633.10000  1.16774e-05  6.13879e+08
       633.20000  1.16774e-05  6.14112e+08
       633.30000  1.16774e-05  6.14346e+08
       633.40000  1.16774e-05  6.14580e+08
       633.50000  8.02532e-06  4.22533e+08
       633.60000  8.02532e-06  4.22694e+08
       633.70000  8.02532e-06  4.22854e+08
       633.80000  8.02409e-06  4.22869e+08
       633.90000  8.02409e-06  4.23030e+08
       634.00000  8.02409e-06  4.23190e+08
       634.10000  8.02409e-06  4.23271e+08
       634.20000  8.02409e-06  4.23431e+08
       634.30000  8.02409e-06  4.23511e+08
       634.40000  8.02409e-06  4.23672e+08
       634.50000  5.58130e-06  2.94748e+08
       634.60000  5.58130e-06  2.94804e+08
       634.70000  5.58130e-06  2.94916e+08
       634.80000  5.58130e-06  2.94972e+08
       634.90000  5.58130e-06  2.95027e+08
       635.00000  5.58130e-06  2.95083e+08
       635.10000  5.58130e-06  2.95139e+08
       635.20000  5.58130e-06  2.95139e+08
       635.30000  5.58130e-06  2.95195e+08
       635.40000  5.58130e-06  2.95195e+08
       635.50000  3.99078e-06  2.11112e+08
       635.60000  3.99078e-06  2.11152e+08
       635.70000  3.99078e-06  2.11152e+08
       635.80000  3.99078e-06  2.11192e+08
       635.90000  3.99078e-06  2.11192e+08
       636.00000  3.99078e-06  2.11232e+08
       636.10000  3.99078e-06  2.11232e+08
       636.20000  3.99078e-06  2.11272e+08
       636.30000  3.96712e-06  2.10020e+08
       636.40000  3.96712e-06  2.10059e+08
       636.50000  2.82931e-06  1.49812e+08
       636.60000  2.82931e-06  1.49840e+08
       636.70000  2.82931e-06  1.49840e+08
       636.80000  2.82931e-06  1.49869e+08
       636.90000  2.82931e-06  1.49869e+08
       637.00000  2.82931e-06  1.49869e+08
       637.10000  2.82931e-06  1.49897e+08
       637.20000  2.82931e-06  1.49897e+08
       637.30000  2.82931e-06  1.49925e+08
       637.40000  2.82931e-06  1.49925e+08
       637.50000  2.03356e-06  1.07758e+08
       637.60000  2.03356e-06  1.07778e+08
       637.70000  2.03356e-06  1.07778e+08
       637.80000  2.03356e-06  1.07799e+08
       637.90000  2.03356e-06  1.07799e+08
       638.00000  2.03356e-06  1.07799e+08
       638.10000  2.03356e-06  1.07819e+08
       638.20000  2.03356e-06  1.07819e+08
       638.30000  2.03356e-06  1.07819e+08
       638.40000  2.03356e-06  1.07839e+08
       638.50000  1.49851e-06  7.94662e+07
       638.60000  1.49851e-06  7.94662e+07
       638.70000  1.49851e-06  7.94811e+07
       638.80000  1.48869e-06  7.89599e+07
       638.90000  1.48869e-06  7.89599e+07
       639.00000  1.48869e-06  7.89599e+07
       639.10000  1.48869e-06  7.88408e+07
       639.20000  1.48869e-06  7.87218e+07
       639.30000  1.48869e-06  7.86027e+07
       639.40000  1.48869e-06  7.84985e+07
       639.50000  1.10656e-06  5.82605e+07
       639.60000  1.10656e-06  5.81941e+07
       639.70000  1.10656e-06  5.81166e+07
       639.80000  1.10656e-06  5.80503e+07
       639.90000  1.10656e-06  5.79949e+07
       640.00000  1.10656e-06  5.79285e+07
       640.10000  1.10656e-06  5.78732e+07
       640.20000  1.10656e-06  5.78289e+07
       640.30000  1.10656e-06  5.77847e+07
       640.40000  1.10656e-06  5.77404e+07
       640.50000  8.12550e-07  4.23663e+07
       640.60000  8.12550e-07  4.23420e+07
       640.70000  8.12550e-07  4.23176e+07
       640.80000  8.12550e-07  4.23013e+07
       640.90000  8.12550e-07  4.22770e+07
       641.00000  8.12550e-07  4.22688e+07
       641.10000  8.12550e-07  4.22851e+07
       641.20000  8.12550e-07  4.23013e+07
       641.30000  8.07054e-07  4.20313e+07
       641.40000  8.07054e-07  4.20475e+07
       641.50000  6.02926e-07  3.14245e+07
       641.60000  6.02926e-07  3.14366e+07
       641.70000  6.02926e-07  3.14486e+07
       641.80000  6.02926e-07  3.14607e+07
       641.90000  6.02926e-07  3.14728e+07
       642.00000  6.02926e-07  3.14848e+07
       642.10000  6.02926e-07  3.14908e+07
       642.20000  6.02926e-07  3.15029e+07
       642.30000  6.02926e-07  3.15150e+07
       642.40000  6.02926e-07  3.15270e+07
       642.50000  4.49848e-07  2.35316e+07
       642.60000  4.49848e-07  2.35406e+07
       642.70000  4.49848e-07  2.35496e+07
       642.80000  4.49848e-07  2.35586e+07
       642.90000  4.49848e-07  2.35676e+07
       643.00000  4.49848e-07  2.35766e+07
       643.10000  4.49848e-07  2.35810e+07
       643.20000  4.49848e-07  2.35900e+07
       643.30000  4.49848e-07  2.35990e+07
       643.40000  4.49848e-07  2.36080e+07
       643.50000  3.41623e-07  1.79352e+07
       643.60000  3.41623e-07  1.79420e+07
       643.70000  3.41623e-07  1.79454e+07
       643.80000  3.41168e-07  1.79284e+07
       643.90000  3.41168e-07  1.79352e+07
       644.00000  3.41168e-07  1.79420e+07
       644.10000  3.41168e-07  1.79488e+07
       644.20000  3.41168e-07  1.79523e+07
       644.30000  3.41168e-07  1.79591e+07
       644.40000  3.41168e-07  1.79659e+07
       644.50000  2.64734e-07  1.39462e+07
       644.60000  2.64734e-07  1.39488e+07
       644.70000  2.64734e-07  1.39541e+07
       644.80000  2.64734e-07  1.39594e+07
       644.90000  2.64734e-07  1.39647e+07
       645.00000  2.64734e-07  1.39674e+07
       645.10000  2.64734e-07  1.39647e+07
       645.20000  2.64734e-07  1.39594e+07
       645.30000  2.64734e-07  1.39568e+07
       645.40000  2.64734e-07  1.39515e+07
       645.50000  2.01088e-07  1.05913e+07
       645.60000  2.01088e-07  1.05873e+07
       645.70000  2.01088e-07  1.05832e+07
       645.80000  2.01088e-07  1.05772e+07
       645.90000  2.01088e-07  1.05712e+07
       646.00000  2.01088e-07  1.05651e+07
       646.10000  2.01088e-07  1.05591e+07
       646.20000  2.01088e-07  1.05531e+07
       646.30000  2.00964e-07  1.05386e+07
       646.40000  2.00964e-07  1.05305e+07
       646.50000  1.56838e-07  8.21360e+06
       646.60000  1.56838e-07  8.20576e+06
       646.70000  1.56838e-07  8.19948e+06
       646.80000  1.56838e-07  8.19321e+06
       646.90000  1.56838e-07  8.18537e+06
       647.00000  1.56838e-07  8.17909e+06
       647.10000  1.56838e-07  8.15714e+06
       647.20000  1.56838e-07  8.13675e+06
       647.30000  1.56838e-07  8.11793e+06
       647.40000  1.56838e-07  8.09910e+06
       647.50000  1.23545e-07  6.36630e+06
       647.60000  1.23545e-07  6.35518e+06
       647.70000  1.23545e-07  6.34282e+06
       647.80000  1.23545e-07  6.33294e+06
       647.90000  1.23545e-07  6.32306e+06
       648.00000  1.23545e-07  6.31441e+06
       648.10000  1.23545e-07  6.30700e+06
       648.20000  1.23545e-07  6.30082e+06
       648.30000  1.23545e-07  6.29464e+06
       648.40000  1.23545e-07  6.28970e+06
       648.50000  9.67871e-08  4.92453e+06
       648.60000  9.67871e-08  4.92259e+06
       648.70000  9.67871e-08  4.92066e+06
       648.80000  9.68873e-08  4.92478e+06
       648.90000  9.68873e-08  4.92478e+06
       649.00000  9.68873e-08  4.92575e+06
       649.10000  9.68873e-08  4.92672e+06
       649.20000  9.68873e-08  4.92962e+06
       649.30000  9.68873e-08  4.93156e+06
       649.40000  9.68873e-08  4.93544e+06
       649.50000  7.81376e-08  3.98424e+06
       649.60000  7.81376e-08  3.98814e+06
       649.70000  7.81376e-08  3.99283e+06
       649.80000  7.81376e-08  3.99830e+06
       649.90000  7.81376e-08  4.00377e+06
       650.00000  7.81376e-08  4.01002e+06
       650.10000  7.81376e-08  4.01705e+06
       650.20000  7.81376e-08  4.02487e+06
       650.30000  7.81376e-08  4.03346e+06
       650.40000  7.81376e-08  4.04206e+06
       650.50000  6.10663e-08  3.16629e+06
       650.60000  6.10663e-08  3.17423e+06
       650.70000  6.10663e-08  3.18216e+06
       650.80000  6.10663e-08  3.19132e+06
       650.90000  6.10663e-08  3.20048e+06
       651.00000  6.10663e-08  3.21026e+06
       651.10000  6.10663e-08  3.21270e+06
       651.20000  6.10663e-08  3.21514e+06
       651.30000  6.09897e-08  3.21294e+06
       651.40000  6.09897e-08  3.21477e+06
       651.50000  4.96114e-08  2.61651e+06
       651.60000  4.96114e-08  2.61700e+06
       651.70000  4.96114e-08  2.61799e+06
       651.80000  4.96114e-08  2.61849e+06
       651.90000  4.96114e-08  2.61849e+06
       652.00000  4.96114e-08  2.61849e+06
       652.10000  4.96114e-08  2.61799e+06
       652.20000  4.96114e-08  2.61750e+06
       652.30000  4.96114e-08  2.61700e+06
       652.40000  4.96114e-08  2.61601e+06
       652.50000  3.70957e-08  1.95494e+06
       652.60000  3.70957e-08  1.95383e+06
       652.70000  3.70957e-08  1.95272e+06
       652.80000  3.70957e-08  1.95086e+06
       652.90000  3.70957e-08  1.94938e+06
       653.00000  3.70957e-08  1.94753e+06
       653.10000  3.70957e-08  1.94604e+06
       653.20000  3.70957e-08  1.94456e+06
       653.30000  3.70957e-08  1.94233e+06
       653.40000  3.70957e-08  1.94011e+06
       653.50000  3.06256e-08  1.59988e+06
       653.60000  3.06256e-08  1.59774e+06
       653.70000  3.06256e-08  1.59529e+06
       653.80000  3.05883e-08  1.59059e+06
       653.90000  3.05883e-08  1.58784e+06
       654.00000  3.05883e-08  1.58478e+06
       654.10000  3.05883e-08  1.58172e+06
       654.20000  3.05883e-08  1.57805e+06
       654.30000  3.05883e-08  1.57438e+06
       654.40000  3.05883e-08  1.57071e+06
       654.50000  2.62789e-08  1.34601e+06
       654.60000  2.62789e-08  1.34233e+06
       654.70000  2.62789e-08  1.33839e+06
       654.80000  2.62789e-08  1.33444e+06
       654.90000  2.62789e-08  1.33024e+06
       655.00000  2.62789e-08  1.32577e+06
       655.10000  2.62789e-08  1.31316e+06
       655.20000  2.62789e-08  1.30107e+06
       655.30000  2.62789e-08  1.28977e+06
       655.40000  2.62789e-08  1.27926e+06
       655.50000  2.28555e-08  1.10392e+06
       655.60000  2.28555e-08  1.09592e+06
       655.70000  2.28555e-08  1.08838e+06
       655.80000  2.28555e-08  1.08152e+06
       655.90000  2.28555e-08  1.07512e+06
       656.00000  2.28555e-08  1.06941e+06
       656.10000  2.28555e-08  1.06438e+06
       656.20000  2.28555e-08  1.05981e+06
       656.30000  2.28382e-08  1.05512e+06
       656.40000  2.28382e-08  1.05170e+06
       656.50000  1.97337e-08      906370.
       656.60000  1.97337e-08      904594.
       656.70000  1.97337e-08      903212.
       656.80000  1.97337e-08      902423.
       656.90000  1.97337e-08      902028.
       657.00000  1.97337e-08      902226.
       657.10000  1.97337e-08      909922.
       657.20000  1.97337e-08      917421.
       657.30000  1.97337e-08      924722.
       657.40000  1.97337e-08      931826.
       657.50000  1.42721e-08      678782.
       657.60000  1.42721e-08      683634.
       657.70000  1.42721e-08      688202.
       657.80000  1.42721e-08      692626.
       657.90000  1.42721e-08      696765.
       658.00000  1.42721e-08      700904.
       658.10000  1.42721e-08      704900.
       658.20000  1.42721e-08      708611.
       658.30000  1.42721e-08      712179.
       658.40000  1.42721e-08      715604.
       658.50000  1.18429e-08      596409.
       658.60000  1.18429e-08      599015.
       658.70000  1.18429e-08      601383.
       658.80000  1.18306e-08      603125.
       658.90000  1.18306e-08      605254.
       659.00000  1.18306e-08      607147.
       659.10000  1.18306e-08      609040.
       659.20000  1.18306e-08      610815.
       659.30000  1.18306e-08      612353.
       659.40000  1.18306e-08      613772.
       659.50000  9.07876e-09      472005.
       659.60000  9.07876e-09      472913.
       659.70000  9.07876e-09      473639.
       659.80000  9.07876e-09      474365.
       659.90000  9.07876e-09      474910.
       660.00000  9.07876e-09      475364.
       660.10000  9.07876e-09      475727.
       660.20000  9.07876e-09      475909.
       660.30000  9.07876e-09      476090.
       660.40000  9.07876e-09      476090.
       660.50000  9.56735e-09      501616.
       660.60000  9.56735e-09      501425.
       660.70000  9.56735e-09      501138.
       660.80000  9.56735e-09      500659.
       660.90000  9.56735e-09      500181.
       661.00000  9.56735e-09      499511.
       661.10000  9.56735e-09      499224.
       661.20000  9.56735e-09      498841.
       661.30000  9.54359e-09      497317.
       661.40000  9.54359e-09      497030.
       661.50000  7.88098e-09      410205.
       661.60000  7.88098e-09      410047.
       661.70000  7.88098e-09      409811.
       661.80000  7.88098e-09      409653.
       661.90000  7.88098e-09      409496.
       662.00000  7.88098e-09      409338.
       662.10000  7.88098e-09      409180.
       662.20000  7.88098e-09      409023.
       662.30000  7.88098e-09      408944.
       662.40000  7.88098e-09      408865.
       662.50000  5.68239e-09      294689.
       662.60000  5.68239e-09      294689.
       662.70000  5.68239e-09      294632.
       662.80000  5.68239e-09      294575.
       662.90000  5.68239e-09      294575.
       663.00000  5.68239e-09      294575.
       663.10000  5.68239e-09      294803.
       663.20000  5.68239e-09      294973.
       663.30000  5.68239e-09      295200.
       663.40000  5.68239e-09      295371.
       663.50000  5.47262e-09      284631.
       663.60000  5.47262e-09      284795.
       663.70000  5.47262e-09      284904.
       663.80000  5.46095e-09      284461.
       663.90000  5.46095e-09      284570.
       664.00000  5.46095e-09      284625.
       664.10000  5.46095e-09      284734.
       664.20000  5.46095e-09      284788.
       664.30000  5.46095e-09      284843.
       664.40000  5.46095e-09      284898.
       664.50000  4.00746e-09      209069.
       664.60000  4.00746e-09      209069.
       664.70000  4.00746e-09      209069.
       664.80000  4.00746e-09      209069.
       664.90000  4.00746e-09      209069.
       665.00000  4.00746e-09      209029.
       665.10000  4.00746e-09      208989.
       665.20000  4.00746e-09      208949.
       665.30000  4.00746e-09      208869.
       665.40000  4.00746e-09      208788.
       665.50000  2.60155e-09      135489.
       665.60000  2.60155e-09      135437.
       665.70000  2.60155e-09      135359.
       665.80000  2.60155e-09      135307.
       665.90000  2.60155e-09      135229.
       666.00000  2.60155e-09      135125.
       666.10000  2.60155e-09      135047.
       666.20000  2.60155e-09      134943.
       666.30000  2.59502e-09      134500.
       666.40000  2.59502e-09      134396.
       666.50000  3.15641e-09      163313.
       666.60000  3.15641e-09      163155.
       666.70000  3.15641e-09      162997.
       666.80000  3.15641e-09      162839.
       666.90000  3.15641e-09      162681.
       667.00000  3.15641e-09      162492.
       667.10000  3.15641e-09      162681.
       667.20000  3.15641e-09      162839.
       667.30000  3.15641e-09      162997.
       667.40000  3.15641e-09      163155.
       667.50000  2.44393e-09      126449.
       667.60000  2.44393e-09      126547.
       667.70000  2.44393e-09      126644.
       667.80000  2.44393e-09      126718.
       667.90000  2.44393e-09      126791.
       668.00000  2.44393e-09      126864.
       668.10000  2.44393e-09      126938.
       668.20000  2.44393e-09      126986.
       668.30000  2.44393e-09      127035.
       668.40000  2.44393e-09      127060.
       668.50000  1.78074e-09      92598.3
       668.60000  1.78074e-09      92616.1
       668.70000  1.78074e-09      92616.1
       668.80000  1.77782e-09      92464.6
       668.90000  1.77782e-09      92464.6
       669.00000  1.77782e-09      92446.8
       669.10000  1.77782e-09      92322.4
       669.20000  1.77782e-09      92197.9
       669.30000  1.77782e-09      92091.2
       669.40000  1.77782e-09      91984.6
       669.50000  1.73415e-09      89621.0
       669.60000  1.73415e-09      89516.9
       669.70000  1.73415e-09      89430.2
       669.80000  1.73415e-09      89343.5
       669.90000  1.73415e-09      89256.8
       670.00000  1.73415e-09      89187.4
       670.10000  1.73415e-09      89118.1
       670.20000  1.73415e-09      89048.7
       670.30000  1.73415e-09      88979.3
       670.40000  1.73415e-09      88927.3
       670.50000  2.24279e-09      114943.
       670.60000  2.24279e-09      114875.
       670.70000  2.24279e-09      114831.
       670.80000  2.24279e-09      114786.
       670.90000  2.24279e-09      114741.
       671.00000  2.24279e-09      114718.
       671.10000  2.24279e-09      114674.
       671.20000  2.24279e-09      114674.
       671.30000  2.24287e-09      114656.
       671.40000  2.24287e-09      114656.
       671.50000  2.18490e-09      111692.
       671.60000  2.18490e-09      111692.
       671.70000  2.18490e-09      111692.
       671.80000  2.18490e-09      111714.
       671.90000  2.18490e-09      111736.
       672.00000  2.18490e-09      111779.
       672.10000  2.18490e-09      111823.
       672.20000  2.18490e-09      111867.
       672.30000  2.18490e-09      111910.
       672.40000  2.18490e-09      111976.
       672.50000  1.60366e-09      82235.7
       672.60000  1.60366e-09      82283.8
       672.70000  1.60366e-09      82331.9
       672.80000  1.60366e-09      82396.1
       672.90000  1.60366e-09      82460.2
       673.00000  1.60366e-09      82540.4
       673.10000  1.60366e-09      82508.3
       673.20000  1.60366e-09      82476.3
       673.30000  1.60366e-09      82444.2
       673.40000  1.60366e-09      82428.2
       673.50000  1.53480e-09      78858.3
       673.60000  1.53480e-09      78842.9
       673.70000  1.53480e-09      78827.6
       673.80000  1.53542e-09      78828.3
       673.90000  1.53542e-09      78813.0
       674.00000  1.53542e-09      78797.6
       674.10000  1.53542e-09      78782.3
       674.20000  1.53542e-09      78766.9
       674.30000  1.53542e-09      78751.6
       674.40000  1.53542e-09      78736.2
       674.50000  1.49209e-09      76499.5
       674.60000  1.49209e-09      76499.5
       674.70000  1.49209e-09      76484.5
       674.80000  1.49209e-09      76484.5
       674.90000  1.49209e-09      76469.6
       675.00000  1.49209e-09      76469.6
       675.10000  1.49209e-09      76484.5
       675.20000  1.49209e-09      76499.5
       675.30000  1.49209e-09      76514.4
       675.40000  1.49209e-09      76529.3
       675.50000  1.44875e-09      74306.2
       675.60000  1.44875e-09      74320.7
       675.70000  1.44875e-09      74335.2
       675.80000  1.44875e-09      74335.2
       675.90000  1.44875e-09      74349.7
       676.00000  1.44875e-09      74349.7
       676.10000  1.44875e-09      74364.2
       676.20000  1.44875e-09      74364.2
       676.30000  1.44727e-09      74288.3
       676.40000  1.44727e-09      74288.3
       676.50000  9.41698e-10      48346.8
       676.60000  9.41698e-10      48346.8
       676.70000  9.41698e-10      48346.8
       676.80000  9.41698e-10      48337.4
       676.90000  9.41698e-10      48337.4
       677.00000  9.41698e-10      48337.4
       677.10000  9.41698e-10      48337.4
       677.20000  9.41698e-10      48327.9
       677.30000  9.41698e-10      48327.9
       677.40000  9.41698e-10      48318.5
       677.50000  8.90363e-10      45684.5
       677.60000  8.90363e-10      45675.6
       677.70000  8.90363e-10      45675.6
       677.80000  8.90363e-10      45666.7
       677.90000  8.90363e-10      45657.8
       678.00000  8.90363e-10      45648.9
       678.10000  8.90363e-10      45640.0
       678.20000  8.90363e-10      45631.1
       678.30000  8.90363e-10      45622.2
       678.40000  8.90363e-10      45613.3
       678.50000  8.78524e-10      44989.2
       678.60000  8.78524e-10      44980.4
       678.70000  8.78524e-10      44971.7
       678.80000  8.78458e-10      44950.7
       678.90000  8.78458e-10      44941.9
       679.00000  8.78458e-10      44924.3
       679.10000  8.78458e-10      44924.3
       679.20000  8.78458e-10      44933.1
       679.30000  8.78458e-10      44933.1
       679.40000  8.78458e-10      44933.1
       679.50000  8.38527e-10      42890.7
       679.60000  8.38527e-10      42890.7
       679.70000  8.38527e-10      42890.7
       679.80000  8.38527e-10      42890.7
       679.90000  8.38527e-10      42890.7
       680.00000  8.38527e-10      42882.3
       680.10000  8.38527e-10      42882.3
       680.20000  8.38527e-10      42882.3
       680.30000  8.38527e-10      42873.9
       680.40000  8.38527e-10      42873.9
       680.50000  8.21485e-10      41994.3
       680.60000  8.21485e-10      41994.3
       680.70000  8.21485e-10      41986.1
       680.80000  8.21485e-10      41977.9
       680.90000  8.21485e-10      41969.7
       681.00000  8.21485e-10      41969.7
       681.10000  8.21485e-10      41961.5
       681.20000  8.21485e-10      41953.2
       681.30000  8.21407e-10      41949.3
       681.40000  8.21407e-10      41941.1
       681.50000  7.82143e-10      39928.4
       681.60000  7.82143e-10      39920.6
       681.70000  7.82143e-10      39912.8
       681.80000  7.82143e-10      39897.1
       681.90000  7.82143e-10      39889.3
       682.00000  7.82143e-10      39881.5
       682.10000  7.82143e-10      39865.8
       682.20000  7.82143e-10      39850.2
       682.30000  7.82143e-10      39842.4
       682.40000  7.82143e-10      39826.7
       682.50000  3.71454e-10      18907.0
       682.60000  3.71454e-10      18899.6
       682.70000  3.71454e-10      18892.2
       682.80000  3.71454e-10      18884.7
       682.90000  3.71454e-10      18873.6
       683.00000  3.71454e-10      18866.2
       683.10000  3.71454e-10      18858.7
       683.20000  3.71454e-10      18847.6
       683.30000  3.71454e-10      18836.4
       683.40000  3.71454e-10      18825.3
       683.50000  3.57457e-10      18108.8
       683.60000  3.57457e-10      18098.1
       683.70000  3.57457e-10      18087.3
       683.80000  3.57183e-10      18059.2
       683.90000  3.57183e-10      18048.5
       684.00000  3.57183e-10      18037.8
       684.10000  3.57183e-10      18023.5
       684.20000  3.57183e-10      18012.7
       684.30000  3.57183e-10      17998.5
       684.40000  3.57183e-10      17987.7
       684.50000  3.43191e-10      17269.4
       684.60000  3.43191e-10      17255.7
       684.70000  3.43191e-10      17241.9
       684.80000  3.43191e-10      17228.2
       684.90000  3.43191e-10      17211.0
       685.00000  3.43191e-10      17197.3
       685.10000  3.43191e-10      17211.0
       685.20000  3.43191e-10      17228.2
       685.30000  3.43191e-10      17241.9
       685.40000  3.43191e-10      17252.2
       685.50000  3.37633e-10      16986.3
       685.60000  3.37633e-10      16999.8
       685.70000  3.37633e-10      17009.9
       685.80000  3.37633e-10      17020.1
       685.90000  3.37633e-10      17030.2
       686.00000  3.37633e-10      17040.3
       686.10000  3.37633e-10      17050.5
       686.20000  3.37633e-10      17057.2
       686.30000  3.37278e-10      17049.4
       686.40000  3.37278e-10      17056.2
       686.50000  3.14837e-10      15927.6
       686.60000  3.14837e-10      15933.9
       686.70000  3.14837e-10      15940.2
       686.80000  3.14837e-10      15943.4
       686.90000  3.14837e-10      15949.7
       687.00000  3.14837e-10      15952.8
       687.10000  3.14837e-10      15956.0
       687.20000  3.14837e-10      15956.0
       687.30000  3.14837e-10      15956.0
       687.40000  3.14837e-10      15956.0
       687.50000  3.14900e-10      15959.1
       687.60000  3.14900e-10      15959.1
       687.70000  3.14900e-10      15959.1
       687.80000  3.14900e-10      15959.1
       687.90000  3.14900e-10      15959.1
       688.00000  3.14900e-10      15956.0
       688.10000  3.14900e-10      15956.0
       688.20000  3.14900e-10      15956.0
       688.30000  3.14900e-10      15952.8
       688.40000  3.14900e-10      15952.8
       688.50000  2.95279e-10      14955.9
       688.60000  2.95279e-10      14953.0
       688.70000  2.95279e-10      14953.0
       688.80000  2.94903e-10      14930.9
       688.90000  2.94903e-10      14928.0
       689.00000  2.94903e-10      14925.0
       689.10000  2.94903e-10      14922.1
       689.20000  2.94903e-10      14919.1
       689.30000  2.94903e-10      14916.2
       689.40000  2.94903e-10      14913.2
       689.50000  2.83726e-10      14345.2
       689.60000  2.83726e-10      14342.4
       689.70000  2.83726e-10      14336.7
       689.80000  2.83726e-10      14333.8
       689.90000  2.83726e-10      14331.0
       690.00000  2.83726e-10      14325.3
       690.10000  2.83726e-10      14319.7
       690.20000  2.83726e-10      14316.8
       690.30000  2.83726e-10      14311.1
       690.40000  2.83726e-10      14305.5
       690.50000  2.72828e-10      13753.3
       690.60000  2.72828e-10      13747.8
       690.70000  2.72828e-10      13742.4
       690.80000  2.72828e-10      13736.9
       690.90000  2.72828e-10      13731.5
       691.00000  2.72828e-10      13726.0
       691.10000  2.72828e-10      13731.5
       691.20000  2.72828e-10      13734.2
       691.30000  2.72568e-10      13726.5
       691.40000  2.72568e-10      13729.2
       691.50000  2.37503e-10      11965.4
       691.60000  2.37503e-10      11970.2
       691.70000  2.37503e-10      11972.5
       691.80000  2.37503e-10      11974.9
       691.90000  2.37503e-10      11977.3
       692.00000  2.37503e-10      11977.3
       692.10000  2.37503e-10      11979.7
       692.20000  2.37503e-10      11982.0
       692.30000  2.37503e-10      11982.0
       692.40000  2.37503e-10      11982.0
       692.50000  2.38829e-10      12051.3
       692.60000  2.38829e-10      12051.3
       692.70000  2.38829e-10      12051.3
       692.80000  2.38829e-10      12051.3
       692.90000  2.38829e-10      12051.3
       693.00000  2.38829e-10      12048.9
       693.10000  2.38829e-10      12048.9
       693.20000  2.38829e-10      12046.5
       693.30000  2.38829e-10      12044.2
       693.40000  2.38829e-10      12041.8
       693.50000  2.25703e-10      11377.7
       693.60000  2.25703e-10      11375.4
       693.70000  2.25703e-10      11373.2
       693.80000  2.24808e-10      11325.8
       693.90000  2.24808e-10      11321.3
       694.00000  2.24808e-10      11319.1
       694.10000  2.24808e-10      11316.8
       694.20000  2.24808e-10      11312.3
       694.30000  2.24808e-10      11310.1
       694.40000  2.24808e-10      11305.6
       694.50000  2.01214e-10      10115.0
       694.60000  2.01214e-10      10113.0
       694.70000  2.01214e-10      10109.0
       694.80000  2.01214e-10      10105.0
       694.90000  2.01214e-10      10101.0
       695.00000  2.01214e-10      10096.9
       695.10000  2.01214e-10      10092.9
       695.20000  2.01214e-10      10088.9
       695.30000  2.01214e-10      10082.8
       695.40000  2.01214e-10      10078.8
       695.50000  1.87911e-10      9408.70
       695.60000  1.87911e-10      9403.06
       695.70000  1.87911e-10      9399.30
       695.80000  1.87911e-10      9393.66
       695.90000  1.87911e-10      9388.03
       696.00000  1.87911e-10      9384.27
       696.10000  1.87911e-10      9378.63
       696.20000  1.87911e-10      9372.99
       696.30000  1.87726e-10      9358.16
       696.40000  1.87726e-10      9352.53
       696.50000  1.78962e-10      8910.51
       696.60000  1.78962e-10      8905.14
       696.70000  1.78962e-10      8897.98
       696.80000  1.78962e-10      8892.61
       696.90000  1.78962e-10      8887.24
       697.00000  1.78962e-10      8880.08
       697.10000  1.78962e-10      8892.61
       697.20000  1.78962e-10      8901.56
       697.30000  1.78962e-10      8912.29
       697.40000  1.78962e-10      8921.24
       697.50000  1.68872e-10      8426.70
       697.60000  1.68872e-10      8433.45
       697.70000  1.68872e-10      8440.21
       697.80000  1.68872e-10      8445.27
       697.90000  1.68872e-10      8450.34
       698.00000  1.68872e-10      8453.72
       698.10000  1.68872e-10      8457.09
       698.20000  1.68872e-10      8460.47
       698.30000  1.68872e-10      8462.16
       698.40000  1.68872e-10      8463.85
       698.50000  1.61075e-10      8074.71
       698.60000  1.61075e-10      8074.71
       698.70000  1.61075e-10      8073.09
       698.80000  1.60800e-10      8057.71
       698.90000  1.60800e-10      8056.10
       699.00000  1.60800e-10      8052.88
       699.10000  1.60800e-10      8038.41
       699.20000  1.60800e-10      8022.33
       699.30000  1.60800e-10      8009.47
       699.40000  1.60800e-10      7995.00
       699.50000  1.44250e-10      7160.55
       699.60000  1.44250e-10      7149.01
       699.70000  1.44250e-10      7138.92
       699.80000  1.44250e-10      7128.82
       699.90000  1.44250e-10      7118.72
       700.00000  1.44250e-10      7110.07
       700.10000  1.44250e-10      7101.41
       700.20000  1.44250e-10      7092.76
       700.30000  1.44250e-10      7085.54
       700.40000  1.44250e-10      7078.33
       700.50000  1.46233e-10      7168.35
       700.60000  1.46233e-10      7162.50
       700.70000  1.46233e-10      7156.65
       700.80000  1.46233e-10      7152.26
       700.90000  1.46233e-10      7147.88
       701.00000  1.46233e-10      7143.49
       701.10000  1.46233e-10      7142.03
       701.20000  1.46233e-10      7140.56
       701.30000  1.46133e-10      7134.23
       701.40000  1.46133e-10      7134.23
       701.50000  1.39743e-10      6822.28
       701.60000  1.39743e-10      6822.28
       701.70000  1.39743e-10      6822.28
       701.80000  1.39743e-10      6823.67
       701.90000  1.39743e-10      6823.67
       702.00000  1.39743e-10      6825.07
       702.10000  1.39743e-10      6827.87
       702.20000  1.39743e-10      6829.26
       702.30000  1.39743e-10      6832.06
       702.40000  1.39743e-10      6833.46
       702.50000  1.28128e-10      6268.02
       702.60000  1.28128e-10      6271.87
       702.70000  1.28128e-10      6274.43
       702.80000  1.28128e-10      6278.27
       702.90000  1.28128e-10      6282.12
       703.00000  1.28128e-10      6285.96
       703.10000  1.28128e-10      6297.49
       703.20000  1.28128e-10      6309.02
       703.30000  1.28128e-10      6319.27
       703.40000  1.28128e-10      6329.52
       703.50000  1.22836e-10      6076.70
       703.60000  1.22836e-10      6086.52
       703.70000  1.22836e-10      6093.89
       703.80000  1.22505e-10      6086.07
       703.90000  1.22505e-10      6093.42
       704.00000  1.22505e-10      6099.54
       704.10000  1.22505e-10      6106.89
       704.20000  1.22505e-10      6113.02
       704.30000  1.22505e-10      6117.92
       704.40000  1.22505e-10      6122.82
       704.50000  1.13591e-10      5681.83
       704.60000  1.13591e-10      5686.37
       704.70000  1.13591e-10      5689.78
       704.80000  1.13591e-10      5692.05
       704.90000  1.13591e-10      5695.46
       705.00000  1.13591e-10      5697.73
       705.10000  1.13591e-10      5698.87
       705.20000  1.13591e-10      5700.00
       705.30000  1.13591e-10      5701.14
       705.40000  1.13591e-10      5702.27
       705.50000  1.29085e-10      6480.06
       705.60000  1.29085e-10      6480.06
       705.70000  1.29085e-10      6478.77
       705.80000  1.29085e-10      6477.48
       705.90000  1.29085e-10      6476.19
       706.00000  1.29085e-10      6473.61
       706.10000  1.29085e-10      6471.02
       706.20000  1.29085e-10      6467.15
       706.30000  1.29182e-10      6468.14
       706.40000  1.29182e-10      6464.26
       706.50000  1.10873e-10      5543.63
       706.60000  1.10873e-10      5539.20
       706.70000  1.10873e-10      5534.76
       706.80000  1.10873e-10      5529.22
       706.90000  1.10873e-10      5523.68
       707.00000  1.10873e-10      5518.13
       707.10000  1.10873e-10      5513.70
       707.20000  1.10873e-10      5510.37
       707.30000  1.10873e-10      5505.94
       707.40000  1.10873e-10      5502.61
       707.50000  9.22621e-11      4576.20
       707.60000  9.22621e-11      4573.43
       707.70000  9.22621e-11      4571.58
       707.80000  9.22621e-11      4568.82
       707.90000  9.22621e-11      4566.97
       708.00000  9.22621e-11      4565.13
       708.10000  9.22621e-11      4563.28
       708.20000  9.22621e-11      4561.44
       708.30000  9.22621e-11      4559.59
       708.40000  9.22621e-11      4557.75
       708.50000  1.02679e-10      5071.33
       708.60000  1.02679e-10      5069.28
       708.70000  1.02679e-10      5068.25
       708.80000  1.02330e-10      5049.97
       708.90000  1.02330e-10      5048.95
       709.00000  1.02330e-10      5048.95
       709.10000  1.02330e-10      5050.99
       709.20000  1.02330e-10      5053.04
       709.30000  1.02330e-10      5054.06
       709.40000  1.02330e-10      5056.11
       709.50000  9.41321e-11      4652.01
       709.60000  9.41321e-11      4653.89
       709.70000  9.41321e-11      4654.83
       709.80000  9.41321e-11      4655.77
       709.90000  9.41321e-11      4656.71
       710.00000  9.41321e-11      4657.66
       710.10000  9.41321e-11      4658.60
       710.20000  9.41321e-11      4659.54
       710.30000  9.41321e-11      4659.54
       710.40000  9.41321e-11      4660.48
       710.50000  8.95489e-11      4433.57
       710.60000  8.95489e-11      4433.57
       710.70000  8.95489e-11      4433.57
       710.80000  8.95489e-11      4433.57
       710.90000  8.95489e-11      4433.57
       711.00000  8.95489e-11      4433.57
       711.10000  8.95489e-11      4433.57
       711.20000  8.95489e-11      4432.67
       711.30000  8.95682e-11      4433.63
       711.40000  8.95682e-11      4432.73
       711.50000  8.77432e-11      4341.53
       711.60000  8.77432e-11      4340.65
       711.70000  8.77432e-11      4339.78
       711.80000  8.77432e-11      4338.90
       711.90000  8.77432e-11      4338.02
       712.00000  8.77432e-11      4336.27
       712.10000  8.77432e-11      4335.39
       712.20000  8.77432e-11      4333.64
       712.30000  8.77432e-11      4332.76
       712.40000  8.77432e-11      4331.00
       712.50000  8.71311e-11      4299.05
       712.60000  8.71311e-11      4297.31
       712.70000  8.71311e-11      4294.69
       712.80000  8.71311e-11      4292.95
       712.90000  8.71311e-11      4291.21
       713.00000  8.71311e-11      4288.59
       713.10000  8.71311e-11      4288.59
       713.20000  8.71311e-11      4288.59
       713.30000  8.71311e-11      4288.59
       713.40000  8.71311e-11      4287.72
       713.50000  7.55843e-11      3719.51
       713.60000  7.55843e-11      3719.51
       713.70000  7.55843e-11      3718.75
       713.80000  7.55667e-11      3717.88
       713.90000  7.55667e-11      3717.13
       714.00000  7.55667e-11      3717.13
       714.10000  7.55667e-11      3716.37
       714.20000  7.55667e-11      3715.61
       714.30000  7.55667e-11      3715.61
       714.40000  7.55667e-11      3714.86
       714.50000  8.06408e-11      3963.50
       714.60000  8.06408e-11      3962.69
       714.70000  8.06408e-11      3962.69
       714.80000  8.06408e-11      3961.88
       714.90000  8.06408e-11      3961.08
       715.00000  8.06408e-11      3960.27
       715.10000  8.06408e-11      3959.46
       715.20000  8.06408e-11      3959.46
       715.30000  8.06408e-11      3959.46
       715.40000  8.06408e-11      3958.66
       715.50000  7.40007e-11      3631.95
       715.60000  7.40007e-11      3631.21
       715.70000  7.40007e-11      3630.47
       715.80000  7.40007e-11      3629.73
       715.90000  7.40007e-11      3628.99
       716.00000  7.40007e-11      3627.51
       716.10000  7.40007e-11      3626.77
       716.20000  7.40007e-11      3625.29
       716.30000  7.38940e-11      3618.59
       716.40000  7.38940e-11      3617.11
       716.50000  7.78768e-11      3810.51
       716.60000  7.78768e-11      3808.95
       716.70000  7.78768e-11      3807.40
       716.80000  7.78768e-11      3805.06
       716.90000  7.78768e-11      3803.50
       717.00000  7.78768e-11      3801.17
       717.10000  7.78768e-11      3798.83
       717.20000  7.78768e-11      3796.49
       717.30000  7.78768e-11      3794.16
       717.40000  7.78768e-11      3791.82
       717.50000  7.53821e-11      3668.09
       717.60000  7.53821e-11      3665.08
       717.70000  7.53821e-11      3662.82
       717.80000  7.53821e-11      3659.80
       717.90000  7.53821e-11      3656.79
       718.00000  7.53821e-11      3653.77
       718.10000  7.53821e-11      3650.76
       718.20000  7.53821e-11      3647.74
       718.30000  7.53821e-11      3644.73
       718.40000  7.53821e-11      3640.96
       718.50000  7.57997e-11      3658.10
       718.60000  7.57997e-11      3654.31
       718.70000  7.57997e-11      3650.52
       718.80000  7.54884e-11      3631.75
       718.90000  7.54884e-11      3627.97
       719.00000  7.54884e-11      3624.20
       719.10000  7.54884e-11      3624.20
       719.20000  7.54884e-11      3624.20
       719.30000  7.54884e-11      3624.20
       719.40000  7.54884e-11      3624.95
       719.50000  7.21998e-11      3467.03
       719.60000  7.21998e-11      3467.76
       719.70000  7.21998e-11      3467.76
       719.80000  7.21998e-11      3468.48
       719.90000  7.21998e-11      3469.20
       720.00000  7.21998e-11      3470.64
       720.10000  7.21998e-11      3471.36
       720.20000  7.21998e-11      3472.09
       720.30000  7.21998e-11      3473.53
       720.40000  7.21998e-11      3474.25
       720.50000  6.29746e-11      3031.60
       720.60000  6.29746e-11      3032.86
       720.70000  6.29746e-11      3034.12
       720.80000  6.29746e-11      3035.38
       720.90000  6.29746e-11      3037.27
       721.00000  6.29746e-11      3038.53
       721.10000  6.29746e-11      3041.67
       721.20000  6.29746e-11      3044.82
       721.30000  6.28464e-11      3041.77
       721.40000  6.28464e-11      3044.28
       721.50000  4.64736e-11      2253.50
       721.60000  4.64736e-11      2255.36
       721.70000  4.64736e-11      2257.22
       721.80000  4.64736e-11      2259.55
       721.90000  4.64736e-11      2261.41
       722.00000  4.64736e-11      2262.80
       722.10000  4.64736e-11      2264.66
       722.20000  4.64736e-11      2266.52
       722.30000  4.64736e-11      2267.91
       722.40000  4.64736e-11      2269.31
       722.50000  5.29841e-11      2588.80
       722.60000  5.29841e-11      2590.92
       722.70000  5.29841e-11      2591.98
       722.80000  5.29841e-11      2593.57
       722.90000  5.29841e-11      2595.16
       723.00000  5.29841e-11      2596.22
       723.10000  5.29841e-11      2597.81
       723.20000  5.29841e-11      2598.87
       723.30000  5.29841e-11      2599.93
       723.40000  5.29841e-11      2600.99
       723.50000  4.08333e-11      2005.32
       723.60000  4.08333e-11      2005.73
       723.70000  4.08333e-11      2006.55
       723.80000  4.07080e-11      2000.80
       723.90000  4.07080e-11      2001.20
       724.00000  4.07080e-11      2001.61
       724.10000  4.07080e-11      2002.02
       724.20000  4.07080e-11      2002.43
       724.30000  4.07080e-11      2002.83
       724.40000  4.07080e-11      2003.24
       724.50000  3.41636e-11      1681.19
       724.60000  3.41636e-11      1681.19
       724.70000  3.41636e-11      1681.19
       724.80000  3.41636e-11      1681.19
       724.90000  3.41636e-11      1681.19
       725.00000  3.41636e-11      1681.19
       725.10000  3.41636e-11      1681.87
       725.20000  3.41636e-11      1682.56
       725.30000  3.41636e-11      1682.90
       725.40000  3.41636e-11      1683.58
       725.50000  2.71805e-11      1339.73
       725.60000  2.71805e-11      1340.00
       725.70000  2.71805e-11      1340.00
       725.80000  2.71805e-11      1340.27
       725.90000  2.71805e-11      1340.27
       726.00000  2.71805e-11      1340.27
       726.10000  2.71805e-11      1340.27
       726.20000  2.71805e-11      1340.27
       726.30000  2.71098e-11      1336.51
       726.40000  2.71098e-11      1336.24
       726.50000  3.21328e-11      1583.51
       726.60000  3.21328e-11      1583.18
       726.70000  3.21328e-11      1582.86
       726.80000  3.21328e-11      1582.22
       726.90000  3.21328e-11      1581.58
       727.00000  3.21328e-11      1580.93
       727.10000  3.21328e-11      1578.69
       727.20000  3.21328e-11      1576.44
       727.30000  3.21328e-11      1574.19
       727.40000  3.21328e-11      1572.26
       727.50000  2.12910e-11      1040.49
       727.60000  2.12910e-11      1039.21
       727.70000  2.12910e-11      1038.15
       727.80000  2.12910e-11      1037.09
       727.90000  2.12910e-11      1036.02
       728.00000  2.12910e-11      1035.17
       728.10000  2.12910e-11      1034.32
       728.20000  2.12910e-11      1033.47
       728.30000  2.12910e-11      1032.61
       728.40000  2.12910e-11      1031.98
       728.50000  2.03612e-11      986.298
       728.60000  2.03612e-11      985.891
       728.70000  2.03612e-11      985.280
       728.80000  2.03655e-11      985.284
       728.90000  2.03655e-11      984.876
       729.00000  2.03655e-11      984.673
       729.10000  2.03655e-11      984.469
       729.20000  2.03655e-11      984.265
       729.30000  2.03655e-11      984.265
       729.40000  2.03655e-11      984.062
       729.50000  2.15280e-11      1040.45
       729.60000  2.15280e-11      1040.45
       729.70000  2.15280e-11      1040.66
       729.80000  2.15280e-11      1040.88
       729.90000  2.15280e-11      1041.31
       730.00000  2.15280e-11      1041.74
       730.10000  2.15280e-11      1042.17
       730.20000  2.15280e-11      1042.60
       730.30000  2.15280e-11      1043.25
       730.40000  2.15280e-11      1043.89
       730.50000  1.71826e-11      833.700
       730.60000  1.71826e-11      834.388
       730.70000  1.71826e-11      835.075
       730.80000  1.71826e-11      835.762
       730.90000  1.71826e-11      836.621
       731.00000  1.71826e-11      837.481
       731.10000  1.71826e-11      837.309
       731.20000  1.71826e-11      837.137
       731.30000  1.71700e-11      836.349
       731.40000  1.71700e-11      836.349
       731.50000  2.47883e-11      1207.19
       731.60000  2.47883e-11      1206.94
       731.70000  2.47883e-11      1206.69
       731.80000  2.47883e-11      1206.69
       731.90000  2.47883e-11      1206.45
       732.00000  2.47883e-11      1206.20
       732.10000  2.47883e-11      1205.95
       732.20000  2.47883e-11      1205.70
       732.30000  2.47883e-11      1205.70
       732.40000  2.47883e-11      1205.45
       732.50000  1.65476e-11      804.546
       732.60000  1.65476e-11      804.381
       732.70000  1.65476e-11      804.215
       732.80000  1.65476e-11      804.050
       732.90000  1.65476e-11      803.884
       733.00000  1.65476e-11      803.719
       733.10000  1.65476e-11      803.553
       733.20000  1.65476e-11      803.222
       733.30000  1.65476e-11      803.057
       733.40000  1.65476e-11      802.726
       733.50000  1.50868e-11      731.712
       733.60000  1.50868e-11      731.561
       733.70000  1.50868e-11      731.259
       733.80000  1.50619e-11      729.901
       733.90000  1.50619e-11      729.750
       734.00000  1.50619e-11      729.600
       734.10000  1.50619e-11      729.449
       734.20000  1.50619e-11      729.299
       734.30000  1.50619e-11      729.148
       734.40000  1.50619e-11      729.148
       734.50000  1.13422e-11      548.963
       734.60000  1.13422e-11      548.850
       734.70000  1.13422e-11      548.850
       734.80000  1.13422e-11      548.736
       734.90000  1.13422e-11      548.736
       735.00000  1.13422e-11      548.623
       735.10000  1.13422e-11      548.623
       735.20000  1.13422e-11      548.623
       735.30000  1.13422e-11      548.623
       735.40000  1.13422e-11      548.509
       735.50000  1.29670e-11      627.086
       735.60000  1.29670e-11      627.086
       735.70000  1.29670e-11      627.086
       735.80000  1.29670e-11      627.215
       735.90000  1.29670e-11      627.215
       736.00000  1.29670e-11      627.215
       736.10000  1.29670e-11      627.215
       736.20000  1.29670e-11      627.345
       736.30000  1.29423e-11      626.147
       736.40000  1.29423e-11      626.276
       736.50000  1.06274e-11      514.258
       736.60000  1.06274e-11      514.364
       736.70000  1.06274e-11      514.471
       736.80000  1.06274e-11      514.471
       736.90000  1.06274e-11      514.577
       737.00000  1.06274e-11      514.683
       737.10000  1.06274e-11      514.152
       737.20000  1.06274e-11      513.514
       737.30000  1.06274e-11      512.983
       737.40000  1.06274e-11      512.451
       737.50000  1.36040e-11      655.167
       737.60000  1.36040e-11      654.487
       737.70000  1.36040e-11      653.807
       737.80000  1.36040e-11      653.127
       737.90000  1.36040e-11      652.583
       738.00000  1.36040e-11      651.902
       738.10000  1.36040e-11      651.222
       738.20000  1.36040e-11      650.542
       738.30000  1.36040e-11      649.998
       738.40000  1.36040e-11      649.454
       738.50000  1.16976e-11      557.857
       738.60000  1.16976e-11      557.389
       738.70000  1.16976e-11      556.921
       738.80000  1.16484e-11      554.116
       738.90000  1.16484e-11      553.650
       739.00000  1.16484e-11      553.184
       739.10000  1.16484e-11      552.252
       739.20000  1.16484e-11      551.436
       739.30000  1.16484e-11      550.737
       739.40000  1.16484e-11      550.039
       739.50000  1.18381e-11      558.283
       739.60000  1.18381e-11      557.691
       739.70000  1.18381e-11      557.218
       739.80000  1.18381e-11      556.626
       739.90000  1.18381e-11      556.271
       740.00000  1.18381e-11      555.797
       740.10000  1.18381e-11      555.560
       740.20000  1.18381e-11      555.205
       740.30000  1.18381e-11      554.969
       740.40000  1.18381e-11      554.850
       740.50000  1.00948e-11      473.044
       740.60000  1.00948e-11      472.943
       740.70000  1.00948e-11      472.943
       740.80000  1.00948e-11      472.943
       740.90000  1.00948e-11      473.044
       741.00000  1.00948e-11      473.145
       741.10000  1.00948e-11      473.347
       741.20000  1.00948e-11      473.549
       741.30000  1.00880e-11      473.428
       741.40000  1.00880e-11      473.731
       741.50000  1.04184e-11      489.562
       741.60000  1.04184e-11      489.978
       741.70000  1.04184e-11      490.499
       741.80000  1.04184e-11      490.916
       741.90000  1.04184e-11      491.541
       742.00000  1.04184e-11      492.062
       742.10000  1.04184e-11      492.687
       742.20000  1.04184e-11      493.417
       742.30000  1.04184e-11      494.146
       742.40000  1.04184e-11      494.875
       742.50000  1.39421e-11      663.363
       742.60000  1.39421e-11      664.478
       742.70000  1.39421e-11      665.733
       742.80000  1.39421e-11      666.988
       742.90000  1.39421e-11      668.382
       743.00000  1.39421e-11      669.776
       743.10000  1.39421e-11      669.497
       743.20000  1.39421e-11      669.358
       743.30000  1.39421e-11      669.219
       743.40000  1.39421e-11      668.940
       743.50000  1.57196e-12      75.4072
       743.60000  1.57196e-12      75.3914
       743.70000  1.57196e-12      75.3757
       743.80000  1.57126e-12      75.3263
       743.90000  1.57126e-12      75.3106
       744.00000  1.57126e-12      75.2949
       744.10000  1.57126e-12      75.2949
       744.20000  1.57126e-12      75.2792
       744.30000  1.57126e-12      75.2792
       744.40000  1.57126e-12      75.2792
       744.50000  4.21017e-12      201.667
       744.60000  4.21017e-12      201.667
       744.70000  4.21017e-12      201.667
       744.80000  4.21017e-12      201.667
       744.90000  4.21017e-12      201.709
       745.00000  4.21017e-12      201.709
       745.10000  4.21017e-12      201.836
       745.20000  4.21017e-12      201.962
       745.30000  4.21017e-12      202.046
       745.40000  4.21017e-12      202.173
       745.50000  1.51270e-11      726.699
       745.60000  1.51270e-11      727.002
       745.70000  1.51270e-11      727.304
       745.80000  1.51270e-11      727.607
       745.90000  1.51270e-11      727.758
       746.00000  1.51270e-11      728.061
       746.10000  1.51270e-11      728.212
       746.20000  1.51270e-11      728.363
       746.30000  1.50580e-11      725.192
       746.40000  1.50580e-11      725.343
       746.50000  1.00932e-11      486.292
       746.60000  1.00932e-11      486.292
       746.70000  1.00932e-11      486.393
       746.80000  1.00932e-11      486.393
       746.90000  1.00932e-11      486.393
       747.00000  1.00932e-11      486.393
       747.10000  1.00932e-11      486.090
       747.20000  1.00932e-11      485.888
       747.30000  1.00932e-11      485.686
       747.40000  1.00932e-11      485.484
       747.50000  8.81989e-12      424.060
       747.60000  8.81989e-12      423.884
       747.70000  8.81989e-12      423.707
       747.80000  8.81989e-12      423.531
       747.90000  8.81989e-12      423.355
       748.00000  8.81989e-12      423.178
       748.10000  8.81989e-12      423.090
       748.20000  8.81989e-12      422.914
       748.30000  8.81989e-12      422.737
       748.40000  8.81989e-12      422.649
       748.50000  7.23292e-12      346.457
       748.60000  7.23292e-12      346.312
       748.70000  7.23292e-12      346.240
       748.80000  7.20742e-12      344.875
       748.90000  7.20742e-12      344.803
       749.00000  7.20742e-12      344.731
       749.10000  7.20742e-12      344.587
       749.20000  7.20742e-12      344.515
       749.30000  7.20742e-12      344.443
       749.40000  7.20742e-12      344.371
       749.50000  1.20903e-11      577.556
       749.60000  1.20903e-11      577.435
       749.70000  1.20903e-11      577.193
       749.80000  1.20903e-11      577.072
       749.90000  1.20903e-11      577.072
       750.00000  1.20903e-11      576.951
       750.10000  1.20903e-11      576.831
       750.20000  1.20903e-11      576.710
       750.30000  1.20903e-11      576.589
       750.40000  1.20903e-11      576.589
       750.50000  1.32264e-11      630.637
       750.60000  1.32264e-11      630.505
       750.70000  1.32264e-11      630.505
       750.80000  1.32264e-11      630.372
       750.90000  1.32264e-11      630.372
       751.00000  1.32264e-11      630.240
       751.10000  1.32264e-11      630.240
       751.20000  1.32264e-11      630.240
       751.30000  1.31968e-11      628.698
       751.40000  1.31968e-11      628.698
       751.50000  1.20763e-11      575.313
       751.60000  1.20763e-11      575.313
       751.70000  1.20763e-11      575.313
       751.80000  1.20763e-11      575.313
       751.90000  1.20763e-11      575.313
       752.00000  1.20763e-11      575.313
       752.10000  1.20763e-11      575.313
       752.20000  1.20763e-11      575.313
       752.30000  1.20763e-11      575.313
       752.40000  1.20763e-11      575.313
       752.50000  1.07919e-11      514.235
       752.60000  1.07919e-11      514.235
       752.70000  1.07919e-11      514.235
       752.80000  1.07919e-11      514.343
       752.90000  1.07919e-11      514.343
       753.00000  1.07919e-11      514.451
       753.10000  1.07919e-11      514.451
       753.20000  1.07919e-11      514.451
       753.30000  1.07919e-11      514.451
       753.40000  1.07919e-11      514.451
       753.50000  1.51127e-11      720.420
       753.60000  1.51127e-11      720.420
       753.70000  1.51127e-11      720.420
       753.80000  1.51050e-11      720.057
       753.90000  1.51050e-11      720.057
       754.00000  1.51050e-11      720.057
       754.10000  1.51050e-11      720.057
       754.20000  1.51050e-11      719.906
       754.30000  1.51050e-11      719.906
       754.40000  1.51050e-11      719.906
       754.50000  9.62082e-12      458.528
       754.60000  9.62082e-12      458.528
       754.70000  9.62082e-12      458.432
       754.80000  9.62082e-12      458.432
       754.90000  9.62082e-12      458.336
       755.00000  9.62082e-12      458.336
       755.10000  9.62082e-12      458.239
       755.20000  9.62082e-12      458.239
       755.30000  9.62082e-12      458.143
       755.40000  9.62082e-12      458.143
       755.50000  1.04172e-11      495.964
       755.60000  1.04172e-11      495.860
       755.70000  1.04172e-11      495.860
       755.80000  1.04172e-11      495.756
       755.90000  1.04172e-11      495.651
       756.00000  1.04172e-11      495.651
       756.10000  1.04172e-11      495.547
       756.20000  1.04172e-11      495.443
       756.30000  1.04006e-11      494.549
       756.40000  1.04006e-11      494.549
       756.50000  1.33643e-11      635.340
       756.60000  1.33643e-11      635.206
       756.70000  1.33643e-11      635.073
       756.80000  1.33643e-11      635.073
       756.90000  1.33643e-11      634.939
       757.00000  1.33643e-11      634.806
       757.10000  1.33643e-11      634.672
       757.20000  1.33643e-11      634.538
       757.30000  1.33643e-11      634.538
       757.40000  1.33643e-11      634.405
       757.50000  1.45334e-11      689.755
       757.60000  1.45334e-11      689.609
       757.70000  1.45334e-11      689.464
       757.80000  1.45334e-11      689.319
       757.90000  1.45334e-11      689.173
       758.00000  1.45334e-11      689.173
       758.10000  1.45334e-11      689.028
       758.20000  1.45334e-11      688.883
       758.30000  1.45334e-11      688.737
       758.40000  1.45334e-11      688.592
       758.50000  1.00716e-11      477.091
       758.60000  1.00716e-11      476.990
       758.70000  1.00716e-11      476.889
       758.80000  1.00444e-11      475.502
       758.90000  1.00444e-11      475.402
       759.00000  1.00444e-11      475.301
       759.10000  1.00444e-11      475.301
       759.20000  1.00444e-11      475.201
       759.30000  1.00444e-11      475.201
       759.40000  1.00444e-11      475.100
       759.50000  1.23732e-11      585.251
       759.60000  1.23732e-11      585.251
       759.70000  1.23732e-11      585.127
       759.80000  1.23732e-11      585.127
       759.90000  1.23732e-11      585.127
       760.00000  1.23732e-11      585.127
       760.10000  1.23732e-11      585.127
       760.20000  1.23732e-11      585.127
       760.30000  1.23732e-11      585.251
       760.40000  1.23732e-11      585.251
       760.50000  1.09387e-11      517.400
       760.60000  1.09387e-11      517.509
       760.70000  1.09387e-11      517.509
       760.80000  1.09387e-11      517.619
       760.90000  1.09387e-11      517.619
       761.00000  1.09387e-11      517.728
       761.10000  1.09387e-11      518.166
       761.20000  1.09387e-11      518.494
       761.30000  1.09159e-11      517.743
       761.40000  1.09159e-11      518.071
       761.50000  1.17389e-11      557.480
       761.60000  1.17389e-11      557.714
       761.70000  1.17389e-11      557.949
       761.80000  1.17389e-11      558.184
       761.90000  1.17389e-11      558.419
       762.00000  1.17389e-11      558.536
       762.10000  1.17389e-11      558.771
       762.20000  1.17389e-11      558.888
       762.30000  1.17389e-11      559.006
       762.40000  1.17389e-11      559.006
       762.50000  9.34211e-12      444.871
       762.60000  9.34211e-12      444.965
       762.70000  9.34211e-12      444.965
       762.80000  9.34211e-12      444.871
       762.90000  9.34211e-12      444.871
       763.00000  9.34211e-12      444.778
       763.10000  9.34211e-12      444.684
       763.20000  9.34211e-12      444.591
       763.30000  9.34211e-12      444.404
       763.40000  9.34211e-12      444.217
       763.50000  1.15451e-11      548.737
       763.60000  1.15451e-11      548.506
       763.70000  1.15451e-11      548.275
       763.80000  1.15155e-11      546.526
       763.90000  1.15155e-11      546.180
       764.00000  1.15155e-11      545.835
       764.10000  1.15155e-11      545.490
       764.20000  1.15155e-11      545.029
       764.30000  1.15155e-11      544.568
       764.40000  1.15155e-11      544.108
       764.50000  1.02815e-11      485.389
       764.60000  1.02815e-11      484.977
       764.70000  1.02815e-11      484.463
       764.80000  1.02815e-11      483.949
       764.90000  1.02815e-11      483.435
       765.00000  1.02815e-11      482.818
       765.10000  1.02815e-11      481.687
       765.20000  1.02815e-11      480.556
       765.30000  1.02815e-11      479.528
       765.40000  1.02815e-11      478.500
       765.50000  1.16978e-11      543.364
       765.60000  1.16978e-11      542.428
       765.70000  1.16978e-11      541.376
       765.80000  1.16978e-11      540.557
       765.90000  1.16978e-11      539.738
       766.00000  1.16978e-11      538.919
       766.10000  1.16978e-11      538.217
       766.20000  1.16978e-11      537.515
       766.30000  1.16975e-11      536.916
       766.40000  1.16975e-11      536.448
       766.50000  1.50435e-11      689.294
       766.60000  1.50435e-11      688.692
       766.70000  1.50435e-11      688.391
       766.80000  1.50435e-11      687.940
       766.90000  1.50435e-11      687.639
       767.00000  1.50435e-11      687.489
       767.10000  1.50435e-11      688.241
       767.20000  1.50435e-11      689.143
       767.30000  1.50435e-11      689.896
       767.40000  1.50435e-11      690.648
       767.50000  1.49239e-11      685.904
       767.60000  1.49239e-11      686.650
       767.70000  1.49239e-11      687.396
       767.80000  1.49239e-11      687.993
       767.90000  1.49239e-11      688.739
       768.00000  1.49239e-11      689.336
       768.10000  1.49239e-11      689.933
       768.20000  1.49239e-11      690.530
       768.30000  1.49239e-11      690.978
       768.40000  1.49239e-11      691.575
       768.50000  1.27340e-11      590.477
       768.60000  1.27340e-11      590.859
       768.70000  1.27340e-11      591.241
       768.80000  1.27273e-11      591.309
       768.90000  1.27273e-11      591.691
       769.00000  1.27273e-11      591.946
       769.10000  1.27273e-11      592.327
       769.20000  1.27273e-11      592.582
       769.30000  1.27273e-11      592.836
       769.40000  1.27273e-11      593.091
       769.50000  1.22724e-11      572.017
       769.60000  1.22724e-11      572.263
       769.70000  1.22724e-11      572.385
       769.80000  1.22724e-11      572.631
       769.90000  1.22724e-11      572.754
       770.00000  1.22724e-11      572.754
       770.10000  1.22724e-11      572.876
       770.20000  1.22724e-11      572.999
       770.30000  1.22724e-11      572.999
       770.40000  1.22724e-11      572.999
       770.50000  9.18280e-12      428.745
       770.60000  9.18280e-12      428.745
       770.70000  9.18280e-12      428.745
       770.80000  9.18280e-12      428.745
       770.90000  9.18280e-12      428.653
       771.00000  9.18280e-12      428.561
       771.10000  9.18280e-12      428.929
       771.20000  9.18280e-12      429.204
       771.30000  9.15470e-12      428.165
       771.40000  9.15470e-12      428.440
       771.50000  9.40832e-12      440.592
       771.60000  9.40832e-12      440.780
       771.70000  9.40832e-12      441.062
       771.80000  9.40832e-12      441.250
       771.90000  9.40832e-12      441.344
       772.00000  9.40832e-12      441.533
       772.10000  9.40832e-12      441.627
       772.20000  9.40832e-12      441.721
       772.30000  9.40832e-12      441.815
       772.40000  9.40832e-12      441.909
       772.50000  1.59783e-11      750.499
       772.60000  1.59783e-11      750.499
       772.70000  1.59783e-11      750.499
       772.80000  1.59783e-11      750.339
       772.90000  1.59783e-11      750.339
       773.00000  1.59783e-11      750.180
       773.10000  1.59783e-11      749.221
       773.20000  1.59783e-11      748.422
       773.30000  1.59783e-11      747.463
       773.40000  1.59783e-11      746.664
       773.50000  1.63242e-11      762.015
       773.60000  1.63242e-11      761.363
       773.70000  1.63242e-11      760.710
       773.80000  1.62597e-11      757.050
       773.90000  1.62597e-11      756.399
       774.00000  1.62597e-11      755.749
       774.10000  1.62597e-11      755.261
       774.20000  1.62597e-11      754.773
       774.30000  1.62597e-11      754.448
       774.40000  1.62597e-11      753.960
       774.50000  1.24833e-11      578.603
       774.60000  1.24833e-11      578.478
       774.70000  1.24833e-11      578.228
       774.80000  1.24833e-11      578.104
       774.90000  1.24833e-11      577.979
       775.00000  1.24833e-11      577.854
       775.10000  1.24833e-11      577.854
       775.20000  1.24833e-11      577.854
       775.30000  1.24833e-11      577.854
       775.40000  1.24833e-11      577.854
       775.50000  1.48203e-11      686.181
       775.60000  1.48203e-11      686.329
       775.70000  1.48203e-11      686.478
       775.80000  1.48203e-11      686.626
       775.90000  1.48203e-11      686.922
       776.00000  1.48203e-11      687.219
       776.10000  1.48203e-11      687.515
       776.20000  1.48203e-11      687.960
       776.30000  1.47828e-11      686.659
       776.40000  1.47828e-11      687.102
       776.50000  1.15743e-11      538.322
       776.60000  1.15743e-11      538.785
       776.70000  1.15743e-11      539.248
       776.80000  1.15743e-11      539.711
       776.90000  1.15743e-11      540.290
       777.00000  1.15743e-11      540.753
       777.10000  1.15743e-11      540.521
       777.20000  1.15743e-11      540.406
       777.30000  1.15743e-11      540.174
       777.40000  1.15743e-11      539.943
       777.50000  1.52486e-11      711.041
       777.60000  1.52486e-11      710.889
       777.70000  1.52486e-11      710.584
       777.80000  1.52486e-11      710.432
       777.90000  1.52486e-11      710.279
       778.00000  1.52486e-11      709.974
       778.10000  1.52486e-11      709.822
       778.20000  1.52486e-11      709.669
       778.30000  1.52486e-11      709.517
       778.40000  1.52486e-11      709.364
       778.50000  1.67376e-11      778.633
       778.60000  1.67376e-11      778.466
       778.70000  1.67376e-11      778.299
       778.80000  1.66952e-11      776.327
       778.90000  1.66952e-11      776.327
       779.00000  1.66952e-11      776.160
       779.10000  1.66952e-11      776.494
       779.20000  1.66952e-11      776.661
       779.30000  1.66952e-11      776.995
       779.40000  1.66952e-11      777.162
       779.50000  1.78282e-11      830.082
       779.60000  1.78282e-11      830.260
       779.70000  1.78282e-11      830.438
       779.80000  1.78282e-11      830.617
       779.90000  1.78282e-11      830.795
       780.00000  1.78282e-11      830.973
       780.10000  1.78282e-11      830.973
       780.20000  1.78282e-11      831.151
       780.30000  1.78282e-11      831.151
       780.40000  1.78282e-11      831.151
       780.50000  1.16336e-11      542.359
       780.60000  1.16336e-11      542.359
       780.70000  1.16336e-11      542.359
       780.80000  1.16336e-11      542.359
       780.90000  1.16336e-11      542.359
       781.00000  1.16336e-11      542.243
       781.10000  1.16336e-11      542.243
       781.20000  1.16336e-11      542.127
       781.30000  1.15689e-11      538.997
       781.40000  1.15689e-11      538.881
       781.50000  1.44966e-11      675.109
       781.60000  1.44966e-11      674.964
       781.70000  1.44966e-11      674.819
       781.80000  1.44966e-11      674.674
       781.90000  1.44966e-11      674.384
       782.00000  1.44966e-11      674.239
       782.10000  1.44966e-11      673.949
       782.20000  1.44966e-11      673.659
       782.30000  1.44966e-11      673.514
       782.40000  1.44966e-11      673.224
       782.50000  1.16066e-11      538.779
       782.60000  1.16066e-11      538.431
       782.70000  1.16066e-11      538.199
       782.80000  1.16066e-11      537.967
       782.90000  1.16066e-11      537.619
       783.00000  1.16066e-11      537.386
       783.10000  1.16066e-11      537.619
       783.20000  1.16066e-11      537.851
       783.30000  1.16066e-11      538.083
       783.40000  1.16066e-11      538.199
       783.50000  1.70480e-11      790.857
       783.60000  1.70480e-11      791.198
       783.70000  1.70480e-11      791.368
       783.80000  1.69611e-11      787.674
       783.90000  1.69611e-11      788.013
       784.00000  1.69611e-11      788.182
       784.10000  1.69611e-11      788.352
       784.20000  1.69611e-11      788.691
       784.30000  1.69611e-11      788.861
       784.40000  1.69611e-11      789.030
       784.50000  1.38702e-11      645.379
       784.60000  1.38702e-11      645.518
       784.70000  1.38702e-11      645.657
       784.80000  1.38702e-11      645.795
       784.90000  1.38702e-11      645.934
       785.00000  1.38702e-11      645.934
       785.10000  1.38702e-11      645.934
       785.20000  1.38702e-11      645.934
       785.30000  1.38702e-11      645.934
       785.40000  1.38702e-11      645.934
       785.50000  1.16404e-11      542.095
       785.60000  1.16404e-11      542.095
       785.70000  1.16404e-11      542.095
       785.80000  1.16404e-11      542.095
       785.90000  1.16404e-11      542.095
       786.00000  1.16404e-11      542.095
       786.10000  1.16404e-11      542.095
       786.20000  1.16404e-11      542.095
       786.30000  1.16209e-11      541.187
       786.40000  1.16209e-11      541.187
       786.50000  1.57809e-11      734.917
       786.60000  1.57809e-11      734.917
       786.70000  1.57809e-11      734.917
       786.80000  1.57809e-11      734.917
       786.90000  1.57809e-11      734.917
       787.00000  1.57809e-11      734.917
       787.10000  1.57809e-11      734.917
       787.20000  1.57809e-11      734.917
       787.30000  1.57809e-11      734.917
       787.40000  1.57809e-11      734.917
       787.50000  1.94112e-11      903.981
       787.60000  1.94112e-11      903.981
       787.70000  1.94112e-11      903.981
       787.80000  1.94112e-11      903.981
       787.90000  1.94112e-11      903.981
       788.00000  1.94112e-11      903.981
       788.10000  1.94112e-11      903.981
       788.20000  1.94112e-11      903.981
       788.30000  1.94112e-11      903.981
       788.40000  1.94112e-11      903.981
       788.50000  1.36448e-11      635.439
       788.60000  1.36448e-11      635.439
       788.70000  1.36448e-11      635.439
       788.80000  1.36472e-11      635.550
       788.90000  1.36472e-11      635.550
       789.00000  1.36472e-11      635.550
       789.10000  1.36472e-11      635.277
       789.20000  1.36472e-11      634.868
       789.30000  1.36472e-11      634.458
       789.40000  1.36472e-11      634.185
       789.50000  1.38767e-11      644.432
       789.60000  1.38767e-11      644.016
       789.70000  1.38767e-11      643.739
       789.80000  1.38767e-11      643.322
       789.90000  1.38767e-11      642.906
       790.00000  1.38767e-11      642.628
       790.10000  1.38767e-11      642.212
       790.20000  1.38767e-11      641.935
       790.30000  1.38767e-11      641.518
       790.40000  1.38767e-11      641.241
       790.50000  1.55486e-11      718.034
       790.60000  1.55486e-11      717.568
       790.70000  1.55486e-11      717.257
       790.80000  1.55486e-11      716.790
       790.90000  1.55486e-11      716.479
       791.00000  1.55486e-11      716.013
       791.10000  1.55486e-11      715.546
       791.20000  1.55486e-11      715.235
       791.30000  1.55033e-11      712.685
       791.40000  1.55033e-11      712.220
       791.50000  1.74509e-11      801.171
       791.60000  1.74509e-11      800.647
       791.70000  1.74509e-11      800.298
       791.80000  1.74509e-11      799.775
       791.90000  1.74509e-11      799.426
       792.00000  1.74509e-11      798.902
       792.10000  1.74509e-11      798.553
       792.20000  1.74509e-11      798.204
       792.30000  1.74509e-11      797.681
       792.40000  1.74509e-11      797.332
       792.50000  1.42901e-11      652.628
       792.60000  1.42901e-11      652.342
       792.70000  1.42901e-11      652.057
       792.80000  1.42901e-11      651.771
       792.90000  1.42901e-11      651.485
       793.00000  1.42901e-11      651.199
       793.10000  1.42901e-11      650.770
       793.20000  1.42901e-11      650.199
       793.30000  1.42901e-11      649.770
       793.40000  1.42901e-11      649.341
       793.50000  1.50445e-11      683.171
       793.60000  1.50445e-11      682.870
       793.70000  1.50445e-11      682.419
       793.80000  1.50016e-11      680.322
       793.90000  1.50016e-11      680.022
       794.00000  1.50016e-11      679.872
       794.10000  1.50016e-11      679.572
       794.20000  1.50016e-11      679.572
       794.30000  1.50016e-11      679.422
       794.40000  1.50016e-11      679.422
       794.50000  1.62540e-11      736.142
       794.60000  1.62540e-11      736.142
       794.70000  1.62540e-11      736.305
       794.80000  1.62540e-11      736.305
       794.90000  1.62540e-11      736.467
       795.00000  1.62540e-11      736.792
       795.10000  1.62540e-11      737.930
       795.20000  1.62540e-11      739.068
       795.30000  1.62540e-11      740.206
       795.40000  1.62540e-11      741.343
       795.50000  1.67936e-11      766.963
       795.60000  1.67936e-11      767.971
       795.70000  1.67936e-11      768.810
       795.80000  1.67936e-11      769.650
       795.90000  1.67936e-11      770.490
       796.00000  1.67936e-11      771.161
       796.10000  1.67936e-11      771.833
       796.20000  1.67936e-11      772.505
       796.30000  1.67712e-11      771.980
       796.40000  1.67712e-11      772.483
       796.50000  1.64339e-11      757.438
       796.60000  1.64339e-11      757.767
       796.70000  1.64339e-11      758.095
       796.80000  1.64339e-11      758.260
       796.90000  1.64339e-11      758.424
       797.00000  1.64339e-11      758.588
       797.10000  1.64339e-11      758.753
       797.20000  1.64339e-11      758.753
       797.30000  1.64339e-11      758.753
       797.40000  1.64339e-11      758.588
       797.50000  2.18060e-11      1006.35
       797.60000  2.18060e-11      1006.13
       797.70000  2.18060e-11      1005.69
       797.80000  2.18060e-11      1005.26
       797.90000  2.18060e-11      1004.82
       798.00000  2.18060e-11      1004.17
       798.10000  2.18060e-11      1003.51
       798.20000  2.18060e-11      1002.86
       798.30000  2.18060e-11      1001.99
       798.40000  2.18060e-11      1001.12
       798.50000  1.06101e-11      486.683
       798.60000  1.06101e-11      486.153
       798.70000  1.06101e-11      485.622
       798.80000  1.05858e-11      483.983
       798.90000  1.05858e-11      483.348
       799.00000  1.05858e-11      482.713
       799.10000  1.05858e-11      483.030
       799.20000  1.05858e-11      483.454
       799.30000  1.05858e-11      483.877
       799.40000  1.05858e-11      484.195
       799.50000  3.99709e-12      182.947
       799.60000  3.99709e-12      183.067
       799.70000  3.99709e-12      183.187
       799.80000  3.99709e-12      183.267
       799.90000  3.99709e-12      183.347
       800.00000  3.99709e-12      183.427
       800.10000  3.99709e-12      183.507
       800.20000  3.99709e-12      183.587
       800.30000  3.99709e-12      183.666
       800.40000  3.99709e-12      183.706
       800.50000  8.64092e-12      397.223
       800.60000  8.64092e-12      397.310
       800.70000  8.64092e-12      397.310
       800.80000  8.64092e-12      397.396
       800.90000  8.64092e-12      397.396
       801.00000  8.64092e-12      397.396
       801.10000  8.64092e-12      397.223
       801.20000  8.64092e-12      397.050
       801.30000  8.61556e-12      395.713
       801.40000  8.61556e-12      395.540
       801.50000  6.68476e-12      306.764
       801.60000  6.68476e-12      306.630
       801.70000  6.68476e-12      306.496
       801.80000  6.68476e-12      306.363
       801.90000  6.68476e-12      306.229
       802.00000  6.68476e-12      306.095
       802.10000  6.68476e-12      305.962
       802.20000  6.68476e-12      305.828
       802.30000  6.68476e-12      305.694
       802.40000  6.68476e-12      305.561
       802.50000  1.02817e-11      469.769
       802.60000  1.02817e-11      469.563
       802.70000  1.02817e-11      469.358
       802.80000  1.02817e-11      469.049
       802.90000  1.02817e-11      468.844
       803.00000  1.02817e-11      468.638
       803.10000  1.02817e-11      468.432
       803.20000  1.02817e-11      468.227
       803.30000  1.02817e-11      468.021
       803.40000  1.02817e-11      467.713
       803.50000  9.13851e-12      415.528
       803.60000  9.13851e-12      415.345
       803.70000  9.13851e-12      415.162
       803.80000  9.11012e-12      413.690
       803.90000  9.11012e-12      413.417
       804.00000  9.11012e-12      413.235
       804.10000  9.11012e-12      413.053
       804.20000  9.11012e-12      412.870
       804.30000  9.11012e-12      412.597
       804.40000  9.11012e-12      412.415
       804.50000  7.23986e-12      327.604
       804.60000  7.23986e-12      327.386
       804.70000  7.23986e-12      327.242
       804.80000  7.23986e-12      327.097
       804.90000  7.23986e-12      326.880
       805.00000  7.23986e-12      326.735
       805.10000  7.23986e-12      327.024
       805.20000  7.23986e-12      327.386
       805.30000  7.23986e-12      327.604
       805.40000  7.23986e-12      327.893
       805.50000  7.04505e-12      319.282
       805.60000  7.04505e-12      319.493
       805.70000  7.04505e-12      319.704
       805.80000  7.04505e-12      319.845
       805.90000  7.04505e-12      319.986
       806.00000  7.04505e-12      320.127
       806.10000  7.04505e-12      320.197
       806.20000  7.04505e-12      320.268
       806.30000  7.03127e-12      319.712
       806.40000  7.03127e-12      319.782
       806.50000  6.51784e-12      296.431
       806.60000  6.51784e-12      296.431
       806.70000  6.51784e-12      296.366
       806.80000  6.51784e-12      296.366
       806.90000  6.51784e-12      296.301
       807.00000  6.51784e-12      296.171
       807.10000  6.51784e-12      295.649
       807.20000  6.51784e-12      295.063
       807.30000  6.51784e-12      294.541
       807.40000  6.51784e-12      294.085
       807.50000  6.65819e-12      299.952
       807.60000  6.65819e-12      299.486
       807.70000  6.65819e-12      299.086
       807.80000  6.65819e-12      298.753
       807.90000  6.65819e-12      298.420
       808.00000  6.65819e-12      298.087
       808.10000  6.65819e-12      297.821
       808.20000  6.65819e-12      297.555
       808.30000  6.65819e-12      297.288
       808.40000  6.65819e-12      297.089
       808.50000  6.30395e-12      281.156
       808.60000  6.30395e-12      281.030
       808.70000  6.30395e-12      280.904
       808.80000  6.29799e-12      280.575
       808.90000  6.29799e-12      280.512
       809.00000  6.29799e-12      280.512
       809.10000  6.29799e-12      280.512
       809.20000  6.29799e-12      280.575
       809.30000  6.29799e-12      280.638
       809.40000  6.29799e-12      280.701
       809.50000  8.38963e-12      374.094
       809.60000  8.38963e-12      374.345
       809.70000  8.38963e-12      374.597
       809.80000  8.38963e-12      374.849
       809.90000  8.38963e-12      375.184
       810.00000  8.38963e-12      375.520
       810.10000  8.38963e-12      375.939
       810.20000  8.38963e-12      376.359
       810.30000  8.38963e-12      376.778
       810.40000  8.38963e-12      377.282
       810.50000  1.08755e-11      489.832
       810.60000  1.08755e-11      490.484
       810.70000  1.08755e-11      491.354
       810.80000  1.08755e-11      492.224
       810.90000  1.08755e-11      493.094
       811.00000  1.08755e-11      494.073
       811.10000  1.08755e-11      494.182
       811.20000  1.08755e-11      494.400
       811.30000  1.08683e-11      494.182
       811.40000  1.08683e-11      494.400
       811.50000  1.08847e-11      495.253
       811.60000  1.08847e-11      495.362
       811.70000  1.08847e-11      495.471
       811.80000  1.08847e-11      495.579
       811.90000  1.08847e-11      495.688
       812.00000  1.08847e-11      495.797
       812.10000  1.08847e-11      495.797
       812.20000  1.08847e-11      495.906
       812.30000  1.08847e-11      496.015
       812.40000  1.08847e-11      496.015
       812.50000  1.10068e-11      501.581
       812.60000  1.10068e-11      501.691
       812.70000  1.10068e-11      501.691
       812.80000  1.10068e-11      501.691
       812.90000  1.10068e-11      501.691
       813.00000  1.10068e-11      501.691
       813.10000  1.10068e-11      501.471
       813.20000  1.10068e-11      501.361
       813.30000  1.10068e-11      501.140
       813.40000  1.10068e-11      501.030
       813.50000  1.01382e-11      461.286
       813.60000  1.01382e-11      461.185
       813.70000  1.01382e-11      461.083
       813.80000  1.01370e-11      460.931
       813.90000  1.01370e-11      460.830
       814.00000  1.01370e-11      460.627
       814.10000  1.01370e-11      460.526
       814.20000  1.01370e-11      460.424
       814.30000  1.01370e-11      460.323
       814.40000  1.01370e-11      460.323
       814.50000  7.03854e-12      319.549
       814.60000  7.03854e-12      319.479
       814.70000  7.03854e-12      319.409
       814.80000  7.03854e-12      319.338
       814.90000  7.03854e-12      319.338
       815.00000  7.03854e-12      319.268
       815.10000  7.03854e-12      319.549
       815.20000  7.03854e-12      319.761
       815.30000  7.03854e-12      319.972
       815.40000  7.03854e-12      320.113
       815.50000  1.09752e-11      499.482
       815.60000  1.09752e-11      499.592
       815.70000  1.09752e-11      499.812
       815.80000  1.09752e-11      499.812
       815.90000  1.09752e-11      499.921
       816.00000  1.09752e-11      499.921
       816.10000  1.09752e-11      499.921
       816.20000  1.09752e-11      499.812
       816.30000  1.09749e-11      499.688
       816.40000  1.09749e-11      499.578
       816.50000  9.03455e-12      411.072
       816.60000  9.03455e-12      410.891
       816.70000  9.03455e-12      410.620
       816.80000  9.03455e-12      410.349
       816.90000  9.03455e-12      410.078
       817.00000  9.03455e-12      409.717
       817.10000  9.03455e-12      408.452
       817.20000  9.03455e-12      407.277
       817.30000  9.03455e-12      406.193
       817.40000  9.03455e-12      405.109
       817.50000  9.42021e-12      421.366
       817.60000  9.42021e-12      420.424
       817.70000  9.42021e-12      419.482
       817.80000  9.42021e-12      418.540
       817.90000  9.42021e-12      417.786
       818.00000  9.42021e-12      416.938
       818.10000  9.42021e-12      416.279
       818.20000  9.42021e-12      415.620
       818.30000  9.42021e-12      414.960
       818.40000  9.42021e-12      414.489
       818.50000  1.13522e-11      498.815
       818.60000  1.13522e-11      498.361
       818.70000  1.13522e-11      497.906
       818.80000  1.13505e-11      497.377
       818.90000  1.13505e-11      497.150
       819.00000  1.13505e-11      496.809
       819.10000  1.13505e-11      496.696
       819.20000  1.13505e-11      496.582
       819.30000  1.13505e-11      496.469
       819.40000  1.13505e-11      496.469
       819.50000  8.58876e-12      375.758
       819.60000  8.58876e-12      375.844
       819.70000  8.58876e-12      376.016
       819.80000  8.58876e-12      376.274
       819.90000  8.58876e-12      376.531
       820.00000  8.58876e-12      376.875
       820.10000  8.58876e-12      377.218
       820.20000  8.58876e-12      377.648
       820.30000  8.58876e-12      378.163
       820.40000  8.58876e-12      378.679
       820.50000  8.17828e-12      361.153
       820.60000  8.17828e-12      361.725
       820.70000  8.17828e-12      362.379
       820.80000  8.17828e-12      363.034
       820.90000  8.17828e-12      363.770
       821.00000  8.17828e-12      364.588
       821.10000  8.17828e-12      364.424
       821.20000  8.17828e-12      364.342
       821.30000  8.20172e-12      365.223
       821.40000  8.20172e-12      365.141
       821.50000  1.41246e-11      628.547
       821.60000  1.41246e-11      628.406
       821.70000  1.41246e-11      628.264
       821.80000  1.41246e-11      627.982
       821.90000  1.41246e-11      627.841
       822.00000  1.41246e-11      627.699
       822.10000  1.41246e-11      627.699
       822.20000  1.41246e-11      627.558
       822.30000  1.41246e-11      627.417
       822.40000  1.41246e-11      627.417
       822.50000  1.15612e-11      513.433
       822.60000  1.15612e-11      513.433
       822.70000  1.15612e-11      513.318
       822.80000  1.15612e-11      513.318
       822.90000  1.15612e-11      513.318
       823.00000  1.15612e-11      513.318
       823.10000  1.15612e-11      513.318
       823.20000  1.15612e-11      513.318
       823.30000  1.15612e-11      513.318
       823.40000  1.15612e-11      513.318
       823.50000  6.08255e-12      270.126
       823.60000  6.08255e-12      270.126
       823.70000  6.08255e-12      270.187
       823.80000  6.09914e-12      270.924
       823.90000  6.09914e-12      270.985
       824.00000  6.09914e-12      271.046
       824.10000  6.09914e-12      271.107
       824.20000  6.09914e-12      271.168
       824.30000  6.09914e-12      271.229
       824.40000  6.09914e-12      271.351
       824.50000  6.86817e-12      305.633
       824.60000  6.86817e-12      305.771
       824.70000  6.86817e-12      305.839
       824.80000  6.86817e-12      305.977
       824.90000  6.86817e-12      306.114
       825.00000  6.86817e-12      306.252
       825.10000  6.86817e-12      306.389
       825.20000  6.86817e-12      306.526
       825.30000  6.86817e-12      306.732
       825.40000  6.86817e-12      306.870
       825.50000  6.26846e-12      280.263
       825.60000  6.26846e-12      280.388
       825.70000  6.26846e-12      280.576
       825.80000  6.26846e-12      280.764
       825.90000  6.26846e-12      280.952
       826.00000  6.26846e-12      281.141
       826.10000  6.26846e-12      281.329
       826.20000  6.26846e-12      281.454
       826.30000  6.27263e-12      281.829
       826.40000  6.27263e-12      281.955
       826.50000  7.63827e-12      343.417
       826.60000  7.63827e-12      343.569
       826.70000  7.63827e-12      343.722
       826.80000  7.63827e-12      343.799
       826.90000  7.63827e-12      343.875
       827.00000  7.63827e-12      343.951
       827.10000  7.63827e-12      343.951
       827.20000  7.63827e-12      344.028
       827.30000  7.63827e-12      344.028
       827.40000  7.63827e-12      344.028
       827.50000  4.44598e-12      200.247
       827.60000  4.44598e-12      200.247
       827.70000  4.44598e-12      200.203
       827.80000  4.44598e-12      200.158
       827.90000  4.44598e-12      200.114
       828.00000  4.44598e-12      200.069
       828.10000  4.44598e-12      199.936
       828.20000  4.44598e-12      199.758
       828.30000  4.44598e-12      199.580
       828.40000  4.44598e-12      199.402
       828.50000  6.13462e-12      274.954
       828.60000  6.13462e-12      274.708
       828.70000  6.13462e-12      274.524
       828.80000  6.12964e-12      274.118
       828.90000  6.12964e-12      273.872
       829.00000  6.12964e-12      273.689
       829.10000  6.12964e-12      273.505
       829.20000  6.12964e-12      273.321
       829.30000  6.12964e-12      273.137
       829.40000  6.12964e-12      272.953
       829.50000  7.36667e-12      327.817
       829.60000  7.36667e-12      327.596
       829.70000  7.36667e-12      327.375
       829.80000  7.36667e-12      327.154
       829.90000  7.36667e-12      327.006
       830.00000  7.36667e-12      326.785
       830.10000  7.36667e-12      326.638
       830.20000  7.36667e-12      326.417
       830.30000  7.36667e-12      326.270
       830.40000  7.36667e-12      326.049
       830.50000  6.31404e-12      279.333
       830.60000  6.31404e-12      279.207
       830.70000  6.31404e-12      279.017
       830.80000  6.31404e-12      278.891
       830.90000  6.31404e-12      278.765
       831.00000  6.31404e-12      278.638
       831.10000  6.31404e-12      278.512
       831.20000  6.31404e-12      278.386
       831.30000  6.33115e-12      279.077
       831.40000  6.33115e-12      278.951
       831.50000  7.83956e-12      345.254
       831.60000  7.83956e-12      345.176
       831.70000  7.83956e-12      345.019
       831.80000  7.83956e-12      344.862
       831.90000  7.83956e-12      344.784
       832.00000  7.83956e-12      344.705
       832.10000  7.83956e-12      344.392
       832.20000  7.83956e-12      344.078
       832.30000  7.83956e-12      343.843
       832.40000  7.83956e-12      343.608
       832.50000  4.06426e-12      178.015
       832.60000  4.06426e-12      177.933
       832.70000  4.06426e-12      177.852
       832.80000  4.06426e-12      177.730
       832.90000  4.06426e-12      177.690
       833.00000  4.06426e-12      177.608
       833.10000  4.06426e-12      177.527
       833.20000  4.06426e-12      177.486
       833.30000  4.06426e-12      177.446
       833.40000  4.06426e-12      177.405
       833.50000  5.45815e-12      238.248
       833.60000  5.45815e-12      238.194
       833.70000  5.45815e-12      238.194
       833.80000  5.46385e-12      238.442
       833.90000  5.46385e-12      238.497
       834.00000  5.46385e-12      238.497
       834.10000  5.46385e-12      238.770
       834.20000  5.46385e-12      238.989
       834.30000  5.46385e-12      239.262
       834.40000  5.46385e-12      239.480
       834.50000  8.36237e-12      366.857
       834.60000  8.36237e-12      367.192
       834.70000  8.36237e-12      367.443
       834.80000  8.36237e-12      367.694
       834.90000  8.36237e-12      368.028
       835.00000  8.36237e-12      368.279
       835.10000  8.36237e-12      368.446
       835.20000  8.36237e-12      368.697
       835.30000  8.36237e-12      368.864
       835.40000  8.36237e-12      369.032
       835.50000  9.56307e-12      422.210
       835.60000  9.56307e-12      422.401
       835.70000  9.56307e-12      422.497
       835.80000  9.56307e-12      422.688
       835.90000  9.56307e-12      422.783
       836.00000  9.56307e-12      422.879
       836.10000  9.56307e-12      422.688
       836.20000  9.56307e-12      422.592
       836.30000  9.55874e-12      422.210
       836.40000  9.55874e-12      422.114
       836.50000  9.45604e-12      417.484
       836.60000  9.45604e-12      417.295
       836.70000  9.45604e-12      417.200
       836.80000  9.45604e-12      417.106
       836.90000  9.45604e-12      416.917
       837.00000  9.45604e-12      416.822
       837.10000  9.45604e-12      416.728
       837.20000  9.45604e-12      416.633
       837.30000  9.45604e-12      416.538
       837.40000  9.45604e-12      416.444
       837.50000  1.29027e-11      568.108
       837.60000  1.29027e-11      567.979
       837.70000  1.29027e-11      567.850
       837.80000  1.29027e-11      567.721
       837.90000  1.29027e-11      567.721
       838.00000  1.29027e-11      567.592
       838.10000  1.29027e-11      567.463
       838.20000  1.29027e-11      567.463
       838.30000  1.29027e-11      567.463
       838.40000  1.29027e-11      567.463
       838.50000  7.82629e-12      344.122
       838.60000  7.82629e-12      344.122
       838.70000  7.82629e-12      344.122
       838.80000  7.80262e-12      343.003
       838.90000  7.80262e-12      343.003
       839.00000  7.80262e-12      343.003
       839.10000  7.80262e-12      342.925
       839.20000  7.80262e-12      342.925
       839.30000  7.80262e-12      342.925
       839.40000  7.80262e-12      342.847
       839.50000  7.84017e-12      344.497
       839.60000  7.84017e-12      344.497
       839.70000  7.84017e-12      344.419
       839.80000  7.84017e-12      344.419
       839.90000  7.84017e-12      344.419
       840.00000  7.84017e-12      344.340
       840.10000  7.84017e-12      344.340
       840.20000  7.84017e-12      344.340
       840.30000  7.84017e-12      344.262
       840.40000  7.84017e-12      344.262
       840.50000  8.76428e-12      384.840
       840.60000  8.76428e-12      384.752
       840.70000  8.76428e-12      384.752
       840.80000  8.76428e-12      384.752
       840.90000  8.76428e-12      384.664
       841.00000  8.76428e-12      384.664
       841.10000  8.76428e-12      384.664
       841.20000  8.76428e-12      384.664
       841.30000  8.76381e-12      384.556
       841.40000  8.76381e-12      384.556
       841.50000  9.65263e-12      423.558
       841.60000  9.65263e-12      423.461
       841.70000  9.65263e-12      423.461
       841.80000  9.65263e-12      423.461
       841.90000  9.65263e-12      423.365
       842.00000  9.65263e-12      423.365
       842.10000  9.65263e-12      422.978
       842.20000  9.65263e-12      422.689
       842.30000  9.65263e-12      422.399
       842.40000  9.65263e-12      422.013
       842.50000  7.70223e-12      336.510
       842.60000  7.70223e-12      336.356
       842.70000  7.70223e-12      336.125
       842.80000  7.70223e-12      335.971
       842.90000  7.70223e-12      335.740
       843.00000  7.70223e-12      335.586
       843.10000  7.70223e-12      335.432
       843.20000  7.70223e-12      335.278
       843.30000  7.70223e-12      335.201
       843.40000  7.70223e-12      335.047
       843.50000  5.56685e-12      242.102
       843.60000  5.56685e-12      242.047
       843.70000  5.56685e-12      241.991
       843.80000  5.57487e-12      242.284
       843.90000  5.57487e-12      242.284
       844.00000  5.57487e-12      242.228
       844.10000  5.57487e-12      242.396
       844.20000  5.57487e-12      242.507
       844.30000  5.57487e-12      242.619
       844.40000  5.57487e-12      242.730
       844.50000  6.87072e-12      299.288
       844.60000  6.87072e-12      299.426
       844.70000  6.87072e-12      299.495
       844.80000  6.87072e-12      299.632
       844.90000  6.87072e-12      299.701
       845.00000  6.87072e-12      299.838
       845.10000  6.87072e-12      299.907
       845.20000  6.87072e-12      299.976
       845.30000  6.87072e-12      300.113
       845.40000  6.87072e-12      300.182
       845.50000  3.47736e-12      151.926
       845.60000  3.47736e-12      151.960
       845.70000  3.47736e-12      151.995
       845.80000  3.47736e-12      152.030
       845.90000  3.47736e-12      152.030
       846.00000  3.47736e-12      152.065
       846.10000  3.47736e-12      152.065
       846.20000  3.47736e-12      152.065
       846.30000  3.48651e-12      152.465
       846.40000  3.48651e-12      152.500
       846.50000  4.17017e-12      182.403
       846.60000  4.17017e-12      182.361
       846.70000  4.17017e-12      182.361
       846.80000  4.17017e-12      182.361
       846.90000  4.17017e-12      182.320
       847.00000  4.17017e-12      182.320
       847.10000  4.17017e-12      182.278
       847.20000  4.17017e-12      182.278
       847.30000  4.17017e-12      182.236
       847.40000  4.17017e-12      182.195
       847.50000  5.18389e-12      226.432
       847.60000  5.18389e-12      226.380
       847.70000  5.18389e-12      226.328
       847.80000  5.18389e-12      226.277
       847.90000  5.18389e-12      226.173
       848.00000  5.18389e-12      226.121
       848.10000  5.18389e-12      225.032
       848.20000  5.18389e-12      224.048
       848.30000  5.18389e-12      223.063
       848.40000  5.18389e-12      222.129
       848.50000  2.65323e-12      113.240
       848.60000  2.65323e-12      112.842
       848.70000  2.65323e-12      112.444
       848.80000  2.66335e-12      112.500
       848.90000  2.66335e-12      112.154
       849.00000  2.66335e-12      111.834
       849.10000  2.66335e-12      111.515
       849.20000  2.66335e-12      111.248
       849.30000  2.66335e-12      111.009
       849.40000  2.66335e-12      110.769
       849.50000  1.06209e-10      4409.82
       849.60000  1.06209e-10      4402.38
       849.70000  1.06209e-10      4397.07
       849.80000  1.06209e-10      4391.76
       849.90000  1.06209e-10      4387.51
       850.00000  1.06209e-10      4384.33
       850.10000  1.06209e-10      4407.69
       850.20000  1.06209e-10      4430.00
       850.30000  1.06209e-10      4450.18
       850.40000  1.06209e-10      4468.23
       850.50000  8.30884e-11      3508.82
       850.60000  8.30884e-11      3520.46
       850.70000  8.30884e-11      3530.43
       850.80000  8.30884e-11      3539.57
       850.90000  8.30884e-11      3547.05
       851.00000  8.30884e-11      3553.69
       851.10000  8.30884e-11      3558.68
       851.20000  8.30884e-11      3562.83
       851.30000  8.31764e-11      3569.10
       851.40000  8.31764e-11      3569.93
       851.50000  6.43298e-11      2761.04
       851.60000  6.43298e-11      2759.75
       851.70000  6.43298e-11      2757.82
       851.80000  6.43298e-11      2754.60
       851.90000  6.43298e-11      2750.10
       852.00000  6.43298e-11      2744.95
       852.10000  6.43298e-11      2738.52
       852.20000  6.43298e-11      2731.44
       852.30000  6.43298e-11      2723.08
       852.40000  6.43298e-11      2714.08
       852.50000  1.02144e-10      4292.07
       852.60000  1.02144e-10      4274.71
       852.70000  1.02144e-10      4254.28
       852.80000  1.02144e-10      4233.85
       852.90000  1.02144e-10      4210.36
       853.00000  1.02144e-10      4185.84
       853.10000  1.02144e-10      4159.28
       853.20000  1.02144e-10      4131.71
       853.30000  1.02144e-10      4102.08
       853.40000  1.02144e-10      4071.44
       853.50000  6.08181e-11      2404.75
       853.60000  6.08181e-11      2384.07
       853.70000  6.08181e-11      2362.79
       853.80000  6.08994e-11      2343.41
       853.90000  6.08994e-11      2320.27
       854.00000  6.08994e-11      2295.91
       854.10000  6.08994e-11      2312.96
       854.20000  6.08994e-11      2330.01
       854.30000  6.08994e-11      2346.45
       854.40000  6.08994e-11      2362.29
       854.50000  1.01971e-10      3980.97
       854.60000  1.01971e-10      4006.46
       854.70000  1.01971e-10      4030.93
       854.80000  1.01971e-10      4054.39
       854.90000  1.01971e-10      4077.84
       855.00000  1.01971e-10      4100.27
       855.10000  1.01971e-10      4121.69
       855.20000  1.01971e-10      4142.08
       855.30000  1.01971e-10      4162.48
       855.40000  1.01971e-10      4180.83
       855.50000  5.20532e-11      2144.07
       855.60000  5.20532e-11      2152.92
       855.70000  5.20532e-11      2161.77
       855.80000  5.20532e-11      2170.10
       855.90000  5.20532e-11      2177.91
       856.00000  5.20532e-11      2185.19
       856.10000  5.20532e-11      2190.92
       856.20000  5.20532e-11      2196.12
       856.30000  5.21117e-11      2203.80
       856.40000  5.21117e-11      2209.01
       856.50000  1.15264e-10      4896.43
       856.60000  1.15264e-10      4906.81
       856.70000  1.15264e-10      4916.03
       856.80000  1.15264e-10      4925.25
       856.90000  1.15264e-10      4933.32
       857.00000  1.15264e-10      4941.39
       857.10000  1.15264e-10      4949.45
       857.20000  1.15264e-10      4956.37
       857.30000  1.15264e-10      4963.29
       857.40000  1.15264e-10      4969.05
       857.50000  4.18512e-11      1806.30
       857.60000  4.18512e-11      1808.39
       857.70000  4.18512e-11      1810.07
       857.80000  4.18512e-11      1811.74
       857.90000  4.18512e-11      1813.00
       858.00000  4.18512e-11      1814.67
       858.10000  4.18512e-11      1815.51
       858.20000  4.18512e-11      1816.34
       858.30000  4.18512e-11      1817.18
       858.40000  4.18512e-11      1817.60
       858.50000  6.83826e-11      2970.54
       858.60000  6.83826e-11      2971.22
       858.70000  6.83826e-11      2971.22
       858.80000  6.85895e-11      2980.21
       858.90000  6.85895e-11      2979.53
       859.00000  6.85895e-11      2978.84
       859.10000  6.85895e-11      2978.16
       859.20000  6.85895e-11      2976.78
       859.30000  6.85895e-11      2975.41
       859.40000  6.85895e-11      2973.35
       859.50000  4.31799e-11      1870.55
       859.60000  4.31799e-11      1869.26
       859.70000  4.31799e-11      1867.53
       859.80000  4.31799e-11      1865.37
       859.90000  4.31799e-11      1863.64
       860.00000  4.31799e-11      1861.48
       860.10000  4.31799e-11      1861.05
       860.20000  4.31799e-11      1860.62
       860.30000  4.31799e-11      1860.62
       860.40000  4.31799e-11      1860.62
       860.50000  9.72067e-11      4187.66
       860.60000  9.72067e-11      4187.66
       860.70000  9.72067e-11      4187.66
       860.80000  9.72067e-11      4187.66
       860.90000  9.72067e-11      4187.66
       861.00000  9.72067e-11      4187.66
       861.10000  9.72067e-11      4187.66
       861.20000  9.72067e-11      4187.66
       861.30000  9.75262e-11      4201.43
       861.40000  9.75262e-11      4202.40
       861.50000  8.63448e-11      3720.60
       861.60000  8.63448e-11      3720.60
       861.70000  8.63448e-11      3721.46
       861.80000  8.63448e-11      3722.32
       861.90000  8.63448e-11      3722.32
       862.00000  8.63448e-11      3723.19
       862.10000  8.63448e-11      3735.27
       862.20000  8.63448e-11      3745.64
       862.30000  8.63448e-11      3755.13
       862.40000  8.63448e-11      3763.77
       862.50000  8.32586e-11      3635.90
       862.60000  8.32586e-11      3641.73
       862.70000  8.32586e-11      3646.73
       862.80000  8.32586e-11      3650.89
       862.90000  8.32586e-11      3653.39
       863.00000  8.32586e-11      3655.05
       863.10000  8.32586e-11      3655.88
       863.20000  8.32586e-11      3655.88
       863.30000  8.32586e-11      3654.22
       863.40000  8.32586e-11      3651.72
       863.50000  6.84103e-11      2997.74
       863.60000  6.84103e-11      2993.63
       863.70000  6.84103e-11      2988.84
       863.80000  6.86016e-11      2991.72
       863.90000  6.86016e-11      2985.54
       864.00000  6.86016e-11      2978.00
       864.10000  6.86016e-11      2969.76
       864.20000  6.86016e-11      2960.85
       864.30000  6.86016e-11      2950.56
       864.40000  6.86016e-11      2940.27
       864.50000  3.51870e-11      1501.78
       864.60000  3.51870e-11      1495.45
       864.70000  3.51870e-11      1488.41
       864.80000  3.51870e-11      1481.37
       864.90000  3.51870e-11      1473.28
       865.00000  3.51870e-11      1465.19
       865.10000  3.51870e-11      1456.39
       865.20000  3.51870e-11      1447.24
       865.30000  3.51870e-11      1437.74
       865.40000  3.51870e-11      1427.54
       865.50000  5.58246e-11      2248.06
       865.60000  5.58246e-11      2230.75
       865.70000  5.58246e-11      2212.89
       865.80000  5.58246e-11      2193.91
       865.90000  5.58246e-11      2174.37
       866.00000  5.58246e-11      2154.27
       866.10000  5.58246e-11      2162.09
       866.20000  5.58246e-11      2169.34
       866.30000  5.59896e-11      2183.60
       866.40000  5.59896e-11      2190.87
       866.50000  4.62601e-11      1816.17
       866.60000  4.62601e-11      1822.18
       866.70000  4.62601e-11      1828.20
       866.80000  4.62601e-11      1834.21
       866.90000  4.62601e-11      1839.76
       867.00000  4.62601e-11      1845.31
       867.10000  4.62601e-11      1850.87
       867.20000  4.62601e-11      1856.42
       867.30000  4.62601e-11      1861.97
       867.40000  4.62601e-11      1867.06
       867.50000  1.51356e-10      6125.38
       867.60000  1.51356e-10      6142.03
       867.70000  1.51356e-10      6158.67
       867.80000  1.51356e-10      6175.32
       867.90000  1.51356e-10      6190.46
       868.00000  1.51356e-10      6205.59
       868.10000  1.51356e-10      6222.24
       868.20000  1.51356e-10      6238.89
       868.30000  1.51356e-10      6254.03
       868.40000  1.51356e-10      6269.16
       868.50000  4.54665e-11      1887.77
       868.60000  4.54665e-11      1891.86
       868.70000  4.54665e-11      1896.41
       868.80000  4.55804e-11      1904.81
       868.90000  4.55804e-11      1908.91
       869.00000  4.55804e-11      1912.55
       869.10000  4.55804e-11      1916.20
       869.20000  4.55804e-11      1919.85
       869.30000  4.55804e-11      1923.49
       869.40000  4.55804e-11      1926.68
       869.50000  3.38867e-11      1434.76
       869.60000  3.38867e-11      1436.80
       869.70000  3.38867e-11      1438.83
       869.80000  3.38867e-11      1440.86
       869.90000  3.38867e-11      1442.90
       870.00000  3.38867e-11      1444.93
       870.10000  3.38867e-11      1446.62
       870.20000  3.38867e-11      1448.32
       870.30000  3.38867e-11      1449.67
       870.40000  3.38867e-11      1451.03
       870.50000  8.95661e-12      383.880
       870.60000  8.95661e-12      384.239
       870.70000  8.95661e-12      384.507
       870.80000  8.95661e-12      384.866
       870.90000  8.95661e-12      385.045
       871.00000  8.95661e-12      385.314
       871.10000  8.95661e-12      385.493
       871.20000  8.95661e-12      385.672
       871.30000  9.00869e-12      388.094
       871.40000  9.00869e-12      388.184
       871.50000  6.25004e-11      2693.77
       871.60000  6.25004e-11      2694.39
       871.70000  6.25004e-11      2694.39
       871.80000  6.25004e-11      2695.02
       871.90000  6.25004e-11      2694.39
       872.00000  6.25004e-11      2694.39
       872.10000  6.25004e-11      2692.52
       872.20000  6.25004e-11      2691.27
       872.30000  6.25004e-11      2689.39
       872.40000  6.25004e-11      2688.14
       872.50000  2.65460e-11      1140.95
       872.60000  2.65460e-11      1140.42
       872.70000  2.65460e-11      1139.88
       872.80000  2.65460e-11      1139.35
       872.90000  2.65460e-11      1138.56
       873.00000  2.65460e-11      1138.03
       873.10000  2.65460e-11      1137.50
       873.20000  2.65460e-11      1136.96
       873.30000  2.65460e-11      1136.43
       873.40000  2.65460e-11      1135.90
       873.50000  4.38417e-12      187.511
       873.60000  4.38417e-12      187.423
       873.70000  4.38417e-12      187.336
       873.80000  4.40733e-12      188.281
       873.90000  4.40733e-12      188.193
       874.00000  4.40733e-12      188.105
       877.00000  7.54181e-11      3216.58
       877.10000  7.54181e-11      3218.84
       877.20000  7.54181e-11      3221.11
       877.30000  7.54181e-11      3223.37
       877.40000  7.54181e-11      3226.39
       877.50000  1.53693e-10      6581.14
       877.60000  1.53693e-10      6587.29
       877.70000  1.53693e-10      6593.44
       877.80000  1.53693e-10      6599.58
       877.90000  1.53693e-10      6607.27
       878.00000  1.53693e-10      6614.95
       878.10000  1.53693e-10      6605.73
       878.20000  1.53693e-10      6598.05
       878.30000  1.53693e-10      6590.36
       878.40000  1.53693e-10      6582.68
       878.50000  5.07407e-11      2170.69
       878.60000  5.07407e-11      2168.66
       878.70000  5.07407e-11      2166.12
       878.80000  5.09684e-11      2173.80
       878.90000  5.09684e-11      2171.76
       879.00000  5.09684e-11      2169.72
       883.00000  3.90396e-11      1659.96
       883.10000  3.90396e-11      1660.74
       883.20000  3.90396e-11      1661.53
       883.30000  3.90396e-11      1661.92
       883.40000  3.90396e-11      1662.31
       883.50000  4.37394e-11      1862.86
       883.60000  4.37394e-11      1862.86
       883.70000  4.37394e-11      1862.86
       883.80000  4.38987e-11      1869.65
       883.90000  4.38987e-11      1869.21
       884.00000  4.38987e-11      1868.77
       886.00000  9.50332e-11      3972.39
       888.00000  1.06098e-10      4473.10
       890.00000  1.10112e-10      4695.18
       890.10000  1.10112e-10      4691.88
       890.20000  1.10112e-10      4688.57
       890.30000  1.10112e-10      4685.27
       890.40000  1.10112e-10      4681.97
       890.50000  1.50996e-10      6415.82
       890.60000  1.50996e-10      6411.29
       890.70000  1.50996e-10      6406.76
       890.80000  1.50996e-10      6402.23
       890.90000  1.50996e-10      6397.70
       891.00000  1.50996e-10      6394.68
       893.00000  9.01786e-11      3787.50
       899.00000  5.97196e-11      2501.06
       899.10000  5.97196e-11      2498.67
       899.20000  5.97196e-11      2496.28
       899.30000  5.97196e-11      2493.89
       899.40000  5.97196e-11      2491.50
       899.50000  3.79628e-10      15822.9
       899.60000  3.79628e-10      15803.9
       899.70000  3.79628e-10      15788.7
       899.80000  3.79628e-10      15769.8
       899.90000  3.79628e-10      15750.8
       900.00000  3.79628e-10      15731.8
       900.10000  3.79628e-10      15686.2
       900.20000  3.79628e-10      15648.3
       900.30000  3.79628e-10      15606.5
       900.40000  3.79628e-10      15572.3
       900.50000  4.37960e-10      17925.7
       900.60000  4.37960e-10      17890.7
       900.70000  4.37960e-10      17855.6
       900.80000  4.37960e-10      17829.4
       900.90000  4.37960e-10      17803.1
       901.00000  4.37960e-10      17776.8
       901.10000  4.37960e-10      17759.3
       901.20000  4.37960e-10      17741.8
       901.30000  4.39744e-10      17796.4
       901.40000  4.39744e-10      17787.7
       901.50000  3.82945e-10      15482.4
       901.60000  3.82945e-10      15478.6
       901.70000  3.82945e-10      15474.8
       901.80000  3.82945e-10      15474.8
       901.90000  3.82945e-10      15478.6
       902.00000  3.82945e-10      15486.3
       902.10000  3.82945e-10      15539.9
       902.20000  3.82945e-10      15589.7
       902.30000  3.82945e-10      15639.5
       902.40000  3.82945e-10      15685.4
       902.50000  3.55689e-10      14611.7
       902.60000  3.55689e-10      14650.8
       902.70000  3.55689e-10      14690.0
       902.80000  3.55689e-10      14725.5
       902.90000  3.55689e-10      14761.1
       903.00000  3.55689e-10      14793.1
       903.10000  3.55689e-10      14825.1
       903.20000  3.55689e-10      14853.6
       903.30000  3.55689e-10      14878.5
       903.40000  3.55689e-10      14903.4
       903.50000  3.52898e-10      14807.6
       903.60000  3.52898e-10      14828.8
       903.70000  3.52898e-10      14849.9
       903.80000  3.54767e-10      14942.8
       903.90000  3.54767e-10      14960.5
       904.00000  3.54767e-10      14971.2
       904.10000  3.54767e-10      14981.8
       904.20000  3.54767e-10      14992.5
       904.30000  3.54767e-10      14999.6
       904.40000  3.54767e-10      15003.1
       904.50000  4.15677e-10      17583.1
       904.60000  4.15677e-10      17587.3
       904.70000  4.15677e-10      17587.3
       904.80000  4.15677e-10      17583.1
       904.90000  4.15677e-10      17579.0
       905.00000  4.15677e-10      17570.7
       905.10000  4.15677e-10      17562.3
       905.20000  4.15677e-10      17549.9
       905.30000  4.15677e-10      17537.4
       905.40000  4.15677e-10      17520.8
       905.50000  2.93262e-10      12346.3
       905.60000  2.93262e-10      12331.7
       905.70000  2.93262e-10      12317.0
       905.80000  2.93262e-10      12299.4
       905.90000  2.93262e-10      12278.9
       906.00000  2.93262e-10      12258.4
       906.10000  2.93262e-10      12246.6
       906.20000  2.93262e-10      12237.8
       906.30000  2.94615e-10      12285.5
       906.40000  2.94615e-10      12273.7
       906.50000  3.26799e-10      13604.7
       906.60000  3.26799e-10      13594.8
       906.70000  3.26799e-10      13585.0
       906.80000  3.26799e-10      13575.2
       906.90000  3.26799e-10      13565.4
       907.00000  3.26799e-10      13555.6
       907.10000  3.26799e-10      13545.8
       907.20000  3.26799e-10      13536.0
       907.30000  3.26799e-10      13526.2
       907.40000  3.26799e-10      13516.4
       907.50000  2.36883e-10      9790.38
       907.60000  2.36883e-10      9785.65
       907.70000  2.36883e-10      9778.54
       907.80000  2.36883e-10      9771.43
       907.90000  2.36883e-10      9766.69
       908.00000  2.36883e-10      9759.59
       908.10000  2.36883e-10      9750.11
       908.20000  2.36883e-10      9743.01
       908.30000  2.36883e-10      9733.53
       908.40000  2.36883e-10      9726.42
       908.50000  3.10816e-10      12752.8
       908.60000  3.10816e-10      12743.5
       908.70000  3.10816e-10      12737.2
       908.80000  3.11885e-10      12771.7
       908.90000  3.11885e-10      12765.4
       909.00000  3.11885e-10      12759.2
       909.10000  3.11885e-10      12753.0
       909.20000  3.11885e-10      12746.7
       909.30000  3.11885e-10      12740.5
       909.40000  3.11885e-10      12737.4
       909.50000  2.47533e-10      10106.8
       909.60000  2.47533e-10      10104.3
       909.70000  2.47533e-10      10101.8
       909.80000  2.47533e-10      10099.4
       909.90000  2.47533e-10      10099.4
       910.00000  2.47533e-10      10096.9
       910.10000  2.47533e-10      10096.9
       910.20000  2.47533e-10      10096.9
       910.30000  2.47533e-10      10099.4
       910.40000  2.47533e-10      10099.4
       910.50000  2.87858e-10      11747.5
       910.60000  2.87858e-10      11747.5
       910.70000  2.87858e-10      11750.4
       910.80000  2.87858e-10      11756.1
       910.90000  2.87858e-10      11759.0
       911.00000  2.87858e-10      11761.9
       911.10000  2.87858e-10      11767.6
       911.20000  2.87858e-10      11773.4
       911.30000  2.88125e-10      11790.1
       911.40000  2.88125e-10      11795.8
       911.50000  1.66402e-10      6817.49
       911.60000  1.66402e-10      6820.82
       911.70000  1.66402e-10      6825.81
       911.80000  1.66402e-10      6830.80
       911.90000  1.66402e-10      6835.80
       912.00000  1.66402e-10      6842.45
       912.10000  1.66402e-10      6850.77
       912.20000  1.66402e-10      6857.43
       912.30000  1.66402e-10      6864.08
       912.40000  1.66402e-10      6870.74
       912.50000  1.94379e-10      8033.69
       912.60000  1.94379e-10      8041.46
       912.70000  1.94379e-10      8049.24
       912.80000  1.94379e-10      8055.07
       912.90000  1.94379e-10      8060.90
       913.00000  1.94379e-10      8066.73
       913.10000  1.94379e-10      8072.56
       913.20000  1.94379e-10      8076.45
       913.30000  1.94379e-10      8082.28
       913.40000  1.94379e-10      8086.17
       913.50000  3.08195e-10      12827.1
       913.60000  3.08195e-10      12833.2
       913.70000  3.08195e-10      12836.3
       913.80000  3.09839e-10      12907.9
       913.90000  3.09839e-10      12914.1
       914.00000  3.09839e-10      12917.2
       914.10000  3.09839e-10      12911.0
       914.20000  3.09839e-10      12907.9
       914.30000  3.09839e-10      12904.8
       914.40000  3.09839e-10      12901.7
       914.50000  2.99875e-10      12483.8
       914.60000  2.99875e-10      12477.8
       914.70000  2.99875e-10      12474.8
       914.80000  2.99875e-10      12471.8
       914.90000  2.99875e-10      12468.8
       915.00000  2.99875e-10      12465.8
       915.10000  2.99875e-10      12462.8
       915.20000  2.99875e-10      12459.8
       915.30000  2.99875e-10      12456.8
       915.40000  2.99875e-10      12453.8
       915.50000  2.13906e-10      8881.36
       915.60000  2.13906e-10      8879.22
       915.70000  2.13906e-10      8877.08
       915.80000  2.13906e-10      8874.94
       915.90000  2.13906e-10      8872.80
       916.00000  2.13906e-10      8870.66
       916.10000  2.13906e-10      8868.52
       916.20000  2.13906e-10      8866.38
       916.30000  2.15432e-10      8927.49
       916.40000  2.15432e-10      8925.33
       916.50000  2.38164e-10      9864.75
       916.60000  2.38164e-10      9864.75
       916.70000  2.38164e-10      9862.37
       916.80000  2.38164e-10      9859.98
       916.90000  2.38164e-10      9857.60
       917.00000  2.38164e-10      9855.22
       917.10000  2.38164e-10      9855.22
       917.20000  2.38164e-10      9852.84
       917.30000  2.38164e-10      9850.46
       917.40000  2.38164e-10      9848.08
       917.50000  2.42919e-10      10044.7
       917.60000  2.42919e-10      10042.3
       917.70000  2.42919e-10      10039.8
       917.80000  2.42919e-10      10039.8
       917.90000  2.42919e-10      10037.4
       918.00000  2.42919e-10      10035.0
       918.10000  2.42919e-10      10039.8
       918.20000  2.42919e-10      10044.7
       918.30000  2.42919e-10      10049.6
       918.40000  2.42919e-10      10052.0
       918.50000  2.41456e-10      9993.85
       918.60000  2.41456e-10      9996.26
       918.70000  2.41456e-10      9996.26
       918.80000  2.43702e-10      10089.3
       918.90000  2.43702e-10      10089.3
       919.00000  2.43702e-10      10089.3
       919.10000  2.43702e-10      10086.8
       919.20000  2.43702e-10      10084.4
       919.30000  2.43702e-10      10082.0
       919.40000  2.43702e-10      10077.1
       919.50000  1.34518e-10      5559.64
       919.60000  1.34518e-10      5556.95
       919.70000  1.34518e-10      5554.26
       919.80000  1.34518e-10      5550.22
       919.90000  1.34518e-10      5547.53
       920.00000  1.34518e-10      5543.50
       920.10000  1.34518e-10      5531.39
       920.20000  1.34518e-10      5520.63
       920.30000  1.34518e-10      5509.87
       920.40000  1.34518e-10      5499.11
       920.50000  2.37337e-10      9683.37
       920.60000  2.37337e-10      9666.75
       920.70000  2.37337e-10      9650.14
       920.80000  2.37337e-10      9635.90
       920.90000  2.37337e-10      9619.28
       921.00000  2.37337e-10      9605.04
       921.10000  2.37337e-10      9590.80
       921.20000  2.37337e-10      9578.94
       921.30000  2.38319e-10      9604.24
       921.40000  2.38319e-10      9592.32
       921.50000  2.22482e-10      8943.78
       921.60000  2.22482e-10      8934.88
       921.70000  2.22482e-10      8925.98
       921.80000  2.22482e-10      8917.08
       921.90000  2.22482e-10      8908.18
       922.00000  2.22482e-10      8901.50
       922.10000  2.22482e-10      8892.61
       922.20000  2.22482e-10      8888.16
       922.30000  2.22482e-10      8881.48
       922.40000  2.22482e-10      8877.03
       922.50000  2.61073e-10      10409.0
       922.60000  2.61073e-10      10406.4
       922.70000  2.61073e-10      10401.1
       922.80000  2.61073e-10      10398.5
       922.90000  2.61073e-10      10395.9
       923.00000  2.61073e-10      10393.3
       923.10000  2.61073e-10      10393.3
       923.20000  2.61073e-10      10390.7
       923.30000  2.61073e-10      10390.7
       923.40000  2.61073e-10      10393.3
       923.50000  2.70281e-10      10759.9
       923.60000  2.70281e-10      10762.6
       923.70000  2.70281e-10      10765.3
       923.80000  2.70894e-10      10795.1
       923.90000  2.70894e-10      10797.8
       924.00000  2.70894e-10      10803.3
       924.10000  2.70894e-10      10803.3
       924.20000  2.70894e-10      10803.3
       924.30000  2.70894e-10      10803.3
       924.40000  2.70894e-10      10803.3
       924.50000  2.11611e-10      8439.06
       924.60000  2.11611e-10      8439.06
       924.70000  2.11611e-10      8441.18
       924.80000  2.11611e-10      8443.29
       924.90000  2.11611e-10      8443.29
       925.00000  2.11611e-10      8445.41
       925.10000  2.11611e-10      8449.64
       925.20000  2.11611e-10      8451.76
       925.30000  2.11611e-10      8453.87
       925.40000  2.11611e-10      8458.11
       925.50000  1.78556e-10      7140.45
       925.60000  1.78556e-10      7144.02
       925.70000  1.78556e-10      7147.60
       925.80000  1.78556e-10      7151.17
       925.90000  1.78556e-10      7154.74
       926.00000  1.78556e-10      7160.09
       926.10000  1.78556e-10      7170.81
       926.20000  1.78556e-10      7183.31
       926.30000  1.79296e-10      7223.85
       926.40000  1.79296e-10      7234.61
       926.50000  2.04095e-10      8247.47
       926.60000  2.04095e-10      8257.68
       926.70000  2.04095e-10      8267.88
       926.80000  2.04095e-10      8278.09
       926.90000  2.04095e-10      8288.29
       927.00000  2.04095e-10      8296.46
       927.10000  2.04095e-10      8304.62
       927.20000  2.04095e-10      8312.78
       927.30000  2.04095e-10      8318.91
       927.40000  2.04095e-10      8325.03
       927.50000  2.08377e-10      8505.94
       927.60000  2.08377e-10      8510.11
       927.70000  2.08377e-10      8516.36
       927.80000  2.08377e-10      8520.53
       927.90000  2.08377e-10      8522.61
       928.00000  2.08377e-10      8524.70
       928.10000  2.08377e-10      8520.53
       928.20000  2.08377e-10      8516.36
       928.30000  2.08377e-10      8510.11
       928.40000  2.08377e-10      8505.94
       928.50000  1.89226e-10      7720.40
       928.60000  1.89226e-10      7716.62
       928.70000  1.89226e-10      7712.83
       928.80000  1.90105e-10      7744.87
       928.90000  1.90105e-10      7741.07
       929.00000  1.90105e-10      7739.17
       929.10000  1.90105e-10      7735.37
       929.20000  1.90105e-10      7731.56
       929.30000  1.90105e-10      7729.66
       929.40000  1.90105e-10      7725.86
       929.50000  2.62170e-10      10652.0
       929.60000  2.62170e-10      10649.4
       929.70000  2.62170e-10      10644.1
       929.80000  2.62170e-10      10641.5
       929.90000  2.62170e-10      10638.9
       930.00000  2.62170e-10      10636.2
       930.10000  2.62170e-10      10636.2
       930.20000  2.62170e-10      10636.2
       930.30000  2.62170e-10      10633.6
       930.40000  2.62170e-10      10633.6
       930.50000  1.98313e-10      8043.56
       930.60000  1.98313e-10      8043.56
       930.70000  1.98313e-10      8041.58
       930.80000  1.98313e-10      8041.58
       930.90000  1.98313e-10      8041.58
       931.00000  1.98313e-10      8041.58
       931.10000  1.98313e-10      8041.58
       931.20000  1.98313e-10      8039.59
       931.30000  1.99206e-10      8075.83
       931.40000  1.99206e-10      8075.83
       931.50000  1.85030e-10      7501.13
       931.60000  1.85030e-10      7501.13
       931.70000  1.85030e-10      7501.13
       931.80000  1.85030e-10      7501.13
       931.90000  1.85030e-10      7501.13
       932.00000  1.85030e-10      7501.13
       932.10000  1.85030e-10      7501.13
       932.20000  1.85030e-10      7501.13
       932.30000  1.85030e-10      7501.13
       932.40000  1.85030e-10      7501.13
       932.50000  1.78299e-10      7228.23
       932.60000  1.78299e-10      7228.23
       932.70000  1.78299e-10      7228.23
       932.80000  1.78299e-10      7230.01
       932.90000  1.78299e-10      7230.01
       933.00000  1.78299e-10      7230.01
       933.10000  1.78299e-10      7230.01
       933.20000  1.78299e-10      7230.01
       933.30000  1.78299e-10      7231.79
       933.40000  1.78299e-10      7231.79
       933.50000  1.82462e-10      7400.64
       933.60000  1.82462e-10      7402.46
       933.70000  1.82462e-10      7402.46
       933.80000  1.83149e-10      7430.37
       933.90000  1.83149e-10      7432.20
       934.00000  1.83149e-10      7432.20
       934.10000  1.83149e-10      7426.71
       934.20000  1.83149e-10      7421.22
       934.30000  1.83149e-10      7415.72
       934.40000  1.83149e-10      7410.23
       934.50000  2.15358e-10      8706.90
       934.60000  2.15358e-10      8702.60
       934.70000  2.15358e-10      8698.29
       934.80000  2.15358e-10      8691.83
       934.90000  2.15358e-10      8687.52
       935.00000  2.15358e-10      8685.37
       935.10000  2.15358e-10      8681.06
       935.20000  2.15358e-10      8676.75
       935.30000  2.15358e-10      8674.60
       935.40000  2.15358e-10      8672.45
       935.50000  2.16873e-10      8731.31
       935.60000  2.16873e-10      8729.14
       935.70000  2.16873e-10      8726.98
       935.80000  2.16873e-10      8724.81
       935.90000  2.16873e-10      8724.81
       936.00000  2.16873e-10      8722.64
       936.10000  2.16873e-10      8729.14
       936.20000  2.16873e-10      8735.65
       936.30000  2.17628e-10      8772.57
       936.40000  2.17628e-10      8779.10
       936.50000  1.87956e-10      7585.91
       936.60000  1.87956e-10      7589.67
       936.70000  1.87956e-10      7593.43
       936.80000  1.87956e-10      7597.18
       936.90000  1.87956e-10      7599.06
       937.00000  1.87956e-10      7602.82
       937.10000  1.87956e-10      7604.70
       937.20000  1.87956e-10      7606.58
       937.30000  1.87956e-10      7606.58
       937.40000  1.87956e-10      7608.46
       937.50000  1.62648e-10      6584.00
       937.60000  1.62648e-10      6584.00
       937.70000  1.62648e-10      6584.00
       937.80000  1.62648e-10      6584.00
       937.90000  1.62648e-10      6582.37
       938.00000  1.62648e-10      6582.37
       938.10000  1.62648e-10      6580.74
       938.20000  1.62648e-10      6577.49
       938.30000  1.62648e-10      6575.86
       938.40000  1.62648e-10      6572.61
       938.50000  2.18393e-10      8823.09
       938.60000  2.18393e-10      8818.72
       938.70000  2.18393e-10      8812.17
       938.80000  2.19006e-10      8832.51
       938.90000  2.19006e-10      8825.94
       939.00000  2.19006e-10      8821.56
       939.10000  2.19006e-10      8814.99
       939.20000  2.19006e-10      8806.23
       939.30000  2.19006e-10      8799.66
       939.40000  2.19006e-10      8790.90
       939.50000  1.73792e-10      6969.06
       939.60000  1.73792e-10      6962.11
       939.70000  1.73792e-10      6955.16
       939.80000  1.73792e-10      6948.21
       939.90000  1.73792e-10      6939.52
       940.00000  1.73792e-10      6930.83
       940.10000  1.73792e-10      6918.66
       940.20000  1.73792e-10      6906.50
       940.30000  1.73792e-10      6896.07
       940.40000  1.73792e-10      6885.64
       940.50000  1.45110e-10      5740.56
       940.60000  1.45110e-10      5733.31
       940.70000  1.45110e-10      5726.05
       940.80000  1.45110e-10      5718.80
       940.90000  1.45110e-10      5711.54
       941.00000  1.45110e-10      5705.74
       941.10000  1.45110e-10      5699.93
       941.20000  1.45110e-10      5695.58
       941.30000  1.45297e-10      5698.55
       941.40000  1.45297e-10      5694.19
       941.50000  1.68206e-10      6586.93
       941.60000  1.68206e-10      6583.57
       941.70000  1.68206e-10      6580.20
       941.80000  1.68206e-10      6576.84
       941.90000  1.68206e-10      6573.47
       942.00000  1.68206e-10      6571.79
       942.10000  1.68206e-10      6576.84
       942.20000  1.68206e-10      6580.20
       942.30000  1.68206e-10      6585.25
       942.40000  1.68206e-10      6588.61
       942.50000  2.12478e-10      8327.02
       942.60000  2.12478e-10      8333.39
       942.70000  2.12478e-10      8337.64
       942.80000  2.12478e-10      8341.89
       942.90000  2.12478e-10      8346.14
       943.00000  2.12478e-10      8350.39
       943.10000  2.12478e-10      8356.77
       943.20000  2.12478e-10      8361.02
       943.30000  2.12478e-10      8365.26
       943.40000  2.12478e-10      8369.51
       943.50000  1.48016e-10      5833.33
       943.60000  1.48016e-10      5836.29
       943.70000  1.48016e-10      5839.25
       943.80000  1.47994e-10      5841.30
       943.90000  1.47994e-10      5844.26
       944.00000  1.47994e-10      5847.22
       944.10000  1.47994e-10      5850.18
       944.20000  1.47994e-10      5853.14
       944.30000  1.47994e-10      5854.62
       944.40000  1.47994e-10      5857.58
       944.50000  1.61561e-10      6397.83
       944.60000  1.61561e-10      6401.07
       944.70000  1.61561e-10      6402.68
       944.80000  1.61561e-10      6405.91
       944.90000  1.61561e-10      6409.14
       945.00000  1.61561e-10      6410.76
       945.10000  1.61561e-10      6413.99
       945.20000  1.61561e-10      6417.22
       945.30000  1.61561e-10      6418.84
       945.40000  1.61561e-10      6422.07
       945.50000  1.35507e-10      5387.75
       945.60000  1.35507e-10      5390.46
       945.70000  1.35507e-10      5391.81
       945.80000  1.35507e-10      5394.52
       945.90000  1.35507e-10      5395.88
       946.00000  1.35507e-10      5397.23
       946.10000  1.35507e-10      5399.94
       946.20000  1.35507e-10      5402.65
       946.30000  1.35547e-10      5406.98
       946.40000  1.35547e-10      5409.69
       946.50000  1.08842e-10      4346.04
       946.60000  1.08842e-10      4347.13
       946.70000  1.08842e-10      4349.31
       946.80000  1.08842e-10      4350.40
       946.90000  1.08842e-10      4351.48
       947.00000  1.08842e-10      4353.66
       947.10000  1.08842e-10      4354.75
       947.20000  1.08842e-10      4355.84
       947.30000  1.08842e-10      4356.93
       947.40000  1.08842e-10      4358.02
       947.50000  2.52218e-10      10098.8
       947.60000  2.52218e-10      10101.3
       947.70000  2.52218e-10      10103.9
       947.80000  2.52218e-10      10103.9
       947.90000  2.52218e-10      10106.4
       948.00000  2.52218e-10      10106.4
       948.10000  2.52218e-10      10106.4
       948.20000  2.52218e-10      10106.4
       948.30000  2.52218e-10      10103.9
       948.40000  2.52218e-10      10103.9
       948.50000  1.62445e-10      6505.91
       948.60000  1.62445e-10      6505.91
       948.70000  1.62445e-10      6505.91
       948.80000  1.62949e-10      6524.48
       948.90000  1.62949e-10      6524.48
       949.00000  1.62949e-10      6522.85
       949.10000  1.62949e-10      6522.85
       949.20000  1.62949e-10      6521.22
       949.30000  1.62949e-10      6521.22
       949.40000  1.62949e-10      6519.59
       949.50000  1.74538e-10      6983.25
       949.60000  1.74538e-10      6981.51
       949.70000  1.74538e-10      6979.76
       949.80000  1.74538e-10      6979.76
       949.90000  1.74538e-10      6978.02
       950.00000  1.74538e-10      6976.27
       950.10000  1.74538e-10      6976.27
       950.20000  1.74538e-10      6974.52
       950.30000  1.74538e-10      6972.78
       950.40000  1.74538e-10      6972.78
       950.50000  1.44544e-10      5773.10
       950.60000  1.44544e-10      5771.65
       950.70000  1.44544e-10      5770.20
       950.80000  1.44544e-10      5770.20
       950.90000  1.44544e-10      5768.76
       951.00000  1.44544e-10      5767.31
       951.10000  1.44544e-10      5765.87
       951.20000  1.44544e-10      5764.42
       951.30000  1.44406e-10      5758.93
       951.40000  1.44406e-10      5757.48
       951.50000  8.41070e-11      3352.51
       951.60000  8.41070e-11      3351.67
       951.70000  8.41070e-11      3350.82
       951.80000  8.41070e-11      3349.98
       951.90000  8.41070e-11      3349.14
       952.00000  8.41070e-11      3348.30
       952.10000  8.41070e-11      3341.57
       952.20000  8.41070e-11      3334.84
       952.30000  8.41070e-11      3328.96
       952.40000  8.41070e-11      3323.07
       952.50000  1.85059e-10      7298.74
       952.60000  1.85059e-10      7285.79
       952.70000  1.85059e-10      7274.68
       952.80000  1.85059e-10      7263.58
       952.90000  1.85059e-10      7252.48
       953.00000  1.85059e-10      7243.22
       953.10000  1.85059e-10      7233.97
       953.20000  1.85059e-10      7224.72
       953.30000  1.85059e-10      7217.32
       953.40000  1.85059e-10      7208.06
       953.50000  1.66462e-10      6477.04
       953.60000  1.66462e-10      6472.05
       953.70000  1.66462e-10      6465.39
       953.80000  1.66817e-10      6474.18
       953.90000  1.66817e-10      6469.17
       954.00000  1.66817e-10      6465.83
       954.10000  1.66817e-10      6464.17
       954.20000  1.66817e-10      6462.50
       954.30000  1.66817e-10      6462.50
       954.40000  1.66817e-10      6462.50
       954.50000  1.23436e-10      4780.70
       954.60000  1.23436e-10      4780.70
       954.70000  1.23436e-10      4780.70
       954.80000  1.23436e-10      4780.70
       954.90000  1.23436e-10      4781.93
       955.00000  1.23436e-10      4781.93
       955.10000  1.23436e-10      4783.16
       955.20000  1.23436e-10      4783.16
       955.30000  1.23436e-10      4784.40
       955.40000  1.23436e-10      4785.63
       955.50000  9.57322e-11      3712.49
       955.60000  9.57322e-11      3713.45
       955.70000  9.57322e-11      3714.41
       955.80000  9.57322e-11      3716.32
       955.90000  9.57322e-11      3717.28
       956.00000  9.57322e-11      3719.20
       956.10000  9.57322e-11      3721.11
       956.20000  9.57322e-11      3722.07
       956.30000  9.60572e-11      3736.63
       956.40000  9.60572e-11      3739.51
       956.50000  1.19872e-10      4669.01
       956.60000  1.19872e-10      4671.41
       956.70000  1.19872e-10      4675.01
       956.80000  1.19872e-10      4677.40
       956.90000  1.19872e-10      4681.00
       957.00000  1.19872e-10      4684.60
       957.10000  1.19872e-10      4688.19
       957.20000  1.19872e-10      4691.79
       957.30000  1.19872e-10      4696.58
       957.40000  1.19872e-10      4700.18
       957.50000  1.12640e-10      4420.00
       957.60000  1.12640e-10      4424.50
       957.70000  1.12640e-10      4429.01
       957.80000  1.12640e-10      4433.51
       957.90000  1.12640e-10      4438.02
       958.00000  1.12640e-10      4442.53
       958.10000  1.12640e-10      4442.53
       958.20000  1.12640e-10      4441.40
       958.30000  1.12640e-10      4441.40
       958.40000  1.12640e-10      4441.40
       958.50000  1.03210e-10      4069.57
       958.60000  1.03210e-10      4068.54
       958.70000  1.03210e-10      4068.54
       958.80000  1.03317e-10      4072.74
       958.90000  1.03317e-10      4071.71
       959.00000  1.03317e-10      4071.71
       959.10000  1.03317e-10      4070.68
       959.20000  1.03317e-10      4070.68
       959.30000  1.03317e-10      4069.64
       959.40000  1.03317e-10      4068.61
       959.50000  9.38092e-11      3694.21
       959.60000  9.38092e-11      3693.27
       959.70000  9.38092e-11      3693.27
       959.80000  9.38092e-11      3692.33
       959.90000  9.38092e-11      3691.39
       960.00000  9.38092e-11      3690.46
       960.10000  9.38092e-11      3689.52
       960.20000  9.38092e-11      3688.58
       960.30000  9.38092e-11      3687.64
       960.40000  9.38092e-11      3686.70
       960.50000  1.23509e-10      4852.66
       960.60000  1.23509e-10      4851.43
       960.70000  1.23509e-10      4850.19
       960.80000  1.23509e-10      4848.96
       960.90000  1.23509e-10      4847.72
       961.00000  1.23509e-10      4846.49
       961.10000  1.23509e-10      4845.25
       961.20000  1.23509e-10      4844.02
       961.30000  1.23751e-10      4852.29
       961.40000  1.23751e-10      4851.05
       961.50000  1.37677e-10      5395.55
       961.60000  1.37677e-10      5392.80
       961.70000  1.37677e-10      5391.42
       961.80000  1.37677e-10      5390.04
       961.90000  1.37677e-10      5388.67
       962.00000  1.37677e-10      5387.29
       962.10000  1.37677e-10      5384.54
       962.20000  1.37677e-10      5383.16
       962.30000  1.37677e-10      5381.78
       962.40000  1.37677e-10      5379.03
       962.50000  1.32912e-10      5191.55
       962.60000  1.32912e-10      5190.22
       962.70000  1.32912e-10      5187.56
       962.80000  1.32912e-10      5186.23
       962.90000  1.32912e-10      5183.57
       963.00000  1.32912e-10      5182.24
       963.10000  1.32912e-10      5180.91
       963.20000  1.32912e-10      5178.26
       963.30000  1.32912e-10      5176.93
       963.40000  1.32912e-10      5174.27
       963.50000  1.17270e-10      4564.14
       963.60000  1.17270e-10      4561.80
       963.70000  1.17270e-10      4560.62
       963.80000  1.17518e-10      4567.91
       963.90000  1.17518e-10      4565.56
       964.00000  1.17518e-10      4564.38
       964.10000  1.17518e-10      4562.03
       964.20000  1.17518e-10      4558.50
       964.30000  1.17518e-10      4556.15
       964.40000  1.17518e-10      4554.98
       964.50000  1.42540e-10      5522.00
       964.60000  1.42540e-10      5519.14
       964.70000  1.42540e-10      5517.72
       964.80000  1.42540e-10      5514.87
       964.90000  1.42540e-10      5513.44
       965.00000  1.42540e-10      5510.59
       965.10000  1.42540e-10      5509.17
       965.20000  1.42540e-10      5507.74
       965.30000  1.42540e-10      5506.32
       965.40000  1.42540e-10      5506.32
       965.50000  1.09378e-10      4224.19
       965.60000  1.09378e-10      4223.10
       965.70000  1.09378e-10      4223.10
       965.80000  1.09378e-10      4222.00
       965.90000  1.09378e-10      4222.00
       966.00000  1.09378e-10      4222.00
       966.10000  1.09378e-10      4223.10
       966.20000  1.09378e-10      4224.19
       966.30000  1.09737e-10      4240.24
       966.40000  1.09737e-10      4241.33
       966.50000  1.15494e-10      4465.00
       966.60000  1.15494e-10      4466.15
       966.70000  1.15494e-10      4467.31
       966.80000  1.15494e-10      4468.46
       966.90000  1.15494e-10      4469.62
       967.00000  1.15494e-10      4470.77
       967.10000  1.15494e-10      4471.93
       967.20000  1.15494e-10      4473.08
       967.30000  1.15494e-10      4474.24
       967.40000  1.15494e-10      4475.39
       967.50000  9.65408e-11      3740.95
       967.60000  9.65408e-11      3741.92
       967.70000  9.65408e-11      3742.89
       967.80000  9.65408e-11      3742.89
       967.90000  9.65408e-11      3743.85
       968.00000  9.65408e-11      3744.82
       968.10000  9.65408e-11      3744.82
       968.20000  9.65408e-11      3745.78
       968.30000  9.65408e-11      3745.78
       968.40000  9.65408e-11      3745.78
       968.50000  8.35881e-11      3244.05
       968.60000  8.35881e-11      3244.05
       968.70000  8.35881e-11      3244.05
       968.80000  8.37855e-11      3252.55
       968.90000  8.37855e-11      3252.55
       969.00000  8.37855e-11      3252.55
       969.10000  8.37855e-11      3252.55
       969.20000  8.37855e-11      3252.55
       969.30000  8.37855e-11      3252.55
       969.40000  8.37855e-11      3252.55
       969.50000  9.26519e-11      3596.74
       969.60000  9.26519e-11      3596.74
       969.70000  9.26519e-11      3596.74
       969.80000  9.26519e-11      3596.74
       969.90000  9.26519e-11      3596.74
       970.00000  9.26519e-11      3596.74
       970.10000  9.26519e-11      3597.67
       970.20000  9.26519e-11      3598.60
       970.30000  9.26519e-11      3598.60
       970.40000  9.26519e-11      3599.52
       970.50000  9.49153e-11      3687.46
       970.60000  9.49153e-11      3688.41
       970.70000  9.49153e-11      3688.41
       970.80000  9.49153e-11      3688.41
       970.90000  9.49153e-11      3688.41
       971.00000  9.49153e-11      3688.41
       971.10000  9.49153e-11      3688.41
       971.20000  9.49153e-11      3687.46
       971.30000  9.50691e-11      3693.43
       971.40000  9.50691e-11      3692.48
       971.50000  9.89182e-11      3841.98
       971.60000  9.89182e-11      3840.99
       971.70000  9.89182e-11      3840.00
       971.80000  9.89182e-11      3839.02
       971.90000  9.89182e-11      3838.03
       972.00000  9.89182e-11      3836.05
       972.10000  9.89182e-11      3832.09
       972.20000  9.89182e-11      3828.13
       972.30000  9.89182e-11      3825.17
       972.40000  9.89182e-11      3821.21
       972.50000  7.48420e-11      2888.90
       972.60000  7.48420e-11      2885.91
       972.70000  7.48420e-11      2883.66
       972.80000  7.48420e-11      2881.42
       972.90000  7.48420e-11      2879.17
       973.00000  7.48420e-11      2877.67
       973.10000  7.48420e-11      2875.43
       973.20000  7.48420e-11      2873.93
       973.30000  7.48420e-11      2872.43
       973.40000  7.48420e-11      2870.94
       973.50000  8.43296e-11      3233.20
       973.60000  8.43296e-11      3231.51
       973.70000  8.43296e-11      3230.67
       973.80000  8.43752e-11      3230.73
       973.90000  8.43752e-11      3229.88
       974.00000  8.43752e-11      3229.04
       974.10000  8.43752e-11      3229.88
       974.20000  8.43752e-11      3231.57
       974.30000  8.43752e-11      3232.42
       974.40000  8.43752e-11      3233.26
       974.50000  8.54962e-11      3277.07
       974.60000  8.54962e-11      3277.93
       974.70000  8.54962e-11      3278.78
       974.80000  8.54962e-11      3279.64
       974.90000  8.54962e-11      3279.64
       975.00000  8.54962e-11      3280.49
       975.10000  8.54962e-11      3281.34
       975.20000  8.54962e-11      3281.34
       975.30000  8.54962e-11      3282.20
       975.40000  8.54962e-11      3282.20
       975.50000  9.18202e-11      3524.98
       975.60000  9.18202e-11      3525.89
       975.70000  9.18202e-11      3525.89
       975.80000  9.18202e-11      3525.89
       975.90000  9.18202e-11      3525.89
       976.00000  9.18202e-11      3525.89
       976.10000  9.18202e-11      3524.98
       976.20000  9.18202e-11      3524.06
       976.30000  9.17584e-11      3520.77
       976.40000  9.17584e-11      3519.85
       976.50000  6.81138e-11      2612.85
       976.60000  6.81138e-11      2612.17
       976.70000  6.81138e-11      2611.48
       976.80000  6.81138e-11      2610.80
       976.90000  6.81138e-11      2610.80
       977.00000  6.81138e-11      2610.12
       977.10000  6.81138e-11      2609.44
       977.20000  6.81138e-11      2608.76
       977.30000  6.81138e-11      2608.76
       977.40000  6.81138e-11      2608.08
       977.50000  1.02922e-10      3939.86
       977.60000  1.02922e-10      3939.86
       977.70000  1.02922e-10      3938.83
       977.80000  1.02922e-10      3937.80
       977.90000  1.02922e-10      3937.80
       978.00000  1.02922e-10      3936.77
       978.10000  1.02922e-10      3936.77
       978.20000  1.02922e-10      3935.74
       978.30000  1.02922e-10      3935.74
       978.40000  1.02922e-10      3934.71
       978.50000  7.08045e-11      2706.15
       978.60000  7.08045e-11      2706.15
       978.70000  7.08045e-11      2706.15
       978.80000  7.07928e-11      2704.99
       978.90000  7.07928e-11      2704.99
       979.00000  7.07928e-11      2704.29
       979.10000  7.07928e-11      2704.29
       979.20000  7.07928e-11      2703.58
       979.30000  7.07928e-11      2703.58
       979.40000  7.07928e-11      2703.58
       979.50000  4.43627e-11      1693.77
       979.60000  4.43627e-11      1693.77
       979.70000  4.43627e-11      1693.77
       979.80000  4.43627e-11      1693.32
       979.90000  4.43627e-11      1693.32
       980.00000  4.43627e-11      1693.32
       980.10000  4.43627e-11      1694.21
       980.20000  4.43627e-11      1694.66
       980.30000  4.43627e-11      1695.54
       980.40000  4.43627e-11      1695.99
       980.50000  6.50255e-11      2487.23
       980.60000  6.50255e-11      2487.88
       980.70000  6.50255e-11      2488.53
       980.80000  6.50255e-11      2489.18
       980.90000  6.50255e-11      2489.83
       981.00000  6.50255e-11      2490.48
       981.10000  6.50255e-11      2491.13
       981.20000  6.50255e-11      2491.78
       981.30000  6.53744e-11      2505.15
       981.40000  6.53744e-11      2505.80
       981.50000  6.87150e-11      2633.85
       981.60000  6.87150e-11      2633.85
       981.70000  6.87150e-11      2634.53
       981.80000  6.87150e-11      2634.53
       981.90000  6.87150e-11      2634.53
       982.00000  6.87150e-11      2633.85
       982.10000  6.87150e-11      2633.16
       982.20000  6.87150e-11      2631.79
       982.30000  6.87150e-11      2631.10
       982.40000  6.87150e-11      2629.72
       982.50000  5.61276e-11      2147.44
       982.60000  5.61276e-11      2146.32
       982.70000  5.61276e-11      2145.76
       982.80000  5.61276e-11      2145.20
       982.90000  5.61276e-11      2144.08
       983.00000  5.61276e-11      2143.51
       983.10000  5.61276e-11      2142.95
       983.20000  5.61276e-11      2142.39
       983.30000  5.61276e-11      2141.83
       983.40000  5.61276e-11      2140.71
       983.50000  5.49629e-11      2095.74
       983.60000  5.49629e-11      2095.19
       983.70000  5.49629e-11      2094.64
       983.80000  5.50059e-11      2095.72
       983.90000  5.50059e-11      2095.17
       984.00000  5.50059e-11      2094.62
       984.10000  5.50059e-11      2094.62
       984.20000  5.50059e-11      2094.07
       984.30000  5.50059e-11      2093.52
       984.40000  5.50059e-11      2092.97
       984.50000  6.65223e-11      2531.18
       984.60000  6.65223e-11      2530.51
       984.70000  6.65223e-11      2529.84
       984.80000  6.65223e-11      2529.84
       984.90000  6.65223e-11      2529.18
       985.00000  6.65223e-11      2528.51
       985.10000  6.65223e-11      2528.51
       985.20000  6.65223e-11      2527.85
       985.30000  6.65223e-11      2527.85
       985.40000  6.65223e-11      2527.85
       985.50000  6.06152e-11      2302.77
       985.60000  6.06152e-11      2302.77
       985.70000  6.06152e-11      2302.77
       985.80000  6.06152e-11      2302.16
       985.90000  6.06152e-11      2302.16
       986.00000  6.06152e-11      2302.16
       986.10000  6.06152e-11      2301.56
       986.20000  6.06152e-11      2301.56
       986.30000  6.02679e-11      2288.37
       986.40000  6.02679e-11      2287.77
       986.50000  4.51192e-11      1712.27
       986.60000  4.51192e-11      1712.27
       986.70000  4.51192e-11      1711.82
       986.80000  4.51192e-11      1711.82
       986.90000  4.51192e-11      1711.37
       987.00000  4.51192e-11      1710.92
       987.10000  4.51192e-11      1710.47
       987.20000  4.51192e-11      1710.47
       987.30000  4.51192e-11      1710.02
       987.40000  4.51192e-11      1709.56
       987.50000  4.34264e-11      1644.99
       987.60000  4.34264e-11      1644.56
       987.70000  4.34264e-11      1644.12
       987.80000  4.34264e-11      1643.69
       987.90000  4.34264e-11      1643.26
       988.00000  4.34264e-11      1642.82
       988.10000  4.34264e-11      1641.52
       988.20000  4.34264e-11      1640.65
       988.30000  4.34264e-11      1639.35
       988.40000  4.34264e-11      1638.48
       988.50000  6.74955e-11      2545.25
       988.60000  6.74955e-11      2543.90
       988.70000  6.74955e-11      2542.55
       988.80000  6.76818e-11      2548.22
       988.90000  6.76818e-11      2546.87
       989.00000  6.76818e-11      2546.19
       989.10000  6.76818e-11      2545.51
       989.20000  6.76818e-11      2544.16
       989.30000  6.76818e-11      2543.48
       989.40000  6.76818e-11      2542.80
       989.50000  6.12169e-11      2299.31
       989.60000  6.12169e-11      2298.69
       989.70000  6.12169e-11      2298.69
       989.80000  6.12169e-11      2298.08
       989.90000  6.12169e-11      2298.08
       990.00000  6.12169e-11      2298.08
       990.10000  6.12169e-11      2297.47
       990.20000  6.12169e-11      2297.47
       990.30000  6.12169e-11      2298.08
       990.40000  6.12169e-11      2298.08
       990.50000  5.03876e-11      1891.55
       990.60000  5.03876e-11      1892.06
       990.70000  5.03876e-11      1892.06
       990.80000  5.03876e-11      1892.56
       990.90000  5.03876e-11      1893.06
       991.00000  5.03876e-11      1893.57
       991.10000  5.03876e-11      1894.07
       991.20000  5.03876e-11      1894.58
       991.30000  5.04944e-11      1899.10
       991.40000  5.04944e-11      1900.10
       991.50000  6.30723e-11      2374.04
       991.60000  6.30723e-11      2375.30
       991.70000  6.30723e-11      2376.56
       991.80000  6.30723e-11      2377.83
       991.90000  6.30723e-11      2379.09
       992.00000  6.30723e-11      2380.35
       992.10000  6.30723e-11      2380.98
       992.20000  6.30723e-11      2380.98
       992.30000  6.30723e-11      2380.98
       992.40000  6.30723e-11      2380.98
       992.50000  2.64009e-11      996.899
       992.60000  2.64009e-11      996.899
       992.70000  2.64009e-11      996.899
       992.80000  2.64009e-11      996.899
       992.90000  2.64009e-11      996.899
       993.00000  2.64009e-11      997.163
       993.10000  2.64009e-11      997.163
       993.20000  2.64009e-11      997.163
       993.30000  2.64009e-11      997.163
       993.40000  2.64009e-11      997.163
       993.50000  4.78755e-11      1808.26
       993.60000  4.78755e-11      1808.26
       993.70000  4.78755e-11      1808.26
       993.80000  4.79022e-11      1809.27
       993.90000  4.79022e-11      1808.79
       994.00000  4.79022e-11      1808.79
       994.10000  4.79022e-11      1808.79
       994.20000  4.79022e-11      1808.31
       994.30000  4.79022e-11      1808.31
       994.40000  4.79022e-11      1807.83
       994.50000  5.44769e-11      2055.96
       994.60000  5.44769e-11      2055.41
       994.70000  5.44769e-11      2055.41
       994.80000  5.44769e-11      2054.87
       994.90000  5.44769e-11      2054.87
       995.00000  5.44769e-11      2054.32
       995.10000  5.44769e-11      2054.32
       995.20000  5.44769e-11      2054.32
       995.30000  5.44769e-11      2053.78
       995.40000  5.44769e-11      2053.78
       995.50000  4.59292e-11      1731.53
       995.60000  4.59292e-11      1731.07
       995.70000  4.59292e-11      1731.07
       995.80000  4.59292e-11      1731.07
       995.90000  4.59292e-11      1731.07
       996.00000  4.59292e-11      1730.61
       996.10000  4.59292e-11      1731.07
       996.20000  4.59292e-11      1731.07
       996.30000  4.59828e-11      1733.09
       996.40000  4.59828e-11      1733.09
       996.50000  5.24713e-11      1977.65
       996.60000  5.24713e-11      1977.65
       996.70000  5.24713e-11      1977.65
       996.80000  5.24713e-11      1977.65
       996.90000  5.24713e-11      1977.65
       997.00000  5.24713e-11      1977.65
       997.10000  5.24713e-11      1977.65
       997.20000  5.24713e-11      1977.65
       997.30000  5.24713e-11      1977.65
       997.40000  5.24713e-11      1977.65
       997.50000  4.40570e-11      1660.51
       997.60000  4.40570e-11      1660.51
       997.70000  4.40570e-11      1660.51
       997.80000  4.40570e-11      1660.51
       997.90000  4.40570e-11      1660.51
       998.00000  4.40570e-11      1660.07
       998.10000  4.40570e-11      1660.07
       998.20000  4.40570e-11      1659.63
       998.30000  4.40570e-11      1659.63
       998.40000  4.40570e-11      1659.19
       998.50000  3.39912e-11      1279.77
       998.60000  3.39912e-11      1279.77
       998.70000  3.39912e-11      1279.43
       998.80000  3.42700e-11      1289.92
       998.90000  3.42700e-11      1289.92
       999.00000  3.42700e-11      1289.58
       999.10000  3.42700e-11      1289.58
       999.20000  3.42700e-11      1289.24
       999.30000  3.42700e-11      1289.24
       999.40000  3.42700e-11      1289.24
       999.50000  4.05354e-11      1524.54
       999.60000  4.05354e-11      1524.54
       999.70000  4.05354e-11      1524.54
       999.80000  4.05354e-11      1524.54
       999.90000  4.05354e-11      1524.54
       1000.0000  4.05354e-11      1524.13
       1000.1000  4.05354e-11      1524.13
       1000.2000  4.05354e-11      1524.13
       1000.3000  4.05354e-11      1524.13
       1000.4000  4.05354e-11      1524.13
       1000.5000  3.21905e-11      1210.36
       1000.6000  3.21905e-11      1210.36
       1000.7000  3.21905e-11      1210.36
       1000.8000  3.21905e-11      1210.36
       1000.9000  3.21905e-11      1210.36
       1001.0000  3.21905e-11      1210.36
       1001.1000  3.21905e-11      1210.36
       1001.2000  3.21905e-11      1210.68
       1001.3000  3.18132e-11      1196.49
       1001.4000  3.18132e-11      1196.49
       1001.5000  3.91473e-11      1472.33
       1001.6000  3.91473e-11      1472.33
       1001.7000  3.91473e-11      1472.72
       1001.8000  3.91473e-11      1472.72
       1001.9000  3.91473e-11      1472.72
       1002.0000  3.91473e-11      1473.11
       1002.1000  3.91473e-11      1470.76
       1002.2000  3.91473e-11      1468.42
       1002.3000  3.91473e-11      1466.46
       1002.4000  3.91473e-11      1464.11
       1002.5000  4.13842e-11      1545.70
       1002.6000  4.13842e-11      1543.22
       1002.7000  4.13842e-11      1541.15
       1002.8000  4.13842e-11      1539.08
       1002.9000  4.13842e-11      1537.01
       1003.0000  4.13842e-11      1534.94
       1003.1000  4.13842e-11      1532.87
       1003.2000  4.13842e-11      1530.80
       1003.3000  4.13842e-11      1529.15
       1003.4000  4.13842e-11      1527.08
       1003.5000  4.07526e-11      1502.14
       1003.6000  4.07526e-11      1500.51
       1003.7000  4.07526e-11      1498.47
       1003.8000  4.07417e-11      1496.44
       1003.9000  4.07417e-11      1494.81
       1004.0000  4.07417e-11      1493.18
       1004.1000  4.07417e-11      1490.74
       1004.2000  4.07417e-11      1487.89
       1004.3000  4.07417e-11      1485.85
       1004.4000  4.07417e-11      1483.41
       1004.5000  3.06421e-11      1114.15
       1004.6000  3.06421e-11      1112.61
       1004.7000  3.06421e-11      1111.39
       1004.8000  3.06421e-11      1110.16
       1004.9000  3.06421e-11      1109.24
       1005.0000  3.06421e-11      1108.32
       1005.1000  3.06421e-11      1107.40
       1005.2000  3.06421e-11      1106.79
       1005.3000  3.06421e-11      1106.18
       1005.4000  3.06421e-11      1105.87
       1005.5000  3.25990e-11      1176.17
       1005.6000  3.25990e-11      1175.84
       1005.7000  3.25990e-11      1175.84
       1005.8000  3.25990e-11      1176.17
       1005.9000  3.25990e-11      1176.17
       1006.0000  3.25990e-11      1176.50
       1006.1000  3.25990e-11      1177.15
       1006.2000  3.25990e-11      1177.80
       1006.3000  3.25312e-11      1176.00
       1006.4000  3.25312e-11      1176.98
       1006.5000  2.71630e-11      983.571
       1006.6000  2.71630e-11      984.657
       1006.7000  2.71630e-11      985.744
       1006.8000  2.71630e-11      986.830
       1006.9000  2.71630e-11      988.188
       1007.0000  2.71630e-11      989.546
       1007.1000  2.71630e-11      991.176
       1007.2000  2.71630e-11      992.806
       1007.3000  2.71630e-11      994.436
       1007.4000  2.71630e-11      996.337
       1007.5000  2.80588e-11      1031.16
       1007.6000  2.80588e-11      1033.41
       1007.7000  2.80588e-11      1035.65
       1007.8000  2.80588e-11      1037.90
       1007.9000  2.80588e-11      1040.42
       1008.0000  2.80588e-11      1042.95
       1008.1000  2.80588e-11      1043.23
       1008.2000  2.80588e-11      1043.23
       1008.3000  2.80588e-11      1043.23
       1008.4000  2.80588e-11      1043.23
       1008.5000  2.71440e-11      1009.21
       1008.6000  2.71440e-11      1009.21
       1008.7000  2.71440e-11      1009.21
       1008.8000  2.70870e-11      1007.10
       1008.9000  2.70870e-11      1007.10
       1009.0000  2.70870e-11      1006.82
       1009.1000  2.70870e-11      1006.82
       1009.2000  2.70870e-11      1006.82
       1009.3000  2.70870e-11      1006.82
       1009.4000  2.70870e-11      1006.55
       1009.5000  3.12522e-11      1161.33
       1009.6000  3.12522e-11      1161.33
       1009.7000  3.12522e-11      1161.02
       1009.8000  3.12522e-11      1161.02
       1009.9000  3.12522e-11      1160.71
       1010.0000  3.12522e-11      1160.71
       1010.1000  3.12522e-11      1160.40
       1010.2000  3.12522e-11      1160.08
       1010.3000  3.12522e-11      1159.77
       1010.4000  3.12522e-11      1159.46
       1010.5000  3.41713e-11      1267.41
       1010.6000  3.41713e-11      1267.07
       1010.7000  3.41713e-11      1266.73
       1010.8000  3.41713e-11      1266.39
       1010.9000  3.41713e-11      1266.05
       1011.0000  3.41713e-11      1265.70
       1011.1000  3.41713e-11      1265.70
       1011.2000  3.41713e-11      1265.36
       1011.3000  3.40798e-11      1261.63
       1011.4000  3.40798e-11      1261.29
       1011.5000  2.62497e-11      971.238
       1011.6000  2.62497e-11      970.976
       1011.7000  2.62497e-11      970.713
       1011.8000  2.62497e-11      970.451
       1011.9000  2.62497e-11      970.188
       1012.0000  2.62497e-11      969.926
       1012.1000  2.62497e-11      969.663
       1012.2000  2.62497e-11      969.401
       1012.3000  2.62497e-11      969.138
       1012.4000  2.62497e-11      968.876
       1012.5000  3.84812e-11      1419.96
       1012.6000  3.84812e-11      1419.57
       1012.7000  3.84812e-11      1419.19
       1012.8000  3.84812e-11      1418.80
       1012.9000  3.84812e-11      1418.80
       1013.0000  3.84812e-11      1418.42
       1013.1000  3.84812e-11      1418.03
       1013.2000  3.84812e-11      1417.65
       1013.3000  3.84812e-11      1417.26
       1013.4000  3.84812e-11      1416.88
       1013.5000  2.24322e-11      825.728
       1013.6000  2.24322e-11      825.504
       1013.7000  2.24322e-11      825.279
       1013.8000  2.24147e-11      824.414
       1013.9000  2.24147e-11      824.190
       1014.0000  2.24147e-11      823.966
       1014.1000  2.24147e-11      823.517
       1014.2000  2.24147e-11      823.069
       1014.3000  2.24147e-11      822.621
       1014.4000  2.24147e-11      822.172
       1014.5000  1.71432e-11      628.640
       1014.6000  1.71432e-11      628.297
       1014.7000  1.71432e-11      627.955
       1014.8000  1.71432e-11      627.783
       1014.9000  1.71432e-11      627.440
       1015.0000  1.71432e-11      627.269
       1015.1000  1.71432e-11      626.926
       1015.2000  1.71432e-11      626.755
       1015.3000  1.71432e-11      626.583
       1015.4000  1.71432e-11      626.240
       1015.5000  2.06767e-11      755.111
       1015.6000  2.06767e-11      754.905
       1015.7000  2.06767e-11      754.698
       1015.8000  2.06767e-11      754.491
       1015.9000  2.06767e-11      754.284
       1016.0000  2.06767e-11      754.078
       1016.1000  2.06767e-11      754.078
       1016.2000  2.06767e-11      754.078
       1016.3000  2.07101e-11      755.298
       1016.4000  2.07101e-11      755.091
       1016.5000  2.03770e-11      742.944
       1016.6000  2.03770e-11      742.944
       1016.7000  2.03770e-11      742.944
       1016.8000  2.03770e-11      742.740
       1016.9000  2.03770e-11      742.740
       1017.0000  2.03770e-11      742.536
       1017.1000  2.03770e-11      742.536
       1017.2000  2.03770e-11      742.332
       1017.3000  2.03770e-11      742.332
       1017.4000  2.03770e-11      742.129
       1017.5000  2.34879e-11      855.431
       1017.6000  2.34879e-11      855.196
       1017.7000  2.34879e-11      854.961
       1017.8000  2.34879e-11      854.726
       1017.9000  2.34879e-11      854.491
       1018.0000  2.34879e-11      854.491
       1018.1000  2.34879e-11      854.021
       1018.2000  2.34879e-11      853.552
       1018.3000  2.34879e-11      853.082
       1018.4000  2.34879e-11      852.612
       1018.5000  2.11362e-11      767.031
       1018.6000  2.11362e-11      766.608
       1018.7000  2.11362e-11      766.397
       1018.8000  2.11262e-11      765.613
       1018.9000  2.11262e-11      765.401
       1019.0000  2.11262e-11      764.979
       1019.1000  2.11262e-11      764.768
       1019.2000  2.11262e-11      764.556
       1019.3000  2.11262e-11      764.345
       1019.4000  2.11262e-11      763.923
       1019.5000  2.07935e-11      751.686
       1019.6000  2.07935e-11      751.478
       1019.7000  2.07935e-11      751.271
       1019.8000  2.07935e-11      751.271
       1019.9000  2.07935e-11      751.063
       1020.0000  2.07935e-11      750.855
       1020.1000  2.07935e-11      750.647
       1020.2000  2.07935e-11      750.439
       1020.3000  2.07935e-11      750.439
       1020.4000  2.07935e-11      750.231
       1020.5000  1.46706e-11      529.316
       1020.6000  1.46706e-11      529.169
       1020.7000  1.46706e-11      529.169
       1020.8000  1.46706e-11      529.023
       1020.9000  1.46706e-11      529.023
       1021.0000  1.46706e-11      529.023
       1021.1000  1.46706e-11      529.023
       1021.2000  1.46706e-11      529.023
       1021.3000  1.46394e-11      527.899
       1021.4000  1.46394e-11      527.899
       1021.5000  1.49420e-11      538.808
       1021.6000  1.49420e-11      538.808
       1021.7000  1.49420e-11      538.808
       1021.8000  1.49420e-11      538.957
       1021.9000  1.49420e-11      538.957
       1022.0000  1.49420e-11      539.107
       1022.1000  1.49420e-11      539.107
       1022.2000  1.49420e-11      539.256
       1022.3000  1.49420e-11      539.406
       1022.4000  1.49420e-11      539.406
       1022.5000  1.65238e-11      596.674
       1022.6000  1.65238e-11      596.839
       1022.7000  1.65238e-11      597.004
       1022.8000  1.65238e-11      597.169
       1022.9000  1.65238e-11      597.335
       1023.0000  1.65238e-11      597.500
       1023.1000  1.65238e-11      597.830
       1023.2000  1.65238e-11      597.996
       1023.3000  1.65238e-11      598.161
       1023.4000  1.65238e-11      598.491
       1023.5000  1.94167e-11      703.467
       1023.6000  1.94167e-11      703.855
       1023.7000  1.94167e-11      704.049
       1023.8000  1.93599e-11      702.376
       1023.9000  1.93599e-11      702.763
       1024.0000  1.93599e-11      703.150
       1024.1000  1.93599e-11      703.150
       1024.2000  1.93599e-11      702.957
       1024.3000  1.93599e-11      702.957
       1024.4000  1.93599e-11      702.957
       1024.5000  1.75087e-11      635.741
       1024.6000  1.75087e-11      635.566
       1024.7000  1.75087e-11      635.566
       1024.8000  1.75087e-11      635.566
       1024.9000  1.75087e-11      635.391
       1025.0000  1.75087e-11      635.391
       1025.1000  1.75087e-11      635.391
       1025.2000  1.75087e-11      635.216
       1025.3000  1.75087e-11      635.216
       1025.4000  1.75087e-11      635.216
       1025.5000  1.69928e-11      616.328
       1025.6000  1.69928e-11      616.328
       1025.7000  1.69928e-11      616.158
       1025.8000  1.69928e-11      616.158
       1025.9000  1.69928e-11      615.988
       1026.0000  1.69928e-11      615.988
       1026.1000  1.69928e-11      615.988
       1026.2000  1.69928e-11      615.818
       1026.3000  1.69321e-11      613.620
       1026.4000  1.69321e-11      613.451
       1026.5000  1.38412e-11      501.467
       1026.6000  1.38412e-11      501.329
       1026.7000  1.38412e-11      501.191
       1026.8000  1.38412e-11      501.191
       1026.9000  1.38412e-11      501.052
       1027.0000  1.38412e-11      501.052
       1027.1000  1.38412e-11      500.914
       1027.2000  1.38412e-11      500.775
       1027.3000  1.38412e-11      500.775
       1027.4000  1.38412e-11      500.637
       1027.5000  1.45412e-11      525.809
       1027.6000  1.45412e-11      525.809
       1027.7000  1.45412e-11      525.663
       1027.8000  1.45412e-11      525.518
       1027.9000  1.45412e-11      525.373
       1028.0000  1.45412e-11      525.227
       1028.1000  1.45412e-11      525.227
       1028.2000  1.45412e-11      525.082
       1028.3000  1.45412e-11      524.936
       1028.4000  1.45412e-11      524.791
       1028.5000  1.76433e-11      636.571
       1028.6000  1.76433e-11      636.394
       1028.7000  1.76433e-11      636.218
       1028.8000  1.76485e-11      636.228
       1028.9000  1.76485e-11      636.051
       1029.0000  1.76485e-11      635.875
       1029.1000  1.76485e-11      635.698
       1029.2000  1.76485e-11      635.522
       1029.3000  1.76485e-11      635.345
       1029.4000  1.76485e-11      635.169
       1029.5000  1.57567e-11      566.926
       1029.6000  1.57567e-11      566.768
       1029.7000  1.57567e-11      566.611
       1029.8000  1.57567e-11      566.453
       1029.9000  1.57567e-11      566.296
       1030.0000  1.57567e-11      565.980
       1030.1000  1.57567e-11      566.138
       1030.2000  1.57567e-11      566.138
       1030.3000  1.57567e-11      566.138
       1030.4000  1.57567e-11      566.138
       1030.5000  1.60754e-11      577.590
       1030.6000  1.60754e-11      577.590
       1030.7000  1.60754e-11      577.430
       1030.8000  1.60754e-11      577.430
       1030.9000  1.60754e-11      577.430
       1031.0000  1.60754e-11      577.269
       1031.1000  1.60754e-11      577.269
       1031.2000  1.60754e-11      577.108
       1031.3000  1.60801e-11      577.275
       1031.4000  1.60801e-11      577.114
       1031.5000  1.36472e-11      489.663
       1031.6000  1.36472e-11      489.526
       1031.7000  1.36472e-11      489.390
       1031.8000  1.36472e-11      489.253
       1031.9000  1.36472e-11      489.117
       1032.0000  1.36472e-11      488.980
       1032.1000  1.36472e-11      488.571
       1032.2000  1.36472e-11      488.025
       1032.3000  1.36472e-11      487.616
       1032.4000  1.36472e-11      487.343
       1032.5000  1.74096e-11      621.173
       1032.6000  1.74096e-11      620.651
       1032.7000  1.74096e-11      620.303
       1032.8000  1.74096e-11      619.781
       1032.9000  1.74096e-11      619.432
       1033.0000  1.74096e-11      619.084
       1033.1000  1.74096e-11      618.736
       1033.2000  1.74096e-11      618.562
       1033.3000  1.74096e-11      618.214
       1033.4000  1.74096e-11      618.040
       1033.5000  1.69677e-11      602.012
       1033.6000  1.69677e-11      601.843
       1033.7000  1.69677e-11      601.673
       1033.8000  1.69921e-11      602.370
       1033.9000  1.69921e-11      602.370
       1034.0000  1.69921e-11      602.200
       1034.1000  1.69921e-11      602.200
       1034.2000  1.69921e-11      602.030
       1034.3000  1.69921e-11      602.030
       1034.4000  1.69921e-11      602.030
       1034.5000  1.61872e-11      573.511
       1034.6000  1.61872e-11      573.673
       1034.7000  1.61872e-11      573.673
       1034.8000  1.61872e-11      573.835
       1034.9000  1.61872e-11      573.835
       1035.0000  1.61872e-11      573.997
       1035.1000  1.61872e-11      574.159
       1035.2000  1.61872e-11      574.320
       1035.3000  1.61872e-11      574.644
       1035.4000  1.61872e-11      574.806
       1035.5000  1.35552e-11      481.616
       1035.6000  1.35552e-11      481.887
       1035.7000  1.35552e-11      482.023
       1035.8000  1.35552e-11      482.294
       1035.9000  1.35552e-11      482.700
       1036.0000  1.35552e-11      482.971
       1036.1000  1.35552e-11      482.700
       1036.2000  1.35552e-11      482.429
       1036.3000  1.35328e-11      481.361
       1036.4000  1.35328e-11      481.090
       1036.5000  1.19250e-11      423.694
       1036.6000  1.19250e-11      423.456
       1036.7000  1.19250e-11      423.336
       1036.8000  1.19250e-11      423.098
       1036.9000  1.19250e-11      422.859
       1037.0000  1.19250e-11      422.740
       1037.1000  1.19250e-11      422.621
       1037.2000  1.19250e-11      422.382
       1037.3000  1.19250e-11      422.263
       1037.4000  1.19250e-11      422.144
       1037.5000  1.43153e-11      506.618
       1037.6000  1.43153e-11      506.474
       1037.7000  1.43153e-11      506.331
       1037.8000  1.43153e-11      506.188
       1037.9000  1.43153e-11      506.045
       1038.0000  1.43153e-11      505.902
       1038.1000  1.43153e-11      505.902
       1038.2000  1.43153e-11      505.902
       1038.3000  1.43153e-11      506.045
       1038.4000  1.43153e-11      506.045
       1038.5000  1.69162e-11      597.987
       1038.6000  1.69162e-11      597.987
       1038.7000  1.69162e-11      597.987
       1038.8000  1.68790e-11      596.673
       1038.9000  1.68790e-11      596.673
       1039.0000  1.68790e-11      596.673
       1039.1000  1.68790e-11      596.673
       1039.2000  1.68790e-11      596.673
       1039.3000  1.68790e-11      596.673
       1039.4000  1.68790e-11      596.673
       1039.5000  1.29687e-11      458.443
       1039.6000  1.29687e-11      458.443
       1039.7000  1.29687e-11      458.443
       1039.8000  1.29687e-11      458.443
       1039.9000  1.29687e-11      458.443
       1040.0000  1.29687e-11      458.443
       1040.1000  1.29687e-11      458.443
       1040.2000  1.29687e-11      458.443
       1040.3000  1.29687e-11      458.443
       1040.4000  1.29687e-11      458.443
       1040.5000  1.21515e-11      429.554
       1040.6000  1.21515e-11      429.554
       1040.7000  1.21515e-11      429.554
       1040.8000  1.21515e-11      429.554
       1040.9000  1.21515e-11      429.554
       1041.0000  1.21515e-11      429.554
       1041.1000  1.21515e-11      429.554
       1041.2000  1.21515e-11      429.554
       1041.3000  1.21470e-11      429.396
       1041.4000  1.21470e-11      429.396
       1041.5000  1.11031e-11      392.493
       1041.6000  1.11031e-11      392.493
       1041.7000  1.11031e-11      392.493
       1041.8000  1.11031e-11      392.382
       1041.9000  1.11031e-11      392.382
       1042.0000  1.11031e-11      392.382
       1042.1000  1.11031e-11      392.493
       1042.2000  1.11031e-11      392.493
       1042.3000  1.11031e-11      392.604
       1042.4000  1.11031e-11      392.604
       1042.5000  7.04374e-12      249.067
       1042.6000  7.04374e-12      249.067
       1042.7000  7.04374e-12      249.067
       1042.8000  7.04374e-12      248.996
       1042.9000  7.04374e-12      248.996
       1043.0000  7.04374e-12      248.996
       1043.1000  7.04374e-12      248.926
       1043.2000  7.04374e-12      248.855
       1043.3000  7.04374e-12      248.855
       1043.4000  7.04374e-12      248.785
       1043.5000  1.39426e-11      492.314
       1043.6000  1.39426e-11      492.175
       1043.7000  1.39426e-11      492.035
       1043.8000  1.39861e-11      493.288
       1043.9000  1.39861e-11      493.148
       1044.0000  1.39861e-11      492.869
       1044.1000  1.39861e-11      492.309
       1044.2000  1.39861e-11      491.610
       1044.3000  1.39861e-11      491.051
       1044.4000  1.39861e-11      490.491
       1044.5000  1.09467e-11      383.463
       1044.6000  1.09467e-11      383.134
       1044.7000  1.09467e-11      382.696
       1044.8000  1.09467e-11      382.368
       1044.9000  1.09467e-11      382.040
       1045.0000  1.09467e-11      381.711
       1045.1000  1.09467e-11      381.492
       1045.2000  1.09467e-11      381.164
       1045.3000  1.09467e-11      380.945
       1045.4000  1.09467e-11      380.726
       1045.5000  8.49577e-12      295.398
       1045.6000  8.49577e-12      295.228
       1045.7000  8.49577e-12      295.143
       1045.8000  8.49577e-12      295.058
       1045.9000  8.49577e-12      294.973
       1046.0000  8.49577e-12      294.888
       1046.1000  8.49577e-12      294.888
       1046.2000  8.49577e-12      294.803
       1046.3000  8.51685e-12      295.535
       1046.4000  8.51685e-12      295.535
       1046.5000  7.10572e-12      246.640
       1046.6000  7.10572e-12      246.640
       1046.7000  7.10572e-12      246.711
       1046.8000  7.10572e-12      246.782
       1046.9000  7.10572e-12      246.853
       1047.0000  7.10572e-12      246.995
       1047.1000  7.10572e-12      247.066
       1047.2000  7.10572e-12      247.208
       1047.3000  7.10572e-12      247.350
       1047.4000  7.10572e-12      247.492
       1047.5000  7.08130e-12      246.854
       1047.6000  7.08130e-12      246.996
       1047.7000  7.08130e-12      247.208
       1047.8000  7.08130e-12      247.421
       1047.9000  7.08130e-12      247.633
       1048.0000  7.08130e-12      247.916
       1048.1000  7.08130e-12      247.916
       1048.2000  7.08130e-12      247.916
       1048.3000  7.08130e-12      247.916
       1048.4000  7.08130e-12      247.846
       1048.5000  8.76764e-12      306.867
       1048.6000  8.76764e-12      306.867
       1048.7000  8.76764e-12      306.867
       1048.8000  8.76557e-12      306.795
       1048.9000  8.76557e-12      306.795
       1049.0000  8.76557e-12      306.707
       1049.1000  8.76557e-12      306.707
       1049.2000  8.76557e-12      306.707
       1049.3000  8.76557e-12      306.620
       1049.4000  8.76557e-12      306.620
       1049.5000  8.16225e-12      285.516
       1049.6000  8.16225e-12      285.434
       1049.7000  8.16225e-12      285.434
       1049.8000  8.16225e-12      285.434
       1049.9000  8.16225e-12      285.352
       1050.0000  8.16225e-12      285.352
       1050.1000  8.16225e-12      285.271
       1050.2000  8.16225e-12      285.271
       1050.3000  8.16225e-12      285.189
       1050.4000  8.16225e-12      285.108
       1050.5000  4.38477e-12      153.160
       1050.6000  4.38477e-12      153.116
       1050.7000  4.38477e-12      153.116
       1050.8000  4.38477e-12      153.072
       1050.9000  4.38477e-12      153.028
       1051.0000  4.38477e-12      153.028
       1051.1000  4.38477e-12      152.985
       1051.2000  4.38477e-12      152.985
       1051.3000  4.36845e-12      152.372
       1051.4000  4.36845e-12      152.328
       1051.5000  4.21412e-12      146.946
       1051.6000  4.21412e-12      146.904
       1051.7000  4.21412e-12      146.862
       1051.8000  4.21412e-12      146.862
       1051.9000  4.21412e-12      146.820
       1052.0000  4.21412e-12      146.820
       1052.1000  4.21412e-12      146.778
       1052.2000  4.21412e-12      146.736
       1052.3000  4.21412e-12      146.736
       1052.4000  4.21412e-12      146.694
       1052.5000  3.83435e-12      133.435
       1052.6000  3.83435e-12      133.435
       1052.7000  3.83435e-12      133.397
       1052.8000  3.83435e-12      133.359
       1052.9000  3.83435e-12      133.359
       1053.0000  3.83435e-12      133.320
       1053.1000  3.83435e-12      133.320
       1053.2000  3.83435e-12      133.282
       1053.3000  3.83435e-12      133.244
       1053.4000  3.83435e-12      133.244
       1053.5000  3.06437e-12      106.456
       1053.6000  3.06437e-12      106.426
       1053.7000  3.06437e-12      106.426
       1053.8000  3.04361e-12      105.674
       1053.9000  3.04361e-12      105.644
       1054.0000  3.04361e-12      105.644
       1054.1000  3.04361e-12      105.705
       1054.2000  3.04361e-12      105.735
       1054.3000  3.04361e-12      105.796
       1054.4000  3.04361e-12      105.857
       1054.5000  1.59816e-12      55.5999
       1054.6000  1.59816e-12      55.6158
       1054.7000  1.59816e-12      55.6318
       1054.8000  1.59816e-12      55.6478
       1054.9000  1.59816e-12      55.6638
       1055.0000  1.59816e-12      55.6798
       1055.1000  1.59816e-12      55.6798
       1055.2000  1.59816e-12      55.6798
       1055.3000  1.59816e-12      55.6958
       1055.4000  1.59816e-12      55.6958
       1055.5000  1.41828e-12      49.4130
       1055.6000  1.41828e-12      49.4130
       1055.7000  1.41828e-12      49.4130
       1055.8000  1.41828e-12      49.3988
       1055.9000  1.41828e-12      49.3846
       1056.0000  1.41828e-12      49.3705
       1056.1000  1.41828e-12      49.3279
       1056.2000  1.41828e-12      49.2854
       1056.3000  1.40391e-12      48.7436
       1056.4000  1.40391e-12      48.6875
       1056.5000  3.15288e-13      10.9247
       1056.6000  3.15288e-13      10.9184
       1056.7000  3.15288e-13      10.9090
       1056.8000  3.15288e-13      10.8995
       1056.9000  3.15288e-13      10.8900
       1057.0000  3.15288e-13      10.8837
