PDS_VERSION_ID         = PDS3
RECORD_TYPE            = STREAM
OBJECT                 = TEXT
  PUBLICATION_DATE     = 2014-04-25
  INTERCHANGE_FORMAT   = ASCII
  NOTE                 = "System transmission vs. wavelength."
END_OBJECT             = TEXT
END
    
The systrans directory contains the non-wavelength-integrated system 
transmission values (QE*optics*filter1*filter2) for each filter combination. 
The naming convention for these files is as follows:

<camera><filter 1><filter 2>_systrans.tab

where <camera> is "issna" or "isswa," and <filter 1> and <filter 2> represent
the filter names. For polarized filter combinations, values are given for the
parallel orientation of the filter (full transmission), with values for the 
perpendicular (blocking) orientation provided in files with subscript 
"_b_systrans.tab". 

Columns in systrans files are as follows:

 1st column: Wavelength (nm)  
 2nd column: Transmitted Flux
 3rd column: Transmitted Flux * Solar Flux (phot per cm^2-s-angstrom at 1 AU)

The solar spectrum used for this calculation is provided in solarflux.tab.

\begindata
       661.00000  6.83113e-13      35.6653
       661.10000  6.83113e-13      35.6448
       661.20000  6.83113e-13      35.6175
       661.30000  6.81417e-13      35.5086
       661.40000  6.81417e-13      35.4882
       661.50000  2.76724e-12      144.035
       661.60000  2.76724e-12      143.980
       661.70000  2.76724e-12      143.897
       661.80000  2.76724e-12      143.841
       661.90000  2.76724e-12      143.786
       662.00000  2.76724e-12      143.731
       662.10000  2.76724e-12      143.675
       662.20000  2.76724e-12      143.620
       662.30000  2.76724e-12      143.592
       662.40000  2.76724e-12      143.565
       662.50000  5.92569e-12      307.306
       662.60000  5.92569e-12      307.306
       662.70000  5.92569e-12      307.247
       662.80000  5.92569e-12      307.188
       662.90000  5.92569e-12      307.188
       663.00000  5.92569e-12      307.188
       663.10000  5.92569e-12      307.425
       663.20000  5.92569e-12      307.602
       663.30000  5.92569e-12      307.839
       663.40000  5.92569e-12      308.017
       663.50000  3.12980e-12      162.781
       663.60000  3.12980e-12      162.875
       663.70000  3.12980e-12      162.937
       663.80000  3.12312e-12      162.683
       663.90000  3.12312e-12      162.746
       664.00000  3.12312e-12      162.777
       664.10000  3.12312e-12      162.839
       664.20000  3.12312e-12      162.871
       664.30000  3.12312e-12      162.902
       664.40000  3.12312e-12      162.933
       664.50000  7.86733e-13      41.0439
       664.60000  7.86733e-13      41.0439
       664.70000  7.86733e-13      41.0439
       664.80000  7.86733e-13      41.0439
       664.90000  7.86733e-13      41.0439
       665.00000  7.86733e-13      41.0360
       665.10000  7.86733e-13      41.0281
       665.20000  7.86733e-13      41.0203
       665.30000  7.86733e-13      41.0045
       665.40000  7.86733e-13      40.9888
       665.50000  8.34412e-13      43.4562
       665.60000  8.34412e-13      43.4395
       665.70000  8.34412e-13      43.4145
       665.80000  8.34412e-13      43.3978
       665.90000  8.34412e-13      43.3727
       666.00000  8.34412e-13      43.3394
       666.10000  8.34412e-13      43.3143
       666.20000  8.34412e-13      43.2810
       666.30000  8.32316e-13      43.1390
       666.40000  8.32316e-13      43.1057
       666.50000  1.28231e-13      6.63467
       666.60000  1.28231e-13      6.62826
       666.70000  1.28231e-13      6.62185
       666.80000  1.28231e-13      6.61543
       666.90000  1.28231e-13      6.60902
       667.00000  1.28231e-13      6.60133
       667.10000  1.28231e-13      6.60902
       667.20000  1.28231e-13      6.61543
       667.30000  1.28231e-13      6.62185
       667.40000  1.28231e-13      6.62826
       667.50000  2.89466e-12      149.769
       667.60000  2.89466e-12      149.885
       667.70000  2.89466e-12      150.001
       667.80000  2.89466e-12      150.088
       667.90000  2.89466e-12      150.175
       668.00000  2.89466e-12      150.262
       668.10000  2.89466e-12      150.348
       668.20000  2.89466e-12      150.406
       668.30000  2.89466e-12      150.464
       668.40000  2.89466e-12      150.493
       668.50000  4.17879e-13      21.7297
       668.60000  4.17879e-13      21.7339
       668.70000  4.17879e-13      21.7339
       668.80000  4.17195e-13      21.6983
       668.90000  4.17195e-13      21.6983
       669.00000  4.17195e-13      21.6942
       669.10000  4.17195e-13      21.6650
       669.20000  4.17195e-13      21.6357
       669.30000  4.17195e-13      21.6107
       669.40000  4.17195e-13      21.5857
       669.50000  9.86556e-13      50.9852
       669.60000  9.86556e-13      50.9260
       669.70000  9.86556e-13      50.8767
       669.80000  9.86556e-13      50.8274
       669.90000  9.86556e-13      50.7780
       670.00000  9.86556e-13      50.7386
       670.10000  9.86556e-13      50.6991
       670.20000  9.86556e-13      50.6596
       670.30000  9.86556e-13      50.6202
       670.40000  9.86556e-13      50.5906
       670.50000  1.10909e-13      5.68411
       670.60000  1.10909e-13      5.68078
       670.70000  1.10909e-13      5.67857
       670.80000  1.10909e-13      5.67635
       670.90000  1.10909e-13      5.67413
       671.00000  1.10909e-13      5.67302
       671.10000  1.10909e-13      5.67080
       671.20000  1.10909e-13      5.67080
       671.30000  1.10914e-13      5.66991
       671.40000  1.10914e-13      5.66991
       671.50000  3.93874e-12      201.348
       671.60000  3.93874e-12      201.348
       671.70000  3.93874e-12      201.348
       671.80000  3.93874e-12      201.388
       671.90000  3.93874e-12      201.427
       672.00000  3.93874e-12      201.506
       672.10000  3.93874e-12      201.585
       672.20000  3.93874e-12      201.663
       672.30000  3.93874e-12      201.742
       672.40000  3.93874e-12      201.860
       672.50000  1.12318e-12      57.5966
       672.60000  1.12318e-12      57.6303
       672.70000  1.12318e-12      57.6640
       672.80000  1.12318e-12      57.7089
       672.90000  1.12318e-12      57.7538
       673.00000  1.12318e-12      57.8100
       673.10000  1.12318e-12      57.7875
       673.20000  1.12318e-12      57.7650
       673.30000  1.12318e-12      57.7426
       673.40000  1.12318e-12      57.7313
       673.50000  3.67525e-14      1.88834
       673.60000  3.67525e-14      1.88797
       673.70000  3.67525e-14      1.88761
       673.80000  3.67672e-14      1.88763
       673.90000  3.67672e-14      1.88726
       674.00000  3.67672e-14      1.88689
       674.10000  3.67672e-14      1.88652
       674.20000  3.67672e-14      1.88615
       674.30000  3.67672e-14      1.88579
       674.40000  3.67672e-14      1.88542
       674.50000  1.61909e-12      83.0106
       674.60000  1.61909e-12      83.0106
       674.70000  1.61909e-12      82.9944
       674.80000  1.61909e-12      82.9944
       674.90000  1.61909e-12      82.9782
       675.00000  1.61909e-12      82.9782
       675.10000  1.61909e-12      82.9944
       675.20000  1.61909e-12      83.0106
       675.30000  1.61909e-12      83.0268
       675.40000  1.61909e-12      83.0429
       675.50000  9.15868e-14      4.69749
       675.60000  9.15868e-14      4.69840
       675.70000  9.15868e-14      4.69932
       675.80000  9.15868e-14      4.69932
       675.90000  9.15868e-14      4.70024
       676.00000  9.15868e-14      4.70024
       676.10000  9.15868e-14      4.70115
       676.20000  9.15868e-14      4.70115
       676.30000  9.14934e-14      4.69636
       676.40000  9.14934e-14      4.69636
       676.50000  5.08066e-12      260.841
       676.60000  5.08066e-12      260.841
       676.70000  5.08066e-12      260.841
       676.80000  5.08066e-12      260.790
       676.90000  5.08066e-12      260.790
       677.00000  5.08066e-12      260.790
       677.10000  5.08066e-12      260.790
       677.20000  5.08066e-12      260.739
       677.30000  5.08066e-12      260.739
       677.40000  5.08066e-12      260.689
       677.50000  4.55365e-12      233.648
       677.60000  4.55365e-12      233.602
       677.70000  4.55365e-12      233.602
       677.80000  4.55365e-12      233.557
       677.90000  4.55365e-12      233.511
       678.00000  4.55365e-12      233.466
       678.10000  4.55365e-12      233.420
       678.20000  4.55365e-12      233.375
       678.30000  4.55365e-12      233.329
       678.40000  4.55365e-12      233.284
       678.50000  1.75072e-14     0.896545
       678.60000  1.75072e-14     0.896370
       678.70000  1.75072e-14     0.896195
       678.80000  1.75059e-14     0.895777
       678.90000  1.75059e-14     0.895602
       679.00000  1.75059e-14     0.895252
       679.10000  1.75059e-14     0.895252
       679.20000  1.75059e-14     0.895427
       679.30000  1.75059e-14     0.895427
       679.40000  1.75059e-14     0.895427
       679.50000  4.29117e-12      219.493
       679.60000  4.29117e-12      219.493
       679.70000  4.29117e-12      219.493
       679.80000  4.29117e-12      219.493
       679.90000  4.29117e-12      219.493
       680.00000  4.29117e-12      219.450
       680.10000  4.29117e-12      219.450
       680.20000  4.29117e-12      219.450
       680.30000  4.29117e-12      219.407
       680.40000  4.29117e-12      219.407
       680.50000  6.42778e-13      32.8588
       680.60000  6.42778e-13      32.8588
       680.70000  6.42778e-13      32.8524
       680.80000  6.42778e-13      32.8460
       680.90000  6.42778e-13      32.8395
       681.00000  6.42778e-13      32.8395
       681.10000  6.42778e-13      32.8331
       681.20000  6.42778e-13      32.8267
       681.30000  6.42717e-13      32.8236
       681.40000  6.42717e-13      32.8172
       681.50000  2.61033e-12      133.257
       681.60000  2.61033e-12      133.231
       681.70000  2.61033e-12      133.205
       681.80000  2.61033e-12      133.153
       681.90000  2.61033e-12      133.127
       682.00000  2.61033e-12      133.101
       682.10000  2.61033e-12      133.049
       682.20000  2.61033e-12      132.996
       682.30000  2.61033e-12      132.970
       682.40000  2.61033e-12      132.918
       682.50000  3.58728e-13      18.2593
       682.60000  3.58728e-13      18.2521
       682.70000  3.58728e-13      18.2449
       682.80000  3.58728e-13      18.2377
       682.90000  3.58728e-13      18.2270
       683.00000  3.58728e-13      18.2198
       683.10000  3.58728e-13      18.2126
       683.20000  3.58728e-13      18.2019
       683.30000  3.58728e-13      18.1911
       683.40000  3.58728e-13      18.1803
       683.50000  5.79253e-13      29.3449
       683.60000  5.79253e-13      29.3276
       683.70000  5.79253e-13      29.3102
       683.80000  5.78809e-13      29.2646
       683.90000  5.78809e-13      29.2472
       684.00000  5.78809e-13      29.2298
       684.10000  5.78809e-13      29.2067
       684.20000  5.78809e-13      29.1893
       684.30000  5.78809e-13      29.1662
       684.40000  5.78809e-13      29.1488
       684.50000  1.11564e-12      56.1388
       684.60000  1.11564e-12      56.0942
       684.70000  1.11564e-12      56.0496
       684.80000  1.11564e-12      56.0049
       684.90000  1.11564e-12      55.9492
       685.00000  1.11564e-12      55.9045
       685.10000  1.11564e-12      55.9492
       685.20000  1.11564e-12      56.0049
       685.30000  1.11564e-12      56.0496
       685.40000  1.11564e-12      56.0830
       685.50000  4.92990e-12      248.023
       685.60000  4.92990e-12      248.220
       685.70000  4.92990e-12      248.368
       685.80000  4.92990e-12      248.516
       685.90000  4.92990e-12      248.664
       686.00000  4.92990e-12      248.812
       686.10000  4.92990e-12      248.960
       686.20000  4.92990e-12      249.058
       686.30000  4.92472e-12      248.945
       686.40000  4.92472e-12      249.043
       686.50000  6.80626e-13      34.4329
       686.60000  6.80626e-13      34.4465
       686.70000  6.80626e-13      34.4601
       686.80000  6.80626e-13      34.4669
       686.90000  6.80626e-13      34.4805
       687.00000  6.80626e-13      34.4873
       687.10000  6.80626e-13      34.4941
       687.20000  6.80626e-13      34.4941
       687.30000  6.80626e-13      34.4941
       687.40000  6.80626e-13      34.4941
       687.50000  1.53857e-12      77.9745
       687.60000  1.53857e-12      77.9745
       687.70000  1.53857e-12      77.9745
       687.80000  1.53857e-12      77.9745
       687.90000  1.53857e-12      77.9745
       688.00000  1.53857e-12      77.9591
       688.10000  1.53857e-12      77.9591
       688.20000  1.53857e-12      77.9591
       688.30000  1.53857e-12      77.9437
       688.40000  1.53857e-12      77.9437
       688.50000  3.80318e-13      19.2631
       688.60000  3.80318e-13      19.2593
       688.70000  3.80318e-13      19.2593
       688.80000  3.79833e-13      19.2310
       688.90000  3.79833e-13      19.2272
       689.00000  3.79833e-13      19.2234
       689.10000  3.79833e-13      19.2196
       689.20000  3.79833e-13      19.2158
       689.30000  3.79833e-13      19.2120
       689.40000  3.79833e-13      19.2082
       689.50000  1.03878e-12      52.5206
       689.60000  1.03878e-12      52.5103
       689.70000  1.03878e-12      52.4895
       689.80000  1.03878e-12      52.4791
       689.90000  1.03878e-12      52.4687
       690.00000  1.03878e-12      52.4479
       690.10000  1.03878e-12      52.4272
       690.20000  1.03878e-12      52.4168
       690.30000  1.03878e-12      52.3960
       690.40000  1.03878e-12      52.3752
       690.50000  4.19362e-12      211.401
       690.60000  4.19362e-12      211.317
       690.70000  4.19362e-12      211.233
       690.80000  4.19362e-12      211.149
       690.90000  4.19362e-12      211.065
       691.00000  4.19362e-12      210.981
       691.10000  4.19362e-12      211.065
       691.20000  4.19362e-12      211.107
       691.30000  4.18962e-12      210.989
       691.40000  4.18962e-12      211.031
       691.50000  7.95883e-14      4.00966
       691.60000  7.95883e-14      4.01125
       691.70000  7.95883e-14      4.01205
       691.80000  7.95883e-14      4.01284
       691.90000  7.95883e-14      4.01364
       692.00000  7.95883e-14      4.01364
       692.10000  7.95883e-14      4.01444
       692.20000  7.95883e-14      4.01523
       692.30000  7.95883e-14      4.01523
       692.40000  7.95883e-14      4.01523
       692.50000  3.79361e-12      191.425
       692.60000  3.79361e-12      191.425
       692.70000  3.79361e-12      191.425
       692.80000  3.79361e-12      191.425
       692.90000  3.79361e-12      191.425
       693.00000  3.79361e-12      191.387
       693.10000  3.79361e-12      191.387
       693.20000  3.79361e-12      191.350
       693.30000  3.79361e-12      191.312
       693.40000  3.79361e-12      191.274
       693.50000  4.56157e-12      229.949
       693.60000  4.56157e-12      229.903
       693.70000  4.56157e-12      229.858
       693.80000  4.54347e-12      228.900
       693.90000  4.54347e-12      228.809
       694.00000  4.54347e-12      228.764
       694.10000  4.54347e-12      228.718
       694.20000  4.54347e-12      228.628
       694.30000  4.54347e-12      228.582
       694.40000  4.54347e-12      228.491
       694.50000  3.70167e-12      186.083
       694.60000  3.70167e-12      186.046
       694.70000  3.70167e-12      185.972
       694.80000  3.70167e-12      185.898
       694.90000  3.70167e-12      185.824
       695.00000  3.70167e-12      185.750
       695.10000  3.70167e-12      185.676
       695.20000  3.70167e-12      185.602
       695.30000  3.70167e-12      185.490
       695.40000  3.70167e-12      185.416
       695.50000  1.81410e-12      90.8322
       695.60000  1.81410e-12      90.7777
       695.70000  1.81410e-12      90.7415
       695.80000  1.81410e-12      90.6870
       695.90000  1.81410e-12      90.6326
       696.00000  1.81410e-12      90.5963
       696.10000  1.81410e-12      90.5419
       696.20000  1.81410e-12      90.4875
       696.30000  1.81232e-12      90.3443
       696.40000  1.81232e-12      90.2899
       696.50000  2.61778e-12      130.339
       696.60000  2.61778e-12      130.261
       696.70000  2.61778e-12      130.156
       696.80000  2.61778e-12      130.077
       696.90000  2.61778e-12      129.999
       697.00000  2.61778e-12      129.894
       697.10000  2.61778e-12      130.077
       697.20000  2.61778e-12      130.208
       697.30000  2.61778e-12      130.365
       697.40000  2.61778e-12      130.496
       697.50000  1.11419e-11      555.979
       697.60000  1.11419e-11      556.425
       697.70000  1.11419e-11      556.871
       697.80000  1.11419e-11      557.205
       697.90000  1.11419e-11      557.539
       698.00000  1.11419e-11      557.762
       698.10000  1.11419e-11      557.985
       698.20000  1.11419e-11      558.208
       698.30000  1.11419e-11      558.319
       698.40000  1.11419e-11      558.430
       698.50000  1.20161e-11      602.368
       698.60000  1.20161e-11      602.368
       698.70000  1.20161e-11      602.248
       698.80000  1.19956e-11      601.100
       698.90000  1.19956e-11      600.980
       699.00000  1.19956e-11      600.740
       699.10000  1.19956e-11      599.661
       699.20000  1.19956e-11      598.461
       699.30000  1.19956e-11      597.501
       699.40000  1.19956e-11      596.422
       699.50000  2.52950e-12      125.564
       699.60000  2.52950e-12      125.362
       699.70000  2.52950e-12      125.185
       699.80000  2.52950e-12      125.008
       699.90000  2.52950e-12      124.831
       700.00000  2.52950e-12      124.679
       700.10000  2.52950e-12      124.527
       700.20000  2.52950e-12      124.376
       700.30000  2.52950e-12      124.249
       700.40000  2.52950e-12      124.123
       700.50000  8.60519e-12      421.826
       700.60000  8.60519e-12      421.482
       700.70000  8.60519e-12      421.138
       700.80000  8.60519e-12      420.880
       700.90000  8.60519e-12      420.622
       701.00000  8.60519e-12      420.364
       701.10000  8.60519e-12      420.277
       701.20000  8.60519e-12      420.191
       701.30000  8.59932e-12      419.819
       701.40000  8.59932e-12      419.819
       701.50000  2.63894e-13      12.8833
       701.60000  2.63894e-13      12.8833
       701.70000  2.63894e-13      12.8833
       701.80000  2.63894e-13      12.8859
       701.90000  2.63894e-13      12.8859
       702.00000  2.63894e-13      12.8886
       702.10000  2.63894e-13      12.8939
       702.20000  2.63894e-13      12.8965
       702.30000  2.63894e-13      12.9018
       702.40000  2.63894e-13      12.9044
       702.50000  8.79299e-12      430.153
       702.60000  8.79299e-12      430.417
       702.70000  8.79299e-12      430.593
       702.80000  8.79299e-12      430.857
       702.90000  8.79299e-12      431.120
       703.00000  8.79299e-12      431.384
       703.10000  8.79299e-12      432.176
       703.20000  8.79299e-12      432.967
       703.30000  8.79299e-12      433.670
       703.40000  8.79299e-12      434.374
       703.50000  4.57162e-12      226.158
       703.60000  4.57162e-12      226.524
       703.70000  4.57162e-12      226.798
       703.80000  4.55932e-12      226.507
       703.90000  4.55932e-12      226.781
       704.00000  4.55932e-12      227.008
       704.10000  4.55932e-12      227.282
       704.20000  4.55932e-12      227.510
       704.30000  4.55932e-12      227.692
       704.40000  4.55932e-12      227.875
       704.50000  8.29806e-13      41.5069
       704.60000  8.29806e-13      41.5401
       704.70000  8.29806e-13      41.5650
       704.80000  8.29806e-13      41.5816
       704.90000  8.29806e-13      41.6065
       705.00000  8.29806e-13      41.6231
       705.10000  8.29806e-13      41.6314
       705.20000  8.29806e-13      41.6397
       705.30000  8.29806e-13      41.6479
       705.40000  8.29806e-13      41.6562
       705.50000  1.22201e-12      61.3451
       705.60000  1.22201e-12      61.3451
       705.70000  1.22201e-12      61.3328
       705.80000  1.22201e-12      61.3206
       705.90000  1.22201e-12      61.3084
       706.00000  1.22201e-12      61.2840
       706.10000  1.22201e-12      61.2595
       706.20000  1.22201e-12      61.2229
       706.30000  1.22293e-12      61.2322
       706.40000  1.22293e-12      61.1955
       706.50000  9.45286e-12      472.643
       706.60000  9.45286e-12      472.265
       706.70000  9.45286e-12      471.887
       706.80000  9.45286e-12      471.414
       706.90000  9.45286e-12      470.942
       707.00000  9.45286e-12      470.469
       707.10000  9.45286e-12      470.091
       707.20000  9.45286e-12      469.807
       707.30000  9.45286e-12      469.429
       707.40000  9.45286e-12      469.146
       707.50000  3.36676e-13      16.6991
       707.60000  3.36676e-13      16.6890
       707.70000  3.36676e-13      16.6823
       707.80000  3.36676e-13      16.6722
       707.90000  3.36676e-13      16.6655
       708.00000  3.36676e-13      16.6587
       708.10000  3.36676e-13      16.6520
       708.20000  3.36676e-13      16.6453
       708.30000  3.36676e-13      16.6385
       708.40000  3.36676e-13      16.6318
       708.50000  1.56007e-12      77.0521
       708.60000  1.56007e-12      77.0209
       708.70000  1.56007e-12      77.0053
       708.80000  1.55476e-12      76.7276
       708.90000  1.55476e-12      76.7120
       709.00000  1.55476e-12      76.7120
       709.10000  1.55476e-12      76.7431
       709.20000  1.55476e-12      76.7742
       709.30000  1.55476e-12      76.7898
       709.40000  1.55476e-12      76.8209
       709.50000  5.80333e-12      286.801
       709.60000  5.80333e-12      286.917
       709.70000  5.80333e-12      286.975
       709.80000  5.80333e-12      287.033
       709.90000  5.80333e-12      287.091
       710.00000  5.80333e-12      287.149
       710.10000  5.80333e-12      287.207
       710.20000  5.80333e-12      287.265
       710.30000  5.80333e-12      287.265
       710.40000  5.80333e-12      287.323
       710.50000  4.06809e-12      201.411
       710.60000  4.06809e-12      201.411
       710.70000  4.06809e-12      201.411
       710.80000  4.06809e-12      201.411
       710.90000  4.06809e-12      201.411
       711.00000  4.06809e-12      201.411
       711.10000  4.06809e-12      201.411
       711.20000  4.06809e-12      201.371
       711.30000  4.06897e-12      201.414
       711.40000  4.06897e-12      201.373
       711.50000  7.79422e-12      385.658
       711.60000  7.79422e-12      385.580
       711.70000  7.79422e-12      385.502
       711.80000  7.79422e-12      385.424
       711.90000  7.79422e-12      385.346
       712.00000  7.79422e-12      385.190
       712.10000  7.79422e-12      385.112
       712.20000  7.79422e-12      384.957
       712.30000  7.79422e-12      384.879
       712.40000  7.79422e-12      384.723
       712.50000  5.44790e-12      268.799
       712.60000  5.44790e-12      268.690
       712.70000  5.44790e-12      268.527
       712.80000  5.44790e-12      268.418
       712.90000  5.44790e-12      268.309
       713.00000  5.44790e-12      268.145
       713.10000  5.44790e-12      268.145
       713.20000  5.44790e-12      268.145
       713.30000  5.44790e-12      268.145
       713.40000  5.44790e-12      268.091
       713.50000  1.05244e-11      517.905
       713.60000  1.05244e-11      517.905
       713.70000  1.05244e-11      517.800
       713.80000  1.05219e-11      517.679
       713.90000  1.05219e-11      517.574
       714.00000  1.05219e-11      517.574
       714.10000  1.05219e-11      517.469
       714.20000  1.05219e-11      517.363
       714.30000  1.05219e-11      517.363
       714.40000  1.05219e-11      517.258
       714.50000  2.54439e-12      125.057
       714.60000  2.54439e-12      125.031
       714.70000  2.54439e-12      125.031
       714.80000  2.54439e-12      125.006
       714.90000  2.54439e-12      124.980
       715.00000  2.54439e-12      124.955
       715.10000  2.54439e-12      124.930
       715.20000  2.54439e-12      124.930
       715.30000  2.54439e-12      124.930
       715.40000  2.54439e-12      124.904
       715.50000  4.69362e-12      230.363
       715.60000  4.69362e-12      230.316
       715.70000  4.69362e-12      230.269
       715.80000  4.69362e-12      230.222
       715.90000  4.69362e-12      230.175
       716.00000  4.69362e-12      230.081
       716.10000  4.69362e-12      230.034
       716.20000  4.69362e-12      229.940
       716.30000  4.68685e-12      229.515
       716.40000  4.68685e-12      229.421
       716.50000  6.39527e-12      312.921
       716.60000  6.39527e-12      312.793
       716.70000  6.39527e-12      312.665
       716.80000  6.39527e-12      312.473
       716.90000  6.39527e-12      312.345
       717.00000  6.39527e-12      312.153
       717.10000  6.39527e-12      311.961
       717.20000  6.39527e-12      311.769
       717.30000  6.39527e-12      311.578
       717.40000  6.39527e-12      311.386
       717.50000  2.69412e-12      131.096
       717.60000  2.69412e-12      130.988
       717.70000  2.69412e-12      130.907
       717.80000  2.69412e-12      130.800
       717.90000  2.69412e-12      130.692
       718.00000  2.69412e-12      130.584
       718.10000  2.69412e-12      130.476
       718.20000  2.69412e-12      130.369
       718.30000  2.69412e-12      130.261
       718.40000  2.69412e-12      130.126
       718.50000  1.15625e-11      558.005
       718.60000  1.15625e-11      557.427
       718.70000  1.15625e-11      556.848
       718.80000  1.15150e-11      553.986
       718.90000  1.15150e-11      553.410
       719.00000  1.15150e-11      552.834
       719.10000  1.15150e-11      552.834
       719.20000  1.15150e-11      552.834
       719.30000  1.15150e-11      552.834
       719.40000  1.15150e-11      552.949
       719.50000  3.36488e-12      161.581
       719.60000  3.36488e-12      161.615
       719.70000  3.36488e-12      161.615
       719.80000  3.36488e-12      161.649
       719.90000  3.36488e-12      161.682
       720.00000  3.36488e-12      161.750
       720.10000  3.36488e-12      161.783
       720.20000  3.36488e-12      161.817
       720.30000  3.36488e-12      161.884
       720.40000  3.36488e-12      161.918
       720.50000  7.79385e-12      375.196
       720.60000  7.79385e-12      375.352
       720.70000  7.79385e-12      375.508
       720.80000  7.79385e-12      375.663
       720.90000  7.79385e-12      375.897
       721.00000  7.79385e-12      376.053
       721.10000  7.79385e-12      376.443
       721.20000  7.79385e-12      376.832
       721.30000  7.77798e-12      376.454
       721.40000  7.77798e-12      376.766
       721.50000  8.87234e-12      430.220
       721.60000  8.87234e-12      430.574
       721.70000  8.87234e-12      430.929
       721.80000  8.87234e-12      431.373
       721.90000  8.87234e-12      431.728
       722.00000  8.87234e-12      431.994
       722.10000  8.87234e-12      432.349
       722.20000  8.87234e-12      432.704
       722.30000  8.87234e-12      432.970
       722.40000  8.87234e-12      433.236
       722.50000  9.48475e-12      463.425
       722.60000  9.48475e-12      463.804
       722.70000  9.48475e-12      463.994
       722.80000  9.48475e-12      464.279
       722.90000  9.48475e-12      464.563
       723.00000  9.48475e-12      464.753
       723.10000  9.48475e-12      465.037
       723.20000  9.48475e-12      465.227
       723.30000  9.48475e-12      465.417
       723.40000  9.48475e-12      465.606
       723.50000  4.12301e-12      202.481
       723.60000  4.12301e-12      202.522
       723.70000  4.12301e-12      202.605
       723.80000  4.11036e-12      202.024
       723.90000  4.11036e-12      202.065
       724.00000  4.11036e-12      202.107
       724.10000  4.11036e-12      202.148
       724.20000  4.11036e-12      202.189
       724.30000  4.11036e-12      202.230
       724.40000  4.11036e-12      202.271
       724.50000  6.04139e-12      297.297
       724.60000  6.04139e-12      297.297
       724.70000  6.04139e-12      297.297
       724.80000  6.04139e-12      297.297
       724.90000  6.04139e-12      297.297
       725.00000  6.04139e-12      297.297
       725.10000  6.04139e-12      297.417
       725.20000  6.04139e-12      297.538
       725.30000  6.04139e-12      297.599
       725.40000  6.04139e-12      297.719
       725.50000  3.67389e-12      181.086
       725.60000  3.67389e-12      181.123
       725.70000  3.67389e-12      181.123
       725.80000  3.67389e-12      181.159
       725.90000  3.67389e-12      181.159
       726.00000  3.67389e-12      181.159
       726.10000  3.67389e-12      181.159
       726.20000  3.67389e-12      181.159
       726.30000  3.66433e-12      180.651
       726.40000  3.66433e-12      180.615
       726.50000  3.89898e-12      192.142
       726.60000  3.89898e-12      192.103
       726.70000  3.89898e-12      192.064
       726.80000  3.89898e-12      191.986
       726.90000  3.89898e-12      191.908
       727.00000  3.89898e-12      191.830
       727.10000  3.89898e-12      191.557
       727.20000  3.89898e-12      191.284
       727.30000  3.89898e-12      191.011
       727.40000  3.89898e-12      190.777
       727.50000  7.37067e-12      360.204
       727.60000  7.37067e-12      359.762
       727.70000  7.37067e-12      359.394
       727.80000  7.37067e-12      359.025
       727.90000  7.37067e-12      358.657
       728.00000  7.37067e-12      358.362
       728.10000  7.37067e-12      358.067
       728.20000  7.37067e-12      357.772
       728.30000  7.37067e-12      357.477
       728.40000  7.37067e-12      357.256
       728.50000  1.18768e-11      575.315
       728.60000  1.18768e-11      575.077
       728.70000  1.18768e-11      574.721
       728.80000  1.18793e-11      574.723
       728.90000  1.18793e-11      574.485
       729.00000  1.18793e-11      574.367
       729.10000  1.18793e-11      574.248
       729.20000  1.18793e-11      574.129
       729.30000  1.18793e-11      574.129
       729.40000  1.18793e-11      574.010
       729.50000  6.19488e-12      299.398
       729.60000  6.19488e-12      299.398
       729.70000  6.19488e-12      299.460
       729.80000  6.19488e-12      299.522
       729.90000  6.19488e-12      299.646
       730.00000  6.19488e-12      299.770
       730.10000  6.19488e-12      299.894
       730.20000  6.19488e-12      300.018
       730.30000  6.19488e-12      300.204
       730.40000  6.19488e-12      300.390
       730.50000  3.66922e-12      178.031
       730.60000  3.66922e-12      178.177
       730.70000  3.66922e-12      178.324
       730.80000  3.66922e-12      178.471
       730.90000  3.66922e-12      178.654
       731.00000  3.66922e-12      178.838
       731.10000  3.66922e-12      178.801
       731.20000  3.66922e-12      178.764
       731.30000  3.66652e-12      178.596
       731.40000  3.66652e-12      178.596
       731.50000  6.15961e-12      299.973
       731.60000  6.15961e-12      299.911
       731.70000  6.15961e-12      299.850
       731.80000  6.15961e-12      299.850
       731.90000  6.15961e-12      299.788
       732.00000  6.15961e-12      299.727
       732.10000  6.15961e-12      299.665
       732.20000  6.15961e-12      299.603
       732.30000  6.15961e-12      299.603
       732.40000  6.15961e-12      299.542
       732.50000  4.80256e-12      233.501
       732.60000  4.80256e-12      233.453
       732.70000  4.80256e-12      233.405
       732.80000  4.80256e-12      233.357
       732.90000  4.80256e-12      233.309
       733.00000  4.80256e-12      233.261
       733.10000  4.80256e-12      233.213
       733.20000  4.80256e-12      233.116
       733.30000  4.80256e-12      233.068
       733.40000  4.80256e-12      232.972
       733.50000  5.23215e-12      253.759
       733.60000  5.23215e-12      253.707
       733.70000  5.23215e-12      253.602
       733.80000  5.22351e-12      253.131
       733.90000  5.22351e-12      253.079
       734.00000  5.22351e-12      253.027
       734.10000  5.22351e-12      252.975
       734.20000  5.22351e-12      252.922
       734.30000  5.22351e-12      252.870
       734.40000  5.22351e-12      252.870
       734.50000  2.22317e-12      107.601
       734.60000  2.22317e-12      107.579
       734.70000  2.22317e-12      107.579
       734.80000  2.22317e-12      107.557
       734.90000  2.22317e-12      107.557
       735.00000  2.22317e-12      107.535
       735.10000  2.22317e-12      107.535
       735.20000  2.22317e-12      107.535
       735.30000  2.22317e-12      107.535
       735.40000  2.22317e-12      107.513
       735.50000  2.13352e-12      103.177
       735.60000  2.13352e-12      103.177
       735.70000  2.13352e-12      103.177
       735.80000  2.13352e-12      103.199
       735.90000  2.13352e-12      103.199
       736.00000  2.13352e-12      103.199
       736.10000  2.13352e-12      103.199
       736.20000  2.13352e-12      103.220
       736.30000  2.12945e-12      103.023
       736.40000  2.12945e-12      103.044
       736.50000  4.71691e-12      228.251
       736.60000  4.71691e-12      228.298
       736.70000  4.71691e-12      228.345
       736.80000  4.71691e-12      228.345
       736.90000  4.71691e-12      228.393
       737.00000  4.71691e-12      228.440
       737.10000  4.71691e-12      228.204
       737.20000  4.71691e-12      227.921
       737.30000  4.71691e-12      227.685
       737.40000  4.71691e-12      227.449
       737.50000  6.11776e-12      294.631
       737.60000  6.11776e-12      294.325
       737.70000  6.11776e-12      294.020
       737.80000  6.11776e-12      293.714
       737.90000  6.11776e-12      293.469
       738.00000  6.11776e-12      293.163
       738.10000  6.11776e-12      292.857
       738.20000  6.11776e-12      292.551
       738.30000  6.11776e-12      292.307
       738.40000  6.11776e-12      292.062
       738.50000  6.26029e-12      298.553
       738.60000  6.26029e-12      298.303
       738.70000  6.26029e-12      298.052
       738.80000  6.23399e-12      296.551
       738.90000  6.23399e-12      296.301
       739.00000  6.23399e-12      296.052
       741.00000  2.53620e-12      118.872
       741.10000  2.53620e-12      118.923
       741.20000  2.53620e-12      118.973
       741.30000  2.53448e-12      118.943
       741.40000  2.53448e-12      119.019
       741.50000  7.39567e-14      3.47522
       741.60000  7.39567e-14      3.47818
       741.70000  7.39567e-14      3.48188
       741.80000  7.39567e-14      3.48484
       741.90000  7.39567e-14      3.48928
       742.00000  7.39567e-14      3.49297
       742.10000  7.39567e-14      3.49741
       742.20000  7.39567e-14      3.50259
       742.30000  7.39567e-14      3.50776
       742.40000  7.39567e-14      3.51294
       742.50000  3.08009e-12      146.551
       742.60000  3.08009e-12      146.797
       742.70000  3.08009e-12      147.074
       742.80000  3.08009e-12      147.351
       742.90000  3.08009e-12      147.659
       743.00000  3.08009e-12      147.967
       743.10000  3.08009e-12      147.906
       743.20000  3.08009e-12      147.875
       743.30000  3.08009e-12      147.844
       743.40000  3.08009e-12      147.783
       743.50000  1.79895e-12      86.2956
       743.60000  1.79895e-12      86.2776
       743.70000  1.79895e-12      86.2596
       743.80000  1.79814e-12      86.2031
       743.90000  1.79814e-12      86.1851
       744.00000  1.79814e-12      86.1671
       744.10000  1.79814e-12      86.1671
       744.20000  1.79814e-12      86.1491
       744.30000  1.79814e-12      86.1491
       744.40000  1.79814e-12      86.1491
       744.50000  1.76413e-12      84.5017
       744.60000  1.76413e-12      84.5017
       744.70000  1.76413e-12      84.5017
       744.80000  1.76413e-12      84.5017
       744.90000  1.76413e-12      84.5193
       745.00000  1.76413e-12      84.5193
       745.10000  1.76413e-12      84.5722
       745.20000  1.76413e-12      84.6252
       745.30000  1.76413e-12      84.6604
       745.40000  1.76413e-12      84.7134
       745.50000  1.62543e-12      78.0858
       745.60000  1.62543e-12      78.1183
       745.70000  1.62543e-12      78.1508
       745.80000  1.62543e-12      78.1834
       745.90000  1.62543e-12      78.1996
       746.00000  1.62543e-12      78.2321
       746.10000  1.62543e-12      78.2484
       746.20000  1.62543e-12      78.2646
       746.30000  1.61802e-12      77.9239
       746.40000  1.61802e-12      77.9401
       746.50000  9.35813e-12      450.875
       746.60000  9.35813e-12      450.875
       746.70000  9.35813e-12      450.968
       746.80000  9.35813e-12      450.968
       746.90000  9.35813e-12      450.968
       747.00000  9.35813e-12      450.968
       747.10000  9.35813e-12      450.688
       747.20000  9.35813e-12      450.500
       747.30000  9.35813e-12      450.313
       747.40000  9.35813e-12      450.126
       747.50000  1.42268e-12      68.4023
       747.60000  1.42268e-12      68.3738
       747.70000  1.42268e-12      68.3454
       747.80000  1.42268e-12      68.3169
       747.90000  1.42268e-12      68.2885
       748.00000  1.42268e-12      68.2600
       750.00000  1.11945e-12      53.4201
       750.10000  1.11945e-12      53.4089
       750.20000  1.11945e-12      53.3978
       750.30000  1.11945e-12      53.3866
       750.40000  1.11945e-12      53.3866
       750.50000  3.82943e-12      182.587
       750.60000  3.82943e-12      182.549
       750.70000  3.82943e-12      182.549
       750.80000  3.82943e-12      182.510
       750.90000  3.82943e-12      182.510
       751.00000  3.82943e-12      182.472
       751.10000  3.82943e-12      182.472
       751.20000  3.82943e-12      182.472
       751.30000  3.82086e-12      182.026
       751.40000  3.82086e-12      182.026
       751.50000  2.54335e-12      121.165
       751.60000  2.54335e-12      121.165
       751.70000  2.54335e-12      121.165
       751.80000  2.54335e-12      121.165
       751.90000  2.54335e-12      121.165
       752.00000  2.54335e-12      121.165
       752.10000  2.54335e-12      121.165
       752.20000  2.54335e-12      121.165
       752.30000  2.54335e-12      121.165
       752.40000  2.54335e-12      121.165
       752.50000  3.60902e-12      171.970
       752.60000  3.60902e-12      171.970
       752.70000  3.60902e-12      171.970
       752.80000  3.60902e-12      172.006
       752.90000  3.60902e-12      172.006
       753.00000  3.60902e-12      172.042
       755.00000  7.78596e-12      370.923
       755.10000  7.78596e-12      370.845
       755.20000  7.78596e-12      370.845
       755.30000  7.78596e-12      370.767
       755.40000  7.78596e-12      370.767
       755.50000  5.85084e-12      278.559
       755.60000  5.85084e-12      278.500
       755.70000  5.85084e-12      278.500
       755.80000  5.85084e-12      278.442
       755.90000  5.85084e-12      278.383
       756.00000  5.85084e-12      278.383
       756.10000  5.85084e-12      278.325
       756.20000  5.85084e-12      278.266
       756.30000  5.84152e-12      277.764
       756.40000  5.84152e-12      277.764
       756.50000  1.45377e-12      69.1123
       756.60000  1.45377e-12      69.0977
       756.70000  1.45377e-12      69.0832
       756.80000  1.45377e-12      69.0832
       756.90000  1.45377e-12      69.0687
       757.00000  1.45377e-12      69.0541
       757.10000  1.45377e-12      69.0396
       757.20000  1.45377e-12      69.0250
       757.30000  1.45377e-12      69.0250
       757.40000  1.45377e-12      69.0105
       757.50000  1.77265e-13      8.41301
       757.60000  1.77265e-13      8.41123
       757.70000  1.77265e-13      8.40946
       757.80000  1.77265e-13      8.40769
       757.90000  1.77265e-13      8.40592
       758.00000  1.77265e-13      8.40592
       758.10000  1.77265e-13      8.40414
       758.20000  1.77265e-13      8.40237
       758.30000  1.77265e-13      8.40060
       758.40000  1.77265e-13      8.39882
       758.50000  8.93328e-12      423.169
       758.60000  8.93328e-12      423.080
       758.70000  8.93328e-12      422.991
       758.80000  8.90918e-12      421.760
       758.90000  8.90918e-12      421.671
       759.00000  8.90918e-12      421.582
       759.10000  8.90918e-12      421.582
       759.20000  8.90918e-12      421.493
       759.30000  8.90918e-12      421.493
       759.40000  8.90918e-12      421.404
       759.50000  3.17314e-12      150.089
       759.60000  3.17314e-12      150.089
       759.70000  3.17314e-12      150.058
       759.80000  3.17314e-12      150.058
       759.90000  3.17314e-12      150.058
       760.00000  3.17314e-12      150.058
       760.10000  3.17314e-12      150.058
       760.20000  3.17314e-12      150.058
       760.30000  3.17314e-12      150.089
       760.40000  3.17314e-12      150.089
       760.50000  7.46637e-13      35.3159
       760.60000  7.46637e-13      35.3234
       760.70000  7.46637e-13      35.3234
       760.80000  7.46637e-13      35.3309
       760.90000  7.46637e-13      35.3309
       761.00000  7.46637e-13      35.3383
       763.00000  4.22285e-12      201.050
       763.10000  4.22285e-12      201.008
       763.20000  4.22285e-12      200.966
       763.30000  4.22285e-12      200.881
       763.40000  4.22285e-12      200.797
       763.50000  3.59971e-12      171.094
       763.60000  3.59971e-12      171.022
       763.70000  3.59971e-12      170.950
       763.80000  3.59050e-12      170.405
       763.90000  3.59050e-12      170.297
       764.00000  3.59050e-12      170.189
       764.10000  3.59050e-12      170.082
       764.20000  3.59050e-12      169.938
       764.30000  3.59050e-12      169.795
       764.40000  3.59050e-12      169.651
       764.50000  2.47541e-12      116.864
       764.60000  2.47541e-12      116.765
       764.70000  2.47541e-12      116.642
       764.80000  2.47541e-12      116.518
       764.90000  2.47541e-12      116.394
       765.00000  2.47541e-12      116.245
       765.10000  2.47541e-12      115.973
       765.20000  2.47541e-12      115.701
       765.30000  2.47541e-12      115.453
       765.40000  2.47541e-12      115.206
       765.50000  9.64032e-13      44.7793
       765.60000  9.64032e-13      44.7022
       765.70000  9.64032e-13      44.6154
       765.80000  9.64032e-13      44.5479
       765.90000  9.64032e-13      44.4804
       766.00000  9.64032e-13      44.4130
       766.10000  9.64032e-13      44.3551
       766.20000  9.64032e-13      44.2973
       766.30000  9.64007e-13      44.2479
       766.40000  9.64007e-13      44.2093
       766.50000  6.18910e-12      283.585
       766.60000  6.18910e-12      283.337
       766.70000  6.18910e-12      283.213
       766.80000  6.18910e-12      283.028
       766.90000  6.18910e-12      282.904
       767.00000  6.18910e-12      282.842
       767.10000  6.18910e-12      283.151
       767.20000  6.18910e-12      283.523
       767.30000  6.18910e-12      283.832
       767.40000  6.18910e-12      284.142
       767.50000  1.52158e-12      69.9320
       767.60000  1.52158e-12      70.0081
       767.70000  1.52158e-12      70.0842
       767.80000  1.52158e-12      70.1451
       767.90000  1.52158e-12      70.2211
       768.00000  1.52158e-12      70.2820
       768.10000  1.52158e-12      70.3429
       768.20000  1.52158e-12      70.4037
       768.30000  1.52158e-12      70.4494
       768.40000  1.52158e-12      70.5102
       768.50000  2.46404e-12      114.257
       768.60000  2.46404e-12      114.331
       768.70000  2.46404e-12      114.405
       768.80000  2.46273e-12      114.418
       768.90000  2.46273e-12      114.492
       769.00000  2.46273e-12      114.542
       769.10000  2.46273e-12      114.615
       769.20000  2.46273e-12      114.665
       769.30000  2.46273e-12      114.714
       769.40000  2.46273e-12      114.763
       769.50000  2.85080e-12      132.876
       769.60000  2.85080e-12      132.933
       769.70000  2.85080e-12      132.961
       769.80000  2.85080e-12      133.018
       769.90000  2.85080e-12      133.047
       770.00000  2.85080e-12      133.047
       770.10000  2.85080e-12      133.075
       770.20000  2.85080e-12      133.104
       770.30000  2.85080e-12      133.104
       770.40000  2.85080e-12      133.104
       770.50000  3.38541e-12      158.065
       770.60000  3.38541e-12      158.065
       770.70000  3.38541e-12      158.065
       770.80000  3.38541e-12      158.065
       770.90000  3.38541e-12      158.031
       771.00000  3.38541e-12      157.997
       771.10000  3.38541e-12      158.133
       771.20000  3.38541e-12      158.234
       771.30000  3.37505e-12      157.851
       771.40000  3.37505e-12      157.952
       771.50000  1.44633e-11      677.316
       771.60000  1.44633e-11      677.605
       771.70000  1.44633e-11      678.039
       771.80000  1.44633e-11      678.328
       771.90000  1.44633e-11      678.473
       772.00000  1.44633e-11      678.762
       772.10000  1.44633e-11      678.907
       772.20000  1.44633e-11      679.052
       772.30000  1.44633e-11      679.196
       772.40000  1.44633e-11      679.341
       772.50000  3.67480e-12      172.606
       772.60000  3.67480e-12      172.606
       772.70000  3.67480e-12      172.606
       772.80000  3.67480e-12      172.569
       772.90000  3.67480e-12      172.569
       773.00000  3.67480e-12      172.532
       773.10000  3.67480e-12      172.312
       773.20000  3.67480e-12      172.128
       773.30000  3.67480e-12      171.907
       773.40000  3.67480e-12      171.724
       773.50000  9.25264e-12      431.913
       773.60000  9.25264e-12      431.543
       773.70000  9.25264e-12      431.173
       773.80000  9.21603e-12      429.098
       773.90000  9.21603e-12      428.730
       774.00000  9.21603e-12      428.361
       774.10000  9.21603e-12      428.085
       774.20000  9.21603e-12      427.808
       774.30000  9.21603e-12      427.624
       774.40000  9.21603e-12      427.347
       774.50000  1.48200e-12      68.6907
       774.60000  1.48200e-12      68.6759
       774.70000  1.48200e-12      68.6463
       774.80000  1.48200e-12      68.6315
       774.90000  1.48200e-12      68.6166
       775.00000  1.48200e-12      68.6018
       775.10000  1.48200e-12      68.6018
       775.20000  1.48200e-12      68.6018
       775.30000  1.48200e-12      68.6018
       775.40000  1.48200e-12      68.6018
       775.50000  1.16486e-12      53.9331
       775.60000  1.16486e-12      53.9447
       775.70000  1.16486e-12      53.9564
       775.80000  1.16486e-12      53.9680
       775.90000  1.16486e-12      53.9913
       776.00000  1.16486e-12      54.0146
       776.10000  1.16486e-12      54.0379
       776.20000  1.16486e-12      54.0729
       776.30000  1.16191e-12      53.9706
       776.40000  1.16191e-12      54.0055
       776.50000  8.26232e-12      384.280
       776.60000  8.26232e-12      384.611
       776.70000  8.26232e-12      384.941
       776.80000  8.26232e-12      385.272
       776.90000  8.26232e-12      385.685
       777.00000  8.26232e-12      386.016
       777.10000  8.26232e-12      385.850
       777.20000  8.26232e-12      385.768
       777.30000  8.26232e-12      385.602
       777.40000  8.26232e-12      385.437
       777.50000  2.13648e-12      99.6240
       777.60000  2.13648e-12      99.6027
       777.70000  2.13648e-12      99.5599
       777.80000  2.13648e-12      99.5386
       777.90000  2.13648e-12      99.5172
       778.00000  2.13648e-12      99.4745
       778.10000  2.13648e-12      99.4531
       778.20000  2.13648e-12      99.4317
       778.30000  2.13648e-12      99.4104
       778.40000  2.13648e-12      99.3890
       778.50000  6.62542e-12      308.215
       778.60000  6.62542e-12      308.148
       778.70000  6.62542e-12      308.082
       778.80000  6.60864e-12      307.302
       778.90000  6.60864e-12      307.302
       779.00000  6.60864e-12      307.236
       779.10000  6.60864e-12      307.368
       779.20000  6.60864e-12      307.434
       779.30000  6.60864e-12      307.566
       779.40000  6.60864e-12      307.632
       779.50000  4.62745e-12      215.454
       779.60000  4.62745e-12      215.500
       779.70000  4.62745e-12      215.547
       779.80000  4.62745e-12      215.593
       779.90000  4.62745e-12      215.639
       780.00000  4.62745e-12      215.685
       780.10000  4.62745e-12      215.685
       780.20000  4.62745e-12      215.732
       780.30000  4.62745e-12      215.732
       780.40000  4.62745e-12      215.732
       780.50000  4.70149e-12      219.183
       780.60000  4.70149e-12      219.183
       780.70000  4.70149e-12      219.183
       780.80000  4.70149e-12      219.183
       780.90000  4.70149e-12      219.183
       781.00000  4.70149e-12      219.136
       781.10000  4.70149e-12      219.136
       781.20000  4.70149e-12      219.089
       781.30000  4.67535e-12      217.825
       781.40000  4.67535e-12      217.778
       781.50000  4.73910e-12      220.700
       781.60000  4.73910e-12      220.653
       781.70000  4.73910e-12      220.605
       781.80000  4.73910e-12      220.558
       781.90000  4.73910e-12      220.463
       782.00000  4.73910e-12      220.416
       782.10000  4.73910e-12      220.321
       782.20000  4.73910e-12      220.226
       782.30000  4.73910e-12      220.179
       782.40000  4.73910e-12      220.084
       782.50000  3.18753e-12      147.965
       782.60000  3.18753e-12      147.869
       782.70000  3.18753e-12      147.806
       782.80000  3.18753e-12      147.742
       782.90000  3.18753e-12      147.646
       783.00000  3.18753e-12      147.582
       783.10000  3.18753e-12      147.646
       783.20000  3.18753e-12      147.710
       783.30000  3.18753e-12      147.774
       783.40000  3.18753e-12      147.806
       783.50000  2.45059e-12      113.683
       783.60000  2.45059e-12      113.732
       783.70000  2.45059e-12      113.757
       783.80000  2.43810e-12      113.225
       783.90000  2.43810e-12      113.274
       784.00000  2.43810e-12      113.299
       784.10000  2.43810e-12      113.323
       784.20000  2.43810e-12      113.372
       784.30000  2.43810e-12      113.396
       784.40000  2.43810e-12      113.421
       784.50000  3.22239e-15     0.149938
       784.60000  3.22239e-15     0.149970
       784.70000  3.22239e-15     0.150002
       784.80000  3.22239e-15     0.150035
       784.90000  3.22239e-15     0.150067
       785.00000  3.22239e-15     0.150067
       785.10000  3.22239e-15     0.150067
       785.20000  3.22239e-15     0.150067
       785.30000  3.22239e-15     0.150067
       785.40000  3.22239e-15     0.150067
       785.50000  2.21705e-12      103.248
       785.60000  2.21705e-12      103.248
       785.70000  2.21705e-12      103.248
       785.80000  2.21705e-12      103.248
       785.90000  2.21705e-12      103.248
       786.00000  2.21705e-12      103.248
       786.10000  2.21705e-12      103.248
       786.20000  2.21705e-12      103.248
       786.30000  2.21333e-12      103.075
       786.40000  2.21333e-12      103.075
       786.50000  3.28606e-12      153.032
       786.60000  3.28606e-12      153.032
       786.70000  3.28606e-12      153.032
       786.80000  3.28606e-12      153.032
       786.90000  3.28606e-12      153.032
       787.00000  3.28606e-12      153.032
       787.10000  3.28606e-12      153.032
       787.20000  3.28606e-12      153.032
       787.30000  3.28606e-12      153.032
       787.40000  3.28606e-12      153.032
       787.50000  1.59580e-12      74.3162
       787.60000  1.59580e-12      74.3162
       787.70000  1.59580e-12      74.3162
       787.80000  1.59580e-12      74.3162
       787.90000  1.59580e-12      74.3162
       788.00000  1.59580e-12      74.3162
       788.10000  1.59580e-12      74.3162
       788.20000  1.59580e-12      74.3162
       788.30000  1.59580e-12      74.3162
       788.40000  1.59580e-12      74.3162
       788.50000  1.00813e-12      46.9485
       788.60000  1.00813e-12      46.9485
       788.70000  1.00813e-12      46.9485
       788.80000  1.00830e-12      46.9567
       788.90000  1.00830e-12      46.9567
       789.00000  1.00830e-12      46.9567
       789.10000  1.00830e-12      46.9366
       789.20000  1.00830e-12      46.9063
       789.30000  1.00830e-12      46.8761
       789.40000  1.00830e-12      46.8559
       789.50000  2.76639e-12      128.471
       789.60000  2.76639e-12      128.388
       789.70000  2.76639e-12      128.333
       789.80000  2.76639e-12      128.250
       789.90000  2.76639e-12      128.167
       790.00000  2.76639e-12      128.112
       790.10000  2.76639e-12      128.029
       790.20000  2.76639e-12      127.973
       790.30000  2.76639e-12      127.890
       790.40000  2.76639e-12      127.835
       790.50000  2.01485e-12      93.0459
       790.60000  2.01485e-12      92.9855
       790.70000  2.01485e-12      92.9452
       790.80000  2.01485e-12      92.8847
       790.90000  2.01485e-12      92.8444
       791.00000  2.01485e-12      92.7840
       791.10000  2.01485e-12      92.7235
       791.20000  2.01485e-12      92.6832
       791.30000  2.00898e-12      92.3528
       791.40000  2.00898e-12      92.2925
       791.50000  2.31581e-12      106.319
       791.60000  2.31581e-12      106.249
       791.70000  2.31581e-12      106.203
       791.80000  2.31581e-12      106.133
       791.90000  2.31581e-12      106.087
       792.00000  2.31581e-12      106.018
       792.10000  2.31581e-12      105.971
       792.20000  2.31581e-12      105.925
       792.30000  2.31581e-12      105.856
       792.40000  2.31581e-12      105.809
       792.50000  8.64285e-12      394.719
       792.60000  8.64285e-12      394.546
       792.70000  8.64285e-12      394.373
       792.80000  8.64285e-12      394.200
       792.90000  8.64285e-12      394.028
       793.00000  8.64285e-12      393.855
       793.10000  8.64285e-12      393.595
       793.20000  8.64285e-12      393.250
       793.30000  8.64285e-12      392.990
       793.40000  8.64285e-12      392.731
       793.50000  7.52782e-12      341.838
       793.60000  7.52782e-12      341.688
       793.70000  7.52782e-12      341.462
       793.80000  7.50635e-12      340.413
       793.90000  7.50635e-12      340.263
       794.00000  7.50635e-12      340.188
       794.10000  7.50635e-12      340.037
       794.20000  7.50635e-12      340.037
       794.30000  7.50635e-12      339.962
       794.40000  7.50635e-12      339.962
       794.50000  6.80157e-12      308.043
       794.60000  6.80157e-12      308.043
       794.70000  6.80157e-12      308.111
       794.80000  6.80157e-12      308.111
       794.90000  6.80157e-12      308.179
       795.00000  6.80157e-12      308.315
       795.10000  6.80157e-12      308.791
       795.20000  6.80157e-12      309.267
       795.30000  6.80157e-12      309.743
       795.40000  6.80157e-12      310.220
       795.50000  5.24411e-13      23.9499
       795.60000  5.24411e-13      23.9813
       795.70000  5.24411e-13      24.0075
       795.80000  5.24411e-13      24.0338
       795.90000  5.24411e-13      24.0600
       796.00000  5.24411e-13      24.0810
       796.10000  5.24411e-13      24.1019
       796.20000  5.24411e-13      24.1229
       796.30000  5.23713e-13      24.1065
       796.40000  5.23713e-13      24.1222
       796.50000  1.17195e-12      54.0153
       796.60000  1.17195e-12      54.0388
       796.70000  1.17195e-12      54.0622
       796.80000  1.17195e-12      54.0739
       796.90000  1.17195e-12      54.0856
       797.00000  1.17195e-12      54.0974
       797.10000  1.17195e-12      54.1091
       797.20000  1.17195e-12      54.1091
       797.30000  1.17195e-12      54.1091
       797.40000  1.17195e-12      54.0974
       797.50000  5.16437e-12      238.336
       797.60000  5.16437e-12      238.284
       797.70000  5.16437e-12      238.181
       797.80000  5.16437e-12      238.077
       797.90000  5.16437e-12      237.974
       798.00000  5.16437e-12      237.819
       798.10000  5.16437e-12      237.664
       798.20000  5.16437e-12      237.509
       798.30000  5.16437e-12      237.303
       798.40000  5.16437e-12      237.096
       798.50000  1.99894e-14     0.916916
       798.60000  1.99894e-14     0.915916
       798.70000  1.99894e-14     0.914917
       798.80000  1.99438e-14     0.911828
       798.90000  1.99438e-14     0.910632
       799.00000  1.99438e-14     0.909435
       799.10000  1.99438e-14     0.910033
       799.20000  1.99438e-14     0.910831
       799.30000  1.99438e-14     0.911629
       799.40000  1.99438e-14     0.912227
       799.50000  2.34638e-10      10739.4
       799.60000  2.34638e-10      10746.4
       799.70000  2.34638e-10      10753.5
       799.80000  2.34638e-10      10758.1
       799.90000  2.34638e-10      10762.8
       800.00000  2.34638e-10      10767.5
       800.10000  2.34638e-10      10772.2
       800.20000  2.34638e-10      10776.9
       800.30000  2.34638e-10      10781.6
       800.40000  2.34638e-10      10784.0
       800.50000  2.51811e-10      11575.8
       800.60000  2.51811e-10      11578.3
       800.70000  2.51811e-10      11578.3
       800.80000  2.51811e-10      11580.8
       800.90000  2.51811e-10      11580.8
       801.00000  2.51811e-10      11580.8
       801.10000  2.51811e-10      11575.8
       801.20000  2.51811e-10      11570.7
       801.30000  2.51072e-10      11531.7
       801.40000  2.51072e-10      11526.7
       801.50000  1.53925e-10      7063.62
       801.60000  1.53925e-10      7060.55
       801.70000  1.53925e-10      7057.47
       801.80000  1.53925e-10      7054.39
       801.90000  1.53925e-10      7051.31
       802.00000  1.53925e-10      7048.23
       802.10000  1.53925e-10      7045.15
       802.20000  1.53925e-10      7042.07
       802.30000  1.53925e-10      7039.00
       802.40000  1.53925e-10      7035.92
       802.50000  1.31379e-10      6002.73
       802.60000  1.31379e-10      6000.10
       802.70000  1.31379e-10      5997.47
       802.80000  1.31379e-10      5993.53
       802.90000  1.31379e-10      5990.90
       803.00000  1.31379e-10      5988.27
       803.10000  1.31379e-10      5985.65
       803.20000  1.31379e-10      5983.02
       803.30000  1.31379e-10      5980.39
       803.40000  1.31379e-10      5976.45
       803.50000  2.28197e-10      10376.1
       803.60000  2.28197e-10      10371.5
       803.70000  2.28197e-10      10367.0
       803.80000  2.27488e-10      10330.2
       803.90000  2.27488e-10      10323.4
       804.00000  2.27488e-10      10318.8
       804.10000  2.27488e-10      10314.3
       804.20000  2.27488e-10      10309.7
       804.30000  2.27488e-10      10302.9
       804.40000  2.27488e-10      10298.4
       804.50000  1.41705e-10      6412.15
       804.60000  1.41705e-10      6407.90
       804.70000  1.41705e-10      6405.07
       804.80000  1.41705e-10      6402.23
       804.90000  1.41705e-10      6397.98
       805.00000  1.41705e-10      6395.15
       805.10000  1.41705e-10      6400.81
       805.20000  1.41705e-10      6407.90
       805.30000  1.41705e-10      6412.15
       805.40000  1.41705e-10      6417.82
       805.50000  2.08519e-10      9450.10
       805.60000  2.08519e-10      9456.36
       805.70000  2.08519e-10      9462.61
       805.80000  2.08519e-10      9466.78
       805.90000  2.08519e-10      9470.95
       806.00000  2.08519e-10      9475.12
       806.10000  2.08519e-10      9477.21
       806.20000  2.08519e-10      9479.29
       806.30000  2.08112e-10      9462.84
       806.40000  2.08112e-10      9464.92
       806.50000  2.05349e-10      9339.27
       806.60000  2.05349e-10      9339.27
       806.70000  2.05349e-10      9337.22
       806.80000  2.05349e-10      9337.22
       806.90000  2.05349e-10      9335.17
       807.00000  2.05349e-10      9331.06
       807.10000  2.05349e-10      9314.63
       807.20000  2.05349e-10      9296.15
       807.30000  2.05349e-10      9279.72
       807.40000  2.05349e-10      9265.35
       807.50000  1.95122e-10      8790.25
       807.60000  1.95122e-10      8776.60
       807.70000  1.95122e-10      8764.89
       807.80000  1.95122e-10      8755.13
       807.90000  1.95122e-10      8745.38
       808.00000  1.95122e-10      8735.62
       808.10000  1.95122e-10      8727.82
       808.20000  1.95122e-10      8720.01
       808.30000  1.95122e-10      8712.21
       808.40000  1.95122e-10      8706.35
       808.50000  1.27846e-10      5701.94
       808.60000  1.27846e-10      5699.39
       808.70000  1.27846e-10      5696.83
       808.80000  1.27725e-10      5690.16
       808.90000  1.27725e-10      5688.89
       809.00000  1.27725e-10      5688.89
       809.10000  1.27725e-10      5688.89
       809.20000  1.27725e-10      5690.16
       809.30000  1.27725e-10      5691.44
       809.40000  1.27725e-10      5692.72
       809.50000  1.63817e-10      7304.58
       809.60000  1.63817e-10      7309.49
       809.70000  1.63817e-10      7314.41
       809.80000  1.63817e-10      7319.32
       809.90000  1.63817e-10      7325.87
       810.00000  1.63817e-10      7332.43
       810.10000  1.63817e-10      7340.62
       810.20000  1.63817e-10      7348.81
       810.30000  1.63817e-10      7357.00
       810.40000  1.63817e-10      7366.83
       810.50000  1.54355e-10      6952.16
       810.60000  1.54355e-10      6961.42
       810.70000  1.54355e-10      6973.77
       810.80000  1.54355e-10      6986.12
       810.90000  1.54355e-10      6998.46
       811.00000  1.54355e-10      7012.36
       811.10000  1.54355e-10      7013.90
       811.20000  1.54355e-10      7016.99
       811.30000  1.54253e-10      7013.91
       811.40000  1.54253e-10      7016.99
       811.50000  1.60410e-10      7298.66
       811.60000  1.60410e-10      7300.26
       811.70000  1.60410e-10      7301.86
       811.80000  1.60410e-10      7303.47
       811.90000  1.60410e-10      7305.07
       812.00000  1.60410e-10      7306.68
       812.10000  1.60410e-10      7306.68
       812.20000  1.60410e-10      7308.28
       812.30000  1.60410e-10      7309.88
       812.40000  1.60410e-10      7309.88
       812.50000  1.53843e-10      7010.63
       812.60000  1.53843e-10      7012.16
       812.70000  1.53843e-10      7012.16
       812.80000  1.53843e-10      7012.16
       812.90000  1.53843e-10      7012.16
       813.00000  1.53843e-10      7012.16
       813.10000  1.53843e-10      7009.09
       813.20000  1.53843e-10      7007.55
       813.30000  1.53843e-10      7004.47
       813.40000  1.53843e-10      7002.93
       813.50000  2.01467e-10      9166.73
       813.60000  2.01467e-10      9164.71
       813.70000  2.01467e-10      9162.70
       813.80000  2.01444e-10      9159.68
       813.90000  2.01444e-10      9157.66
       814.00000  2.01444e-10      9153.63
       814.10000  2.01444e-10      9151.62
       814.20000  2.01444e-10      9149.61
       814.30000  2.01444e-10      9147.59
       814.40000  2.01444e-10      9147.59
       814.50000  9.05276e-11      4109.95
       814.60000  9.05276e-11      4109.05
       814.70000  9.05276e-11      4108.14
       814.80000  9.05276e-11      4107.24
       814.90000  9.05276e-11      4107.24
       815.00000  9.05276e-11      4106.33
       815.10000  9.05276e-11      4109.95
       815.20000  9.05276e-11      4112.67
       815.30000  9.05276e-11      4115.38
       815.40000  9.05276e-11      4117.19
       815.50000  2.62787e-10      11959.4
       815.60000  2.62787e-10      11962.1
       815.70000  2.62787e-10      11967.3
       815.80000  2.62787e-10      11967.3
       815.90000  2.62787e-10      11969.9
       816.00000  2.62787e-10      11969.9
       816.10000  2.62787e-10      11969.9
       816.20000  2.62787e-10      11967.3
       816.30000  2.62779e-10      11964.3
       816.40000  2.62779e-10      11961.7
       816.50000  1.95003e-10      8872.63
       816.60000  1.95003e-10      8868.73
       816.70000  1.95003e-10      8862.88
       816.80000  1.95003e-10      8857.03
       816.90000  1.95003e-10      8851.18
       817.00000  1.95003e-10      8843.38
       817.10000  1.95003e-10      8816.08
       817.20000  1.95003e-10      8790.73
       817.30000  1.95003e-10      8767.33
       817.40000  1.95003e-10      8743.93
       817.50000  1.37118e-10      6133.29
       817.60000  1.37118e-10      6119.58
       817.70000  1.37118e-10      6105.87
       817.80000  1.37118e-10      6092.16
       817.90000  1.37118e-10      6081.19
       818.00000  1.37118e-10      6068.85
       818.10000  1.37118e-10      6059.25
       818.20000  1.37118e-10      6049.65
       818.30000  1.37118e-10      6040.05
       818.40000  1.37118e-10      6033.20
       818.50000  1.88420e-10      8279.18
       818.60000  1.88420e-10      8271.65
       818.70000  1.88420e-10      8264.11
       818.80000  1.88392e-10      8255.32
       818.90000  1.88392e-10      8251.55
       819.00000  1.88392e-10      8245.90
       819.10000  1.88392e-10      8244.01
       819.20000  1.88392e-10      8242.13
       819.30000  1.88392e-10      8240.25
       819.40000  1.88392e-10      8240.25
       819.50000  2.14157e-10      9369.38
       819.60000  2.14157e-10      9371.52
       819.70000  2.14157e-10      9375.80
       819.80000  2.14157e-10      9382.23
       819.90000  2.14157e-10      9388.66
       820.00000  2.14157e-10      9397.22
       820.10000  2.14157e-10      9405.79
       820.20000  2.14157e-10      9416.50
       820.30000  2.14157e-10      9429.34
       820.40000  2.14157e-10      9442.19
       820.50000  1.26516e-10      5586.93
       820.60000  1.26516e-10      5595.78
       820.70000  1.26516e-10      5605.90
       820.80000  1.26516e-10      5616.02
       820.90000  1.26516e-10      5627.41
       821.00000  1.26516e-10      5640.06
       821.10000  1.26516e-10      5637.53
       821.20000  1.26516e-10      5636.27
       821.30000  1.26878e-10      5649.89
       821.40000  1.26878e-10      5648.62
       821.50000  2.21129e-10      9840.22
       821.60000  2.21129e-10      9838.01
       821.70000  2.21129e-10      9835.80
       821.80000  2.21129e-10      9831.37
       821.90000  2.21129e-10      9829.16
       822.00000  2.21129e-10      9826.95
       822.10000  2.21129e-10      9826.95
       822.20000  2.21129e-10      9824.74
       822.30000  2.21129e-10      9822.53
       822.40000  2.21129e-10      9822.53
       822.50000  1.76275e-10      7828.36
       822.60000  1.76275e-10      7828.36
       822.70000  1.76275e-10      7826.60
       822.80000  1.76275e-10      7826.60
       822.90000  1.76275e-10      7826.60
       823.00000  1.76275e-10      7826.60
       823.10000  1.76275e-10      7826.60
       823.20000  1.76275e-10      7826.60
       823.30000  1.76275e-10      7826.60
       823.40000  1.76275e-10      7826.60
       823.50000  1.25871e-10      5589.94
       823.60000  1.25871e-10      5589.94
       823.70000  1.25871e-10      5591.20
       823.80000  1.26215e-10      5606.46
       823.90000  1.26215e-10      5607.72
       824.00000  1.26215e-10      5608.98
       824.10000  1.26215e-10      5610.25
       824.20000  1.26215e-10      5611.51
       824.30000  1.26215e-10      5612.77
       824.40000  1.26215e-10      5615.29
       824.50000  1.82920e-10      8139.93
       824.60000  1.82920e-10      8143.59
       824.70000  1.82920e-10      8145.42
       824.80000  1.82920e-10      8149.08
       824.90000  1.82920e-10      8152.74
       825.00000  1.82920e-10      8156.39
       825.10000  1.82920e-10      8160.05
       825.20000  1.82920e-10      8163.71
       825.30000  1.82920e-10      8169.20
       825.40000  1.82920e-10      8172.86
       825.50000  1.15730e-10      5174.30
       825.60000  1.15730e-10      5176.61
       825.70000  1.15730e-10      5180.09
       825.80000  1.15730e-10      5183.56
       825.90000  1.15730e-10      5187.03
       826.00000  1.15730e-10      5190.50
       826.10000  1.15730e-10      5193.97
       826.20000  1.15730e-10      5196.29
       826.30000  1.15807e-10      5203.21
       826.40000  1.15807e-10      5205.53
       826.50000  1.13805e-10      5116.66
       826.60000  1.13805e-10      5118.93
       826.70000  1.13805e-10      5121.21
       826.80000  1.13805e-10      5122.35
       826.90000  1.13805e-10      5123.49
       827.00000  1.13805e-10      5124.62
       827.10000  1.13805e-10      5124.62
       827.20000  1.13805e-10      5125.76
       827.30000  1.13805e-10      5125.76
       827.40000  1.13805e-10      5125.76
       827.50000  1.29642e-10      5839.06
       827.60000  1.29642e-10      5839.06
       827.70000  1.29642e-10      5837.76
       827.80000  1.29642e-10      5836.47
       827.90000  1.29642e-10      5835.17
       828.00000  1.29642e-10      5833.88
       828.10000  1.29642e-10      5829.99
       828.20000  1.29642e-10      5824.80
       828.30000  1.29642e-10      5819.61
       828.40000  1.29642e-10      5814.43
       828.50000  1.58814e-10      7118.04
       828.60000  1.58814e-10      7111.69
       828.70000  1.58814e-10      7106.93
       828.80000  1.58685e-10      7096.40
       828.90000  1.58685e-10      7090.05
       829.00000  1.58685e-10      7085.29
       829.10000  1.58685e-10      7080.53
       829.20000  1.58685e-10      7075.77
       829.30000  1.58685e-10      7071.01
       829.40000  1.58685e-10      7066.25
       829.50000  1.52556e-10      6788.73
       829.60000  1.52556e-10      6784.16
       829.70000  1.52556e-10      6779.58
       829.80000  1.52556e-10      6775.00
       829.90000  1.52556e-10      6771.95
       830.00000  1.52556e-10      6767.38
       830.10000  1.52556e-10      6764.32
       830.20000  1.52556e-10      6759.75
       830.30000  1.52556e-10      6756.70
       830.40000  1.52556e-10      6752.12
       830.50000  1.74057e-10      7700.27
       830.60000  1.74057e-10      7696.79
       830.70000  1.74057e-10      7691.57
       830.80000  1.74057e-10      7688.09
       830.90000  1.74057e-10      7684.60
       831.00000  1.74057e-10      7681.12
       831.10000  1.74057e-10      7677.64
       831.20000  1.74057e-10      7674.16
       831.30000  1.74529e-10      7693.22
       831.40000  1.74529e-10      7689.73
       831.50000  2.34995e-10      10349.2
       831.60000  2.34995e-10      10346.8
       831.70000  2.34995e-10      10342.1
       831.80000  2.34995e-10      10337.4
       831.90000  2.34995e-10      10335.1
       832.00000  2.34995e-10      10332.7
       832.10000  2.34995e-10      10323.3
       832.20000  2.34995e-10      10313.9
       832.30000  2.34995e-10      10306.9
       832.40000  2.34995e-10      10299.8
       832.50000  1.43718e-10      6294.83
       832.60000  1.43718e-10      6291.96
       832.70000  1.43718e-10      6289.08
       832.80000  1.43718e-10      6284.77
       832.90000  1.43718e-10      6283.33
       833.00000  1.43718e-10      6280.46
       833.10000  1.43718e-10      6277.58
       833.20000  1.43718e-10      6276.15
       833.30000  1.43718e-10      6274.71
       833.40000  1.43718e-10      6273.27
       833.50000  9.80208e-11      4278.61
       833.60000  9.80208e-11      4277.63
       833.70000  9.80208e-11      4277.63
       833.80000  9.81231e-11      4282.09
       833.90000  9.81231e-11      4283.08
       834.00000  9.81231e-11      4283.08
       834.10000  9.81231e-11      4287.98
       834.20000  9.81231e-11      4291.91
       834.30000  9.81231e-11      4296.81
       834.40000  9.81231e-11      4300.74
       834.50000  1.33970e-10      5877.27
       834.60000  1.33970e-10      5882.63
       834.70000  1.33970e-10      5886.65
       834.80000  1.33970e-10      5890.67
       834.90000  1.33970e-10      5896.03
       835.00000  1.33970e-10      5900.04
       835.10000  1.33970e-10      5902.72
       835.20000  1.33970e-10      5906.74
       835.30000  1.33970e-10      5909.42
       835.40000  1.33970e-10      5912.10
       835.50000  1.35389e-10      5977.43
       835.60000  1.35389e-10      5980.14
       835.70000  1.35389e-10      5981.49
       835.80000  1.35389e-10      5984.20
       835.90000  1.35389e-10      5985.55
       836.00000  1.35389e-10      5986.91
       836.10000  1.35389e-10      5984.20
       836.20000  1.35389e-10      5982.84
       836.30000  1.35328e-10      5977.43
       836.40000  1.35328e-10      5976.07
       836.50000  1.91563e-10      8457.49
       836.60000  1.91563e-10      8453.66
       836.70000  1.91563e-10      8451.74
       836.80000  1.91563e-10      8449.83
       836.90000  1.91563e-10      8446.00
       837.00000  1.91563e-10      8444.08
       837.10000  1.91563e-10      8442.17
       837.20000  1.91563e-10      8440.25
       837.30000  1.91563e-10      8438.33
       837.40000  1.91563e-10      8436.42
       837.50000  1.90012e-10      8366.21
       837.60000  1.90012e-10      8364.31
       837.70000  1.90012e-10      8362.41
       837.80000  1.90012e-10      8360.51
       837.90000  1.90012e-10      8360.51
       838.00000  1.90012e-10      8358.61
       838.10000  1.90012e-10      8356.71
       838.20000  1.90012e-10      8356.71
       838.30000  1.90012e-10      8356.71
       838.40000  1.90012e-10      8356.71
       838.50000  1.35284e-10      5948.42
       838.60000  1.35284e-10      5948.42
       838.70000  1.35284e-10      5948.42
       838.80000  1.34875e-10      5929.09
       838.90000  1.34875e-10      5929.09
       839.00000  1.34875e-10      5929.09
       839.10000  1.34875e-10      5927.74
       839.20000  1.34875e-10      5927.74
       839.30000  1.34875e-10      5927.74
       839.40000  1.34875e-10      5926.39
       839.50000  1.56311e-10      6868.29
       839.60000  1.56311e-10      6868.29
       839.70000  1.56311e-10      6866.73
       839.80000  1.56311e-10      6866.73
       839.90000  1.56311e-10      6866.73
       840.00000  1.56311e-10      6865.17
       840.10000  1.56311e-10      6865.17
       840.20000  1.56311e-10      6865.17
       840.30000  1.56311e-10      6863.60
       840.40000  1.56311e-10      6863.60
       840.50000  1.64637e-10      7229.19
       840.60000  1.64637e-10      7227.55
       840.70000  1.64637e-10      7227.55
       840.80000  1.64637e-10      7227.55
       840.90000  1.64637e-10      7225.90
       841.00000  1.64637e-10      7225.90
       841.10000  1.64637e-10      7225.90
       841.20000  1.64637e-10      7225.90
       841.30000  1.64628e-10      7223.87
       841.40000  1.64628e-10      7223.87
       841.50000  1.85401e-10      8135.40
       841.60000  1.85401e-10      8133.54
       841.70000  1.85401e-10      8133.54
       841.80000  1.85401e-10      8133.54
       841.90000  1.85401e-10      8131.69
       842.00000  1.85401e-10      8131.69
       842.10000  1.85401e-10      8124.27
       842.20000  1.85401e-10      8118.71
       842.30000  1.85401e-10      8113.15
       842.40000  1.85401e-10      8105.73
       842.50000  1.21209e-10      5295.62
       842.60000  1.21209e-10      5293.19
       842.70000  1.21209e-10      5289.56
       842.80000  1.21209e-10      5287.13
       842.90000  1.21209e-10      5283.50
       843.00000  1.21209e-10      5281.07
       843.10000  1.21209e-10      5278.65
       843.20000  1.21209e-10      5276.22
       843.30000  1.21209e-10      5275.01
       843.40000  1.21209e-10      5272.59
       843.50000  1.77087e-10      7701.52
       843.60000  1.77087e-10      7699.75
       843.70000  1.77087e-10      7697.98
       843.80000  1.77343e-10      7707.31
       843.90000  1.77343e-10      7707.31
       844.00000  1.77343e-10      7705.53
       844.10000  1.77343e-10      7710.85
       844.20000  1.77343e-10      7714.40
       844.30000  1.77343e-10      7717.95
       844.40000  1.77343e-10      7721.50
       844.50000  1.33253e-10      5804.50
       844.60000  1.33253e-10      5807.17
       844.70000  1.33253e-10      5808.50
       844.80000  1.33253e-10      5811.17
       844.90000  1.33253e-10      5812.50
       845.00000  1.33253e-10      5815.17
       845.10000  1.33253e-10      5816.50
       845.20000  1.33253e-10      5817.83
       845.30000  1.33253e-10      5820.50
       845.40000  1.33253e-10      5821.83
       845.50000  1.73222e-10      7568.09
       845.60000  1.73222e-10      7569.82
       845.70000  1.73222e-10      7571.55
       845.80000  1.73222e-10      7573.29
       845.90000  1.73222e-10      7573.29
       846.00000  1.73222e-10      7575.02
       846.10000  1.73222e-10      7575.02
       846.20000  1.73222e-10      7575.02
       846.30000  1.73678e-10      7594.96
       846.40000  1.73678e-10      7596.69
       846.50000  1.85462e-10      8112.10
       846.60000  1.85462e-10      8110.24
       846.70000  1.85462e-10      8110.24
       846.80000  1.85462e-10      8110.24
       846.90000  1.85462e-10      8108.39
       847.00000  1.85462e-10      8108.39
       847.10000  1.85462e-10      8106.53
       847.20000  1.85462e-10      8106.53
       847.30000  1.85462e-10      8104.68
       847.40000  1.85462e-10      8102.83
       847.50000  1.14433e-10      4998.44
       847.60000  1.14433e-10      4997.30
       847.70000  1.14433e-10      4996.15
       847.80000  1.14433e-10      4995.01
       847.90000  1.14433e-10      4992.72
       848.00000  1.14433e-10      4991.58
       848.10000  1.14433e-10      4967.54
       848.20000  1.14433e-10      4945.80
       848.30000  1.14433e-10      4924.06
       848.40000  1.14433e-10      4903.46
       848.50000  1.40726e-10      6006.17
       848.60000  1.40726e-10      5985.06
       848.70000  1.40726e-10      5963.95
       848.80000  1.41263e-10      5966.94
       848.90000  1.41263e-10      5948.57
       849.00000  1.41263e-10      5931.62
       849.10000  1.41263e-10      5914.67
       849.20000  1.41263e-10      5900.54
       849.30000  1.41263e-10      5887.83
       849.40000  1.41263e-10      5875.12
       849.50000  8.22844e-10      34164.5
       849.60000  8.22844e-10      34106.9
       849.70000  8.22844e-10      34065.8
       849.80000  8.22844e-10      34024.6
       849.90000  8.22844e-10      33991.7
       850.00000  8.22844e-10      33967.0
       850.10000  8.22844e-10      34148.0
       850.20000  8.22844e-10      34320.8
       850.30000  8.22844e-10      34477.2
       850.40000  8.22844e-10      34617.1
       850.50000  1.06971e-09      45173.9
       850.60000  1.06971e-09      45323.6
       850.70000  1.06971e-09      45452.0
       850.80000  1.06971e-09      45569.6
       850.90000  1.06971e-09      45665.9
       851.00000  1.06971e-09      45751.5
       851.10000  1.06971e-09      45815.7
       851.20000  1.06971e-09      45869.2
       851.30000  1.07084e-09      45949.9
       851.40000  1.07084e-09      45960.6
       851.50000  8.08546e-10      34702.8
       851.60000  8.08546e-10      34686.6
       851.70000  8.08546e-10      34662.4
       851.80000  8.08546e-10      34621.9
       851.90000  8.08546e-10      34565.3
       852.00000  8.08546e-10      34500.7
       852.10000  8.08546e-10      34419.8
       852.20000  8.08546e-10      34330.9
       852.30000  8.08546e-10      34225.8
       852.40000  8.08546e-10      34112.6
       852.50000  5.24048e-10      22020.5
       852.60000  5.24048e-10      21931.4
       852.70000  5.24048e-10      21826.6
       852.80000  5.24048e-10      21721.8
       852.90000  5.24048e-10      21601.2
       853.00000  5.24048e-10      21475.5
       853.10000  5.24048e-10      21339.2
       853.20000  5.24048e-10      21197.7
       853.30000  5.24048e-10      21045.7
       853.40000  5.24048e-10      20888.5
       853.50000  1.10399e-09      43651.9
       853.60000  1.10399e-09      43276.6
       853.70000  1.10399e-09      42890.2
       853.80000  1.10547e-09      42538.5
       853.90000  1.10547e-09      42118.4
       854.00000  1.10547e-09      41676.2
       854.10000  1.10547e-09      41985.7
       854.20000  1.10547e-09      42295.3
       854.30000  1.10547e-09      42593.7
       854.40000  1.10547e-09      42881.2
       854.50000  4.56355e-10      17816.1
       854.60000  4.56355e-10      17930.2
       854.70000  4.56355e-10      18039.7
       854.80000  4.56355e-10      18144.7
       854.90000  4.56355e-10      18249.7
       855.00000  4.56355e-10      18350.1
       855.10000  4.56355e-10      18445.9
       855.20000  4.56355e-10      18537.2
       855.30000  4.56355e-10      18628.4
       855.40000  4.56355e-10      18710.6
       855.50000  1.08175e-09      44557.2
       855.60000  1.08175e-09      44741.1
       855.70000  1.08175e-09      44925.0
       855.80000  1.08175e-09      45098.0
       855.90000  1.08175e-09      45260.3
       856.00000  1.08175e-09      45411.8
       856.10000  1.08175e-09      45530.7
       856.20000  1.08175e-09      45638.9
       856.30000  1.08296e-09      45798.5
       856.40000  1.08296e-09      45906.8
       856.50000  1.86599e-09      79267.1
       856.60000  1.86599e-09      79435.1
       856.70000  1.86599e-09      79584.4
       856.80000  1.86599e-09      79733.6
       856.90000  1.86599e-09      79864.2
       857.00000  1.86599e-09      79994.9
       857.10000  1.86599e-09      80125.5
       857.20000  1.86599e-09      80237.4
       857.30000  1.86599e-09      80349.4
       857.40000  1.86599e-09      80442.7
       857.50000  1.65994e-09      71643.1
       857.60000  1.65994e-09      71726.1
       857.70000  1.65994e-09      71792.5
       857.80000  1.65994e-09      71858.9
       857.90000  1.65994e-09      71908.7
       858.00000  1.65994e-09      71975.1
       858.10000  1.65994e-09      72008.3
       858.20000  1.65994e-09      72041.5
       858.30000  1.65994e-09      72074.7
       858.40000  1.65994e-09      72091.3
       858.50000  1.73793e-09      75495.8
       858.60000  1.73793e-09      75513.2
       858.70000  1.73793e-09      75513.2
       858.80000  1.74319e-09      75741.7
       858.90000  1.74319e-09      75724.3
       859.00000  1.74319e-09      75706.8
       859.10000  1.74319e-09      75689.4
       859.20000  1.74319e-09      75654.5
       859.30000  1.74319e-09      75619.7
       859.40000  1.74319e-09      75567.4
       859.50000  1.68983e-09      73203.6
       859.60000  1.68983e-09      73152.9
       859.70000  1.68983e-09      73085.3
       859.80000  1.68983e-09      73000.8
       859.90000  1.68983e-09      72933.2
       860.00000  1.68983e-09      72848.7
       860.10000  1.68983e-09      72831.8
       860.20000  1.68983e-09      72814.9
       860.30000  1.68983e-09      72814.9
       860.40000  1.68983e-09      72814.9
       860.50000  1.72522e-09      74322.3
       860.60000  1.72522e-09      74322.3
       860.70000  1.72522e-09      74322.3
       860.80000  1.72522e-09      74322.3
       860.90000  1.72522e-09      74322.3
       861.00000  1.72522e-09      74322.3
       861.10000  1.72522e-09      74322.3
       861.20000  1.72522e-09      74322.3
       861.30000  1.73089e-09      74566.6
       861.40000  1.73089e-09      74583.9
       861.50000  3.48242e-09      150057.
       861.60000  3.48242e-09      150057.
       861.70000  3.48242e-09      150092.
       861.80000  3.48242e-09      150127.
       861.90000  3.48242e-09      150127.
       862.00000  3.48242e-09      150162.
       862.10000  3.48242e-09      150649.
       862.20000  3.48242e-09      151067.
       862.30000  3.48242e-09      151450.
       862.40000  3.48242e-09      151799.
       862.50000  3.47214e-09      151628.
       862.60000  3.47214e-09      151871.
       862.70000  3.47214e-09      152080.
       862.80000  3.47214e-09      152253.
       862.90000  3.47214e-09      152357.
       863.00000  3.47214e-09      152427.
       863.10000  3.47214e-09      152462.
       863.20000  3.47214e-09      152462.
       863.30000  3.47214e-09      152392.
       863.40000  3.47214e-09      152288.
       863.50000  2.46358e-09      107954.
       863.60000  2.46358e-09      107806.
       863.70000  2.46358e-09      107634.
       863.80000  2.47047e-09      107737.
       863.90000  2.47047e-09      107515.
       864.00000  2.47047e-09      107243.
       864.10000  2.47047e-09      106947.
       864.20000  2.47047e-09      106625.
       864.30000  2.47047e-09      106255.
       864.40000  2.47047e-09      105884.
       864.50000  2.87382e-09      122654.
       864.60000  2.87382e-09      122137.
       864.70000  2.87382e-09      121562.
       864.80000  2.87382e-09      120988.
       864.90000  2.87382e-09      120327.
       865.00000  2.87382e-09      119666.
       865.10000  2.87382e-09      118947.
       865.20000  2.87382e-09      118200.
       865.30000  2.87382e-09      117424.
       865.40000  2.87382e-09      116591.
       865.50000  1.67625e-09      67502.4
       865.60000  1.67625e-09      66982.8
       865.70000  1.67625e-09      66446.4
       865.80000  1.67625e-09      65876.4
       865.90000  1.67625e-09      65289.8
       866.00000  1.67625e-09      64686.3
       866.10000  1.67625e-09      64921.0
       866.20000  1.67625e-09      65138.9
       866.30000  1.68120e-09      65566.8
       866.40000  1.68120e-09      65785.4
       866.50000  5.84883e-09      229625.
       866.60000  5.84883e-09      230386.
       866.70000  5.84883e-09      231146.
       866.80000  5.84883e-09      231906.
       866.90000  5.84883e-09      232608.
       867.00000  5.84883e-09      233310.
       867.10000  5.84883e-09      234012.
       867.20000  5.84883e-09      234714.
       867.30000  5.84883e-09      235416.
       867.40000  5.84883e-09      236059.
       867.50000  7.04918e-09      285280.
       867.60000  7.04918e-09      286056.
       867.70000  7.04918e-09      286831.
       867.80000  7.04918e-09      287606.
       867.90000  7.04918e-09      288311.
       868.00000  7.04918e-09      289016.
       868.10000  7.04918e-09      289792.
       868.20000  7.04918e-09      290567.
       868.30000  7.04918e-09      291272.
       868.40000  7.04918e-09      291977.
       868.50000  5.11772e-09      212488.
       868.60000  5.11772e-09      212948.
       868.70000  5.11772e-09      213460.
       868.80000  5.13054e-09      214405.
       868.90000  5.13054e-09      214867.
       869.00000  5.13054e-09      215278.
       869.10000  5.13054e-09      215688.
       869.20000  5.13054e-09      216098.
       869.30000  5.13054e-09      216509.
       869.40000  5.13054e-09      216868.
       869.50000  2.15990e-09      91450.4
       869.60000  2.15990e-09      91580.0
       869.70000  2.15990e-09      91709.6
       869.80000  2.15990e-09      91839.2
       869.90000  2.15990e-09      91968.8
       870.00000  2.15990e-09      92098.3
       870.10000  2.15990e-09      92206.3
       870.20000  2.15990e-09      92314.3
       870.30000  2.15990e-09      92400.7
       870.40000  2.15990e-09      92487.1
       870.50000  2.28483e-08      979279.
       870.60000  2.28483e-08      980193.
       870.70000  2.28483e-08      980879.
       870.80000  2.28483e-08      981792.
       870.90000  2.28483e-08      982250.
       871.00000  2.28483e-08      982935.
       871.10000  2.28483e-08      983392.
       871.20000  2.28483e-08      983849.
       871.30000  2.29812e-08      990029.
       871.40000  2.29812e-08      990259.
       871.50000  2.96848e-08  1.27941e+06
       871.60000  2.96848e-08  1.27971e+06
       871.70000  2.96848e-08  1.27971e+06
       871.80000  2.96848e-08  1.28001e+06
       871.90000  2.96848e-08  1.27971e+06
       872.00000  2.96848e-08  1.27971e+06
       872.10000  2.96848e-08  1.27882e+06
       872.20000  2.96848e-08  1.27823e+06
       872.30000  2.96848e-08  1.27734e+06
       872.40000  2.96848e-08  1.27674e+06
       872.50000  1.13753e-08      488909.
       872.60000  1.13753e-08      488681.
       872.70000  1.13753e-08      488454.
       872.80000  1.13753e-08      488226.
       872.90000  1.13753e-08      487885.
       873.00000  1.13753e-08      487657.
       873.10000  1.13753e-08      487430.
       873.20000  1.13753e-08      487202.
       873.30000  1.13753e-08      486975.
       873.40000  1.13753e-08      486747.
       873.50000  2.98927e-08  1.27851e+06
       873.60000  2.98927e-08  1.27791e+06
       873.70000  2.98927e-08  1.27732e+06
       873.80000  3.00506e-08  1.28376e+06
       873.90000  3.00506e-08  1.28316e+06
       874.00000  3.00506e-08  1.28256e+06
       874.10000  3.00506e-08  1.28166e+06
       874.20000  3.00506e-08  1.28076e+06
       874.30000  3.00506e-08  1.28016e+06
       874.40000  3.00506e-08  1.27926e+06
       874.50000  7.05748e-08  3.00296e+06
       874.60000  7.05748e-08  3.00155e+06
       874.70000  7.05748e-08  3.00014e+06
       874.80000  7.05748e-08  2.99943e+06
       874.90000  7.05748e-08  2.99802e+06
       875.00000  7.05748e-08  2.99731e+06
       875.10000  7.05748e-08  2.99661e+06
       875.20000  7.05748e-08  2.99590e+06
       875.30000  7.05748e-08  2.99590e+06
       875.40000  7.05748e-08  2.99520e+06
       875.50000  9.74935e-08  4.13762e+06
       875.60000  9.74935e-08  4.13762e+06
       875.70000  9.74935e-08  4.13762e+06
       875.80000  9.74935e-08  4.13860e+06
       875.90000  9.74935e-08  4.13860e+06
       876.00000  9.74935e-08  4.13958e+06
       876.10000  9.74935e-08  4.14055e+06
       876.20000  9.74935e-08  4.14152e+06
       876.30000  9.80072e-08  4.16433e+06
       876.40000  9.80072e-08  4.16629e+06
       876.50000  8.59491e-08  3.65542e+06
       876.60000  8.59491e-08  3.65714e+06
       876.70000  8.59491e-08  3.65885e+06
       876.80000  8.59491e-08  3.66057e+06
       876.90000  8.59491e-08  3.66315e+06
       877.00000  8.59491e-08  3.66573e+06
       877.10000  8.59491e-08  3.66831e+06
       877.20000  8.59491e-08  3.67089e+06
       877.30000  8.59491e-08  3.67347e+06
       877.40000  8.59491e-08  3.67690e+06
       877.50000  8.81899e-08  3.77629e+06
       877.60000  8.81899e-08  3.77982e+06
       877.70000  8.81899e-08  3.78335e+06
       877.80000  8.81899e-08  3.78687e+06
       877.90000  8.81899e-08  3.79128e+06
       878.00000  8.81899e-08  3.79569e+06
       878.10000  8.81899e-08  3.79040e+06
       878.20000  8.81899e-08  3.78599e+06
       878.30000  8.81899e-08  3.78158e+06
       878.40000  8.81899e-08  3.77717e+06
       878.50000  1.96474e-07  8.40515e+06
       878.60000  1.96474e-07  8.39729e+06
       878.70000  1.96474e-07  8.38747e+06
       878.80000  1.97356e-07  8.41721e+06
       878.90000  1.97356e-07  8.40932e+06
       879.00000  1.97356e-07  8.40143e+06
       879.10000  1.97356e-07  8.39353e+06
       879.20000  1.97356e-07  8.38761e+06
       879.30000  1.97356e-07  8.37972e+06
       879.40000  1.97356e-07  8.37380e+06
       879.50000  2.65328e-07  1.12499e+07
       879.60000  2.65328e-07  1.12419e+07
       879.70000  2.65328e-07  1.12340e+07
       879.80000  2.65328e-07  1.12287e+07
       879.90000  2.65328e-07  1.12207e+07
       880.00000  2.65328e-07  1.12154e+07
       880.10000  2.65328e-07  1.12127e+07
       880.20000  2.65328e-07  1.12074e+07
       880.30000  2.65328e-07  1.12048e+07
       880.40000  2.65328e-07  1.11995e+07
       880.50000  2.34670e-07  9.90305e+06
       880.60000  2.34670e-07  9.90071e+06
       880.70000  2.34670e-07  9.89836e+06
       880.80000  2.34670e-07  9.89836e+06
       880.90000  2.34670e-07  9.89601e+06
       881.00000  2.34670e-07  9.89367e+06
       881.10000  2.34670e-07  9.89367e+06
       881.20000  2.34670e-07  9.89367e+06
       881.30000  2.36076e-07  9.95297e+06
       881.40000  2.36076e-07  9.95061e+06
       881.50000  3.55094e-07  1.49708e+07
       881.60000  3.55094e-07  1.49708e+07
       881.70000  3.55094e-07  1.49708e+07
       881.80000  3.55094e-07  1.49743e+07
       881.90000  3.55094e-07  1.49743e+07
       882.00000  3.55094e-07  1.49779e+07
       882.10000  3.55094e-07  1.49956e+07
       882.20000  3.55094e-07  1.50098e+07
       882.30000  3.55094e-07  1.50240e+07
       882.40000  3.55094e-07  1.50382e+07
       882.50000  3.40438e-07  1.44312e+07
       882.60000  3.40438e-07  1.44414e+07
       882.70000  3.40438e-07  1.44516e+07
       882.80000  3.40438e-07  1.44618e+07
       882.90000  3.40438e-07  1.44686e+07
       883.00000  3.40438e-07  1.44754e+07
       883.10000  3.40438e-07  1.44823e+07
       883.20000  3.40438e-07  1.44891e+07
       883.30000  3.40438e-07  1.44925e+07
       883.40000  3.40438e-07  1.44959e+07
       883.50000  4.44465e-07  1.89298e+07
       883.60000  4.44465e-07  1.89298e+07
       883.70000  4.44465e-07  1.89298e+07
       883.80000  4.46084e-07  1.89987e+07
       883.90000  4.46084e-07  1.89943e+07
       884.00000  4.46084e-07  1.89898e+07
       884.10000  4.46084e-07  1.89630e+07
       884.20000  4.46084e-07  1.89363e+07
       884.30000  4.46084e-07  1.89095e+07
       884.40000  4.46084e-07  1.88827e+07
       884.50000  5.94020e-07  2.51092e+07
       884.60000  5.94020e-07  2.50795e+07
       884.70000  5.94020e-07  2.50498e+07
       884.80000  5.94020e-07  2.50261e+07
       884.90000  5.94020e-07  2.49964e+07
       885.00000  5.94020e-07  2.49726e+07
       885.10000  5.94020e-07  2.49548e+07
       885.20000  5.94020e-07  2.49310e+07
       885.30000  5.94020e-07  2.49132e+07
       885.40000  5.94020e-07  2.48954e+07
       885.50000  4.16932e-07  1.74653e+07
       885.60000  4.16932e-07  1.74528e+07
       885.70000  4.16932e-07  1.74444e+07
       885.80000  4.16932e-07  1.74403e+07
       885.90000  4.16932e-07  1.74319e+07
       886.00000  4.16932e-07  1.74278e+07
       886.10000  4.16932e-07  1.74236e+07
       886.20000  4.16932e-07  1.74194e+07
       886.30000  4.17988e-07  1.74635e+07
       886.40000  4.17988e-07  1.74635e+07
       886.50000  4.07132e-07  1.70100e+07
       886.60000  4.07132e-07  1.70140e+07
       886.70000  4.07132e-07  1.70181e+07
       886.80000  4.07132e-07  1.70222e+07
       886.90000  4.07132e-07  1.70262e+07
       887.00000  4.07132e-07  1.70344e+07
       887.10000  4.07132e-07  1.70425e+07
       887.20000  4.07132e-07  1.70507e+07
       887.30000  4.07132e-07  1.70588e+07
       887.40000  4.07132e-07  1.70710e+07
       887.50000  3.47207e-07  1.45688e+07
       887.60000  3.47207e-07  1.45827e+07
       887.70000  3.47207e-07  1.45931e+07
       887.80000  3.47207e-07  1.46070e+07
       887.90000  3.47207e-07  1.46244e+07
       888.00000  3.47207e-07  1.46383e+07
       888.10000  3.47207e-07  1.46556e+07
       888.20000  3.47207e-07  1.46695e+07
       888.30000  3.47207e-07  1.46869e+07
       888.40000  3.47207e-07  1.47007e+07
       888.50000  4.47169e-07  1.89510e+07
       888.60000  4.47169e-07  1.89644e+07
       888.70000  4.47169e-07  1.89779e+07
       888.80000  4.49061e-07  1.90716e+07
       888.90000  4.49061e-07  1.90851e+07
       889.00000  4.49061e-07  1.90986e+07
       889.10000  4.49061e-07  1.91075e+07
       889.20000  4.49061e-07  1.91165e+07
       889.30000  4.49061e-07  1.91255e+07
       889.40000  4.49061e-07  1.91300e+07
       889.50000  3.10305e-07  1.32252e+07
       889.60000  3.10305e-07  1.32283e+07
       889.70000  3.10305e-07  1.32314e+07
       889.80000  3.10305e-07  1.32314e+07
       889.90000  3.10305e-07  1.32314e+07
       890.00000  3.10305e-07  1.32314e+07
       890.10000  3.10305e-07  1.32221e+07
       890.20000  3.10305e-07  1.32128e+07
       890.30000  3.10305e-07  1.32035e+07
       890.40000  3.10305e-07  1.31942e+07
       890.50000  4.89588e-08  2.08026e+06
       890.60000  4.89588e-08  2.07879e+06
       890.70000  4.89588e-08  2.07732e+06
       890.80000  4.89588e-08  2.07585e+06
       890.90000  4.89588e-08  2.07438e+06
       891.00000  4.89588e-08  2.07340e+06
       891.10000  4.89588e-08  2.07194e+06
       891.20000  4.89588e-08  2.07096e+06
       891.30000  4.91965e-08  2.07953e+06
       891.40000  4.91965e-08  2.07855e+06
       891.50000  3.65017e-07  1.54146e+07
       891.60000  3.65017e-07  1.54073e+07
       891.70000  3.65017e-07  1.54000e+07
       891.80000  3.65017e-07  1.53927e+07
       891.90000  3.65017e-07  1.53854e+07
       892.00000  3.65017e-07  1.53781e+07
       892.10000  3.65017e-07  1.53708e+07
       892.20000  3.65017e-07  1.53672e+07
       892.30000  3.65017e-07  1.53599e+07
       892.40000  3.65017e-07  1.53562e+07
       892.50000  2.41197e-07  1.01423e+07
       892.60000  2.41197e-07  1.01399e+07
       892.70000  2.41197e-07  1.01375e+07
       892.80000  2.41197e-07  1.01351e+07
       892.90000  2.41197e-07  1.01327e+07
       893.00000  2.41197e-07  1.01303e+07
       893.10000  2.41197e-07  1.01279e+07
       893.20000  2.41197e-07  1.01255e+07
       893.30000  2.41197e-07  1.01230e+07
       893.40000  2.41197e-07  1.01230e+07
       893.50000  3.13192e-07  1.31416e+07
       893.60000  3.13192e-07  1.31416e+07
       893.70000  3.13192e-07  1.31384e+07
       893.80000  3.15921e-07  1.32529e+07
       893.90000  3.15921e-07  1.32529e+07
       894.00000  3.15921e-07  1.32529e+07
       894.10000  3.15921e-07  1.32624e+07
       894.20000  3.15921e-07  1.32687e+07
       894.30000  3.15921e-07  1.32782e+07
       894.40000  3.15921e-07  1.32845e+07
       894.50000  2.15037e-07  9.04878e+06
       894.60000  2.15037e-07  9.05308e+06
       894.70000  2.15037e-07  9.05738e+06
       894.80000  2.15037e-07  9.06168e+06
       894.90000  2.15037e-07  9.06598e+06
       895.00000  2.15037e-07  9.07028e+06
       895.10000  2.15037e-07  9.07243e+06
       895.20000  2.15037e-07  9.07673e+06
       895.30000  2.15037e-07  9.07888e+06
       895.40000  2.15037e-07  9.08103e+06
       895.50000  3.15890e-07  1.33464e+07
       895.60000  3.15890e-07  1.33495e+07
       895.70000  3.15890e-07  1.33527e+07
       895.80000  3.15890e-07  1.33527e+07
       895.90000  3.15890e-07  1.33558e+07
       896.00000  3.15890e-07  1.33590e+07
       896.10000  3.15890e-07  1.33622e+07
       896.20000  3.15890e-07  1.33622e+07
       896.30000  3.18047e-07  1.34566e+07
       896.40000  3.18047e-07  1.34566e+07
       896.50000  1.86855e-07  7.90582e+06
       896.60000  1.86855e-07  7.90582e+06
       896.70000  1.86855e-07  7.90582e+06
       896.80000  1.86855e-07  7.90582e+06
       896.90000  1.86855e-07  7.90582e+06
       897.00000  1.86855e-07  7.90395e+06
       897.10000  1.86855e-07  7.90395e+06
       897.20000  1.86855e-07  7.90208e+06
       897.30000  1.86855e-07  7.90021e+06
       897.40000  1.86855e-07  7.89834e+06
       897.50000  1.88094e-07  7.94697e+06
       897.60000  1.88094e-07  7.94509e+06
       897.70000  1.88094e-07  7.94133e+06
       897.80000  1.88094e-07  7.93945e+06
       897.90000  1.88094e-07  7.93568e+06
       898.00000  1.88094e-07  7.93192e+06
       898.10000  1.88094e-07  7.92628e+06
       898.20000  1.88094e-07  7.92252e+06
       898.30000  1.88094e-07  7.91876e+06
       898.40000  1.88094e-07  7.91311e+06
       898.50000  2.06459e-07  8.67955e+06
       898.60000  2.06459e-07  8.67336e+06
       898.70000  2.06459e-07  8.66716e+06
       898.80000  2.07937e-07  8.72296e+06
       898.90000  2.07937e-07  8.71465e+06
       899.00000  2.07937e-07  8.70841e+06
       899.10000  2.07937e-07  8.70009e+06
       899.20000  2.07937e-07  8.69177e+06
       899.30000  2.07937e-07  8.68346e+06
       899.40000  2.07937e-07  8.67514e+06
       899.50000  3.48958e-07  1.45446e+07
       899.60000  3.48958e-07  1.45271e+07
       899.70000  3.48958e-07  1.45132e+07
       899.80000  3.48958e-07  1.44957e+07
       899.90000  3.48958e-07  1.44783e+07
       900.00000  3.48958e-07  1.44608e+07
       900.10000  3.48958e-07  1.44190e+07
       900.20000  3.48958e-07  1.43841e+07
       900.30000  3.48958e-07  1.43457e+07
       900.40000  3.48958e-07  1.43143e+07
       900.50000  3.94816e-07  1.61598e+07
       900.60000  3.94816e-07  1.61282e+07
       900.70000  3.94816e-07  1.60966e+07
       900.80000  3.94816e-07  1.60729e+07
       900.90000  3.94816e-07  1.60493e+07
       901.00000  3.94816e-07  1.60256e+07
       901.10000  3.94816e-07  1.60098e+07
       901.20000  3.94816e-07  1.59940e+07
       901.30000  3.96424e-07  1.60433e+07
       901.40000  3.96424e-07  1.60353e+07
       901.50000  2.59341e-07  1.04851e+07
       901.60000  2.59341e-07  1.04825e+07
       901.70000  2.59341e-07  1.04800e+07
       901.80000  2.59341e-07  1.04800e+07
       901.90000  2.59341e-07  1.04825e+07
       902.00000  2.59341e-07  1.04877e+07
       902.10000  2.59341e-07  1.05240e+07
       902.20000  2.59341e-07  1.05578e+07
       902.30000  2.59341e-07  1.05915e+07
       902.40000  2.59341e-07  1.06226e+07
       902.50000  2.27233e-07  9.33473e+06
       902.60000  2.27233e-07  9.35972e+06
       902.70000  2.27233e-07  9.38472e+06
       902.80000  2.27233e-07  9.40744e+06
       902.90000  2.27233e-07  9.43017e+06
       903.00000  2.27233e-07  9.45062e+06
       903.10000  2.27233e-07  9.47107e+06
       903.20000  2.27233e-07  9.48925e+06
       903.30000  2.27233e-07  9.50515e+06
       903.40000  2.27233e-07  9.52106e+06
       903.50000  3.52990e-07  1.48114e+07
       903.60000  3.52990e-07  1.48326e+07
       903.70000  3.52990e-07  1.48538e+07
       903.80000  3.54860e-07  1.49467e+07
       903.90000  3.54860e-07  1.49644e+07
       904.00000  3.54860e-07  1.49751e+07
       904.10000  3.54860e-07  1.49857e+07
       904.20000  3.54860e-07  1.49964e+07
       904.30000  3.54860e-07  1.50035e+07
       904.40000  3.54860e-07  1.50070e+07
       904.50000  1.68950e-07  7.14658e+06
       904.60000  1.68950e-07  7.14827e+06
       904.70000  1.68950e-07  7.14827e+06
       904.80000  1.68950e-07  7.14658e+06
       904.90000  1.68950e-07  7.14489e+06
       905.00000  1.68950e-07  7.14151e+06
       905.10000  1.68950e-07  7.13814e+06
       905.20000  1.68950e-07  7.13307e+06
       905.30000  1.68950e-07  7.12800e+06
       905.40000  1.68950e-07  7.12124e+06
       905.50000  2.74768e-07  1.15677e+07
       905.60000  2.74768e-07  1.15540e+07
       905.70000  2.74768e-07  1.15403e+07
       905.80000  2.74768e-07  1.15238e+07
       905.90000  2.74768e-07  1.15045e+07
       906.00000  2.74768e-07  1.14853e+07
       906.10000  2.74768e-07  1.14743e+07
       906.20000  2.74768e-07  1.14661e+07
       906.30000  2.76036e-07  1.15107e+07
       906.40000  2.76036e-07  1.14997e+07
       906.50000  3.05833e-07  1.27318e+07
       906.60000  3.05833e-07  1.27226e+07
       906.70000  3.05833e-07  1.27135e+07
       906.80000  3.05833e-07  1.27043e+07
       906.90000  3.05833e-07  1.26951e+07
       907.00000  3.05833e-07  1.26860e+07
       907.10000  3.05833e-07  1.26768e+07
       907.20000  3.05833e-07  1.26676e+07
       907.30000  3.05833e-07  1.26584e+07
       907.40000  3.05833e-07  1.26492e+07
       907.50000  2.12034e-07  8.76337e+06
       907.60000  2.12034e-07  8.75913e+06
       907.70000  2.12034e-07  8.75276e+06
       907.80000  2.12034e-07  8.74640e+06
       907.90000  2.12034e-07  8.74216e+06
       908.00000  2.12034e-07  8.73580e+06
       908.10000  2.12034e-07  8.72732e+06
       908.20000  2.12034e-07  8.72096e+06
       908.30000  2.12034e-07  8.71248e+06
       908.40000  2.12034e-07  8.70612e+06
       908.50000  2.41427e-07  9.90574e+06
       908.60000  2.41427e-07  9.89850e+06
       908.70000  2.41427e-07  9.89367e+06
       908.80000  2.42257e-07  9.92042e+06
       908.90000  2.42257e-07  9.91557e+06
       909.00000  2.42257e-07  9.91073e+06
       909.10000  2.42257e-07  9.90588e+06
       909.20000  2.42257e-07  9.90104e+06
       909.30000  2.42257e-07  9.89619e+06
       909.40000  2.42257e-07  9.89377e+06
       909.50000  1.76099e-07  7.19012e+06
       909.60000  1.76099e-07  7.18836e+06
       909.70000  1.76099e-07  7.18660e+06
       909.80000  1.76099e-07  7.18484e+06
       909.90000  1.76099e-07  7.18484e+06
       910.00000  1.76099e-07  7.18308e+06
       910.10000  1.76099e-07  7.18308e+06
       910.20000  1.76099e-07  7.18308e+06
       910.30000  1.76099e-07  7.18484e+06
       910.40000  1.76099e-07  7.18484e+06
       910.50000  3.36034e-07  1.37135e+07
       910.60000  3.36034e-07  1.37135e+07
       910.70000  3.36034e-07  1.37169e+07
       910.80000  3.36034e-07  1.37236e+07
       910.90000  3.36034e-07  1.37270e+07
       911.00000  3.36034e-07  1.37303e+07
       911.10000  3.36034e-07  1.37371e+07
       911.20000  3.36034e-07  1.37438e+07
       911.30000  3.36345e-07  1.37633e+07
       911.40000  3.36345e-07  1.37700e+07
       911.50000  2.62651e-07  1.07608e+07
       911.60000  2.62651e-07  1.07661e+07
       911.70000  2.62651e-07  1.07739e+07
       911.80000  2.62651e-07  1.07818e+07
       911.90000  2.62651e-07  1.07897e+07
       912.00000  2.62651e-07  1.08002e+07
       912.10000  2.62651e-07  1.08133e+07
       912.20000  2.62651e-07  1.08238e+07
       912.30000  2.62651e-07  1.08343e+07
       912.40000  2.62651e-07  1.08448e+07
       912.50000  3.74348e-07  1.54718e+07
       912.60000  3.74348e-07  1.54868e+07
       912.70000  3.74348e-07  1.55018e+07
       912.80000  3.74348e-07  1.55130e+07
       912.90000  3.74348e-07  1.55242e+07
       913.00000  3.74348e-07  1.55354e+07
       913.10000  3.74348e-07  1.55467e+07
       913.20000  3.74348e-07  1.55542e+07
       913.30000  3.74348e-07  1.55654e+07
       913.40000  3.74348e-07  1.55729e+07
       913.50000  3.29449e-07  1.37117e+07
       913.60000  3.29449e-07  1.37183e+07
       913.70000  3.29449e-07  1.37216e+07
       913.80000  3.31207e-07  1.37981e+07
       913.90000  3.31207e-07  1.38047e+07
       914.00000  3.31207e-07  1.38080e+07
       914.10000  3.31207e-07  1.38014e+07
       914.20000  3.31207e-07  1.37981e+07
       914.30000  3.31207e-07  1.37948e+07
       914.40000  3.31207e-07  1.37915e+07
       914.50000  2.02176e-07  8.41660e+06
       914.60000  2.02176e-07  8.41256e+06
       914.70000  2.02176e-07  8.41054e+06
       914.80000  2.02176e-07  8.40851e+06
       914.90000  2.02176e-07  8.40649e+06
       915.00000  2.02176e-07  8.40447e+06
       915.10000  2.02176e-07  8.40245e+06
       915.20000  2.02176e-07  8.40043e+06
       915.30000  2.02176e-07  8.39840e+06
       915.40000  2.02176e-07  8.39638e+06
       915.50000  2.70144e-07  1.12164e+07
       915.60000  2.70144e-07  1.12137e+07
       915.70000  2.70144e-07  1.12110e+07
       915.80000  2.70144e-07  1.12083e+07
       915.90000  2.70144e-07  1.12056e+07
       916.00000  2.70144e-07  1.12029e+07
       916.10000  2.70144e-07  1.12002e+07
       916.20000  2.70144e-07  1.11975e+07
       916.30000  2.72071e-07  1.12746e+07
       916.40000  2.72071e-07  1.12719e+07
       916.50000  2.71066e-07  1.12276e+07
       916.60000  2.71066e-07  1.12276e+07
       916.70000  2.71066e-07  1.12248e+07
       916.80000  2.71066e-07  1.12221e+07
       916.90000  2.71066e-07  1.12194e+07
       917.00000  2.71066e-07  1.12167e+07
       917.10000  2.71066e-07  1.12167e+07
       917.20000  2.71066e-07  1.12140e+07
       917.30000  2.71066e-07  1.12113e+07
       917.40000  2.71066e-07  1.12086e+07
       917.50000  2.20402e-07  9.11362e+06
       917.60000  2.20402e-07  9.11142e+06
       917.70000  2.20402e-07  9.10921e+06
       917.80000  2.20402e-07  9.10921e+06
       917.90000  2.20402e-07  9.10701e+06
       918.00000  2.20402e-07  9.10481e+06
       918.10000  2.20402e-07  9.10921e+06
       918.20000  2.20402e-07  9.11362e+06
       918.30000  2.20402e-07  9.11803e+06
       918.40000  2.20402e-07  9.12023e+06
       918.50000  2.39834e-07  9.92673e+06
       918.60000  2.39834e-07  9.92913e+06
       918.70000  2.39834e-07  9.92913e+06
       918.80000  2.42066e-07  1.00215e+07
       918.90000  2.42066e-07  1.00215e+07
       919.00000  2.42066e-07  1.00215e+07
       919.10000  2.42066e-07  1.00191e+07
       919.20000  2.42066e-07  1.00167e+07
       919.30000  2.42066e-07  1.00143e+07
       919.40000  2.42066e-07  1.00094e+07
       919.50000  2.32500e-07  9.60921e+06
       919.60000  2.32500e-07  9.60456e+06
       919.70000  2.32500e-07  9.59991e+06
       919.80000  2.32500e-07  9.59294e+06
       919.90000  2.32500e-07  9.58829e+06
       920.00000  2.32500e-07  9.58131e+06
       920.10000  2.32500e-07  9.56039e+06
       920.20000  2.32500e-07  9.54179e+06
       920.30000  2.32500e-07  9.52319e+06
       920.40000  2.32500e-07  9.50459e+06
       920.50000  2.35437e-07  9.60582e+06
       920.60000  2.35437e-07  9.58934e+06
       920.70000  2.35437e-07  9.57286e+06
       920.80000  2.35437e-07  9.55873e+06
       920.90000  2.35437e-07  9.54225e+06
       921.00000  2.35437e-07  9.52812e+06
       921.10000  2.35437e-07  9.51400e+06
       921.20000  2.35437e-07  9.50223e+06
       921.30000  2.36410e-07  9.52733e+06
       921.40000  2.36410e-07  9.51551e+06
       921.50000  2.02842e-07  8.15427e+06
       921.60000  2.02842e-07  8.14615e+06
       921.70000  2.02842e-07  8.13804e+06
       921.80000  2.02842e-07  8.12993e+06
       921.90000  2.02842e-07  8.12181e+06
       922.00000  2.02842e-07  8.11573e+06
       922.10000  2.02842e-07  8.10761e+06
       922.20000  2.02842e-07  8.10356e+06
       922.30000  2.02842e-07  8.09747e+06
       922.40000  2.02842e-07  8.09342e+06
       922.50000  2.48891e-07  9.92330e+06
       922.60000  2.48891e-07  9.92082e+06
       922.70000  2.48891e-07  9.91584e+06
       922.80000  2.48891e-07  9.91335e+06
       922.90000  2.48891e-07  9.91086e+06
       923.00000  2.48891e-07  9.90837e+06
       923.10000  2.48891e-07  9.90837e+06
       923.20000  2.48891e-07  9.90588e+06
       923.30000  2.48891e-07  9.90588e+06
       923.40000  2.48891e-07  9.90837e+06
       923.50000  1.89363e-07  7.53853e+06
       923.60000  1.89363e-07  7.54043e+06
       923.70000  1.89363e-07  7.54232e+06
       923.80000  1.89792e-07  7.56322e+06
       923.90000  1.89792e-07  7.56511e+06
       924.00000  1.89792e-07  7.56891e+06
       924.10000  1.89792e-07  7.56891e+06
       924.20000  1.89792e-07  7.56891e+06
       924.30000  1.89792e-07  7.56891e+06
       924.40000  1.89792e-07  7.56891e+06
       924.50000  1.87605e-07  7.48167e+06
       924.60000  1.87605e-07  7.48167e+06
       924.70000  1.87605e-07  7.48355e+06
       924.80000  1.87605e-07  7.48542e+06
       924.90000  1.87605e-07  7.48542e+06
       925.00000  1.87605e-07  7.48730e+06
       925.10000  1.87605e-07  7.49105e+06
       925.20000  1.87605e-07  7.49293e+06
       925.30000  1.87605e-07  7.49480e+06
       925.40000  1.87605e-07  7.49856e+06
       925.50000  1.97968e-07  7.91676e+06
       925.60000  1.97968e-07  7.92072e+06
       925.70000  1.97968e-07  7.92468e+06
       925.80000  1.97968e-07  7.92863e+06
       925.90000  1.97968e-07  7.93259e+06
       926.00000  1.97968e-07  7.93853e+06
       926.10000  1.97968e-07  7.95041e+06
       926.20000  1.97968e-07  7.96427e+06
       926.30000  1.98789e-07  8.00923e+06
       926.40000  1.98789e-07  8.02115e+06
       926.50000  2.54311e-07  1.02767e+07
       926.60000  2.54311e-07  1.02894e+07
       926.70000  2.54311e-07  1.03021e+07
       926.80000  2.54311e-07  1.03148e+07
       926.90000  2.54311e-07  1.03276e+07
       927.00000  2.54311e-07  1.03377e+07
       927.10000  2.54311e-07  1.03479e+07
       927.20000  2.54311e-07  1.03581e+07
       927.30000  2.54311e-07  1.03657e+07
       927.40000  2.54311e-07  1.03733e+07
       927.50000  1.82985e-07  7.46945e+06
       927.60000  1.82985e-07  7.47311e+06
       927.70000  1.82985e-07  7.47860e+06
       927.80000  1.82985e-07  7.48226e+06
       927.90000  1.82985e-07  7.48409e+06
       928.00000  1.82985e-07  7.48592e+06
       928.10000  1.82985e-07  7.48226e+06
       928.20000  1.82985e-07  7.47860e+06
       928.30000  1.82985e-07  7.47311e+06
       928.40000  1.82985e-07  7.46945e+06
       928.50000  2.34708e-07  9.57609e+06
       928.60000  2.34708e-07  9.57139e+06
       928.70000  2.34708e-07  9.56670e+06
       928.80000  2.35799e-07  9.60644e+06
       928.90000  2.35799e-07  9.60172e+06
       929.00000  2.35799e-07  9.59936e+06
       929.10000  2.35799e-07  9.59465e+06
       929.20000  2.35799e-07  9.58993e+06
       929.30000  2.35799e-07  9.58757e+06
       929.40000  2.35799e-07  9.58286e+06
       929.50000  1.69156e-07  6.87282e+06
       929.60000  1.69156e-07  6.87113e+06
       929.70000  1.69156e-07  6.86775e+06
       929.80000  1.69156e-07  6.86606e+06
       929.90000  1.69156e-07  6.86437e+06
       930.00000  1.69156e-07  6.86267e+06
       930.10000  1.69156e-07  6.86267e+06
       930.20000  1.69156e-07  6.86267e+06
       930.30000  1.69156e-07  6.86098e+06
       930.40000  1.69156e-07  6.86098e+06
       930.50000  1.86626e-07  7.56957e+06
       930.60000  1.86626e-07  7.56957e+06
       930.70000  1.86626e-07  7.56770e+06
       930.80000  1.86626e-07  7.56770e+06
       930.90000  1.86626e-07  7.56770e+06
       931.00000  1.86626e-07  7.56770e+06
       931.10000  1.86626e-07  7.56770e+06
       931.20000  1.86626e-07  7.56584e+06
       931.30000  1.87468e-07  7.59994e+06
       931.40000  1.87468e-07  7.59994e+06
       931.50000  1.94924e-07  7.90222e+06
       931.60000  1.94924e-07  7.90222e+06
       931.70000  1.94924e-07  7.90222e+06
       931.80000  1.94924e-07  7.90222e+06
       931.90000  1.94924e-07  7.90222e+06
       932.00000  1.94924e-07  7.90222e+06
       932.10000  1.94924e-07  7.90222e+06
       932.20000  1.94924e-07  7.90222e+06
       932.30000  1.94924e-07  7.90222e+06
       932.40000  1.94924e-07  7.90222e+06
       932.50000  1.61766e-07  6.55799e+06
       932.60000  1.61766e-07  6.55799e+06
       932.70000  1.61766e-07  6.55799e+06
       932.80000  1.61766e-07  6.55960e+06
       932.90000  1.61766e-07  6.55960e+06
       933.00000  1.61766e-07  6.55960e+06
       933.10000  1.61766e-07  6.55960e+06
       933.20000  1.61766e-07  6.55960e+06
       933.30000  1.61766e-07  6.56122e+06
       933.40000  1.61766e-07  6.56122e+06
       933.50000  1.87706e-07  7.61337e+06
       933.60000  1.87706e-07  7.61524e+06
       933.70000  1.87706e-07  7.61524e+06
       933.80000  1.88414e-07  7.64395e+06
       933.90000  1.88414e-07  7.64584e+06
       934.00000  1.88414e-07  7.64584e+06
       934.10000  1.88414e-07  7.64018e+06
       934.20000  1.88414e-07  7.63453e+06
       934.30000  1.88414e-07  7.62888e+06
       934.40000  1.88414e-07  7.62323e+06
       934.50000  1.72728e-07  6.98341e+06
       934.60000  1.72728e-07  6.97995e+06
       934.70000  1.72728e-07  6.97650e+06
       934.80000  1.72728e-07  6.97132e+06
       934.90000  1.72728e-07  6.96786e+06
       935.00000  1.72728e-07  6.96613e+06
       935.10000  1.72728e-07  6.96268e+06
       935.20000  1.72728e-07  6.95923e+06
       935.30000  1.72728e-07  6.95750e+06
       935.40000  1.72728e-07  6.95577e+06
       935.50000  1.73270e-07  6.97585e+06
       935.60000  1.73270e-07  6.97411e+06
       935.70000  1.73270e-07  6.97238e+06
       935.80000  1.73270e-07  6.97065e+06
       935.90000  1.73270e-07  6.97065e+06
       936.00000  1.73270e-07  6.96892e+06
       936.10000  1.73270e-07  6.97411e+06
       936.20000  1.73270e-07  6.97931e+06
       936.30000  1.73873e-07  7.00881e+06
       936.40000  1.73873e-07  7.01403e+06
       936.50000  1.79774e-07  7.25566e+06
       936.60000  1.79774e-07  7.25926e+06
       936.70000  1.79774e-07  7.26285e+06
       936.80000  1.79774e-07  7.26645e+06
       936.90000  1.79774e-07  7.26825e+06
       937.00000  1.79774e-07  7.27184e+06
       937.10000  1.79774e-07  7.27364e+06
       937.20000  1.79774e-07  7.27544e+06
       937.30000  1.79774e-07  7.27544e+06
       937.40000  1.79774e-07  7.27724e+06
       937.50000  1.97283e-07  7.98602e+06
       937.60000  1.97283e-07  7.98602e+06
       937.70000  1.97283e-07  7.98602e+06
       937.80000  1.97283e-07  7.98602e+06
       937.90000  1.97283e-07  7.98405e+06
       938.00000  1.97283e-07  7.98405e+06
       938.10000  1.97283e-07  7.98208e+06
       938.20000  1.97283e-07  7.97813e+06
       938.30000  1.97283e-07  7.97616e+06
       938.40000  1.97283e-07  7.97221e+06
       938.50000  1.91113e-07  7.72096e+06
       938.60000  1.91113e-07  7.71713e+06
       938.70000  1.91113e-07  7.71140e+06
       938.80000  1.91649e-07  7.72921e+06
       938.90000  1.91649e-07  7.72346e+06
       939.00000  1.91649e-07  7.71962e+06
       939.10000  1.91649e-07  7.71388e+06
       939.20000  1.91649e-07  7.70621e+06
       939.30000  1.91649e-07  7.70046e+06
       939.40000  1.91649e-07  7.69279e+06
       939.50000  1.55387e-07  6.23101e+06
       939.60000  1.55387e-07  6.22479e+06
       939.70000  1.55387e-07  6.21858e+06
       939.80000  1.55387e-07  6.21236e+06
       939.90000  1.55387e-07  6.20459e+06
       940.00000  1.55387e-07  6.19682e+06
       940.10000  1.55387e-07  6.18594e+06
       940.20000  1.55387e-07  6.17507e+06
       940.30000  1.55387e-07  6.16574e+06
       940.40000  1.55387e-07  6.15642e+06
       940.50000  1.61995e-07  6.40854e+06
       940.60000  1.61995e-07  6.40044e+06
       940.70000  1.61995e-07  6.39234e+06
       940.80000  1.61995e-07  6.38424e+06
       940.90000  1.61995e-07  6.37614e+06
       941.00000  1.61995e-07  6.36966e+06
       941.10000  1.61995e-07  6.36318e+06
       941.20000  1.61995e-07  6.35832e+06
       941.30000  1.62204e-07  6.36164e+06
       941.40000  1.62204e-07  6.35677e+06
       941.50000  1.39840e-07  5.47615e+06
       941.60000  1.39840e-07  5.47335e+06
       941.70000  1.39840e-07  5.47056e+06
       941.80000  1.39840e-07  5.46776e+06
       941.90000  1.39840e-07  5.46496e+06
       942.00000  1.39840e-07  5.46357e+06
       942.10000  1.39840e-07  5.46776e+06
       942.20000  1.39840e-07  5.47056e+06
       942.30000  1.39840e-07  5.47475e+06
       942.40000  1.39840e-07  5.47755e+06
       942.50000  1.44864e-07  5.67721e+06
       942.60000  1.44864e-07  5.68156e+06
       942.70000  1.44864e-07  5.68446e+06
       942.80000  1.44864e-07  5.68735e+06
       942.90000  1.44864e-07  5.69025e+06
       943.00000  1.44864e-07  5.69315e+06
       943.10000  1.44864e-07  5.69749e+06
       943.20000  1.44864e-07  5.70039e+06
       943.30000  1.44864e-07  5.70329e+06
       943.40000  1.44864e-07  5.70619e+06
       943.50000  1.36021e-07  5.36059e+06
       943.60000  1.36021e-07  5.36331e+06
       943.70000  1.36021e-07  5.36603e+06
       943.80000  1.36000e-07  5.36792e+06
       943.90000  1.36000e-07  5.37064e+06
       944.00000  1.36000e-07  5.37336e+06
       944.10000  1.36000e-07  5.37608e+06
       944.20000  1.36000e-07  5.37880e+06
       944.30000  1.36000e-07  5.38016e+06
       944.40000  1.36000e-07  5.38288e+06
       944.50000  1.42107e-07  5.62742e+06
       944.60000  1.42107e-07  5.63026e+06
       944.70000  1.42107e-07  5.63168e+06
       944.80000  1.42107e-07  5.63453e+06
       944.90000  1.42107e-07  5.63737e+06
       945.00000  1.42107e-07  5.63879e+06
       945.10000  1.42107e-07  5.64163e+06
       945.20000  1.42107e-07  5.64447e+06
       945.30000  1.42107e-07  5.64589e+06
       945.40000  1.42107e-07  5.64874e+06
       945.50000  1.36523e-07  5.42814e+06
       945.60000  1.36523e-07  5.43087e+06
       945.70000  1.36523e-07  5.43224e+06
       945.80000  1.36523e-07  5.43497e+06
       945.90000  1.36523e-07  5.43634e+06
       946.00000  1.36523e-07  5.43770e+06
       946.10000  1.36523e-07  5.44043e+06
       946.20000  1.36523e-07  5.44316e+06
       946.30000  1.36563e-07  5.44752e+06
       946.40000  1.36563e-07  5.45025e+06
       946.50000  1.40225e-07  5.59920e+06
       946.60000  1.40225e-07  5.60060e+06
       946.70000  1.40225e-07  5.60341e+06
       946.80000  1.40225e-07  5.60481e+06
       946.90000  1.40225e-07  5.60621e+06
       947.00000  1.40225e-07  5.60902e+06
       947.10000  1.40225e-07  5.61042e+06
       947.20000  1.40225e-07  5.61182e+06
       947.30000  1.40225e-07  5.61322e+06
       947.40000  1.40225e-07  5.61463e+06
       947.50000  1.25948e-07  5.04294e+06
       947.60000  1.25948e-07  5.04420e+06
       947.70000  1.25948e-07  5.04546e+06
       947.80000  1.25948e-07  5.04546e+06
       947.90000  1.25948e-07  5.04672e+06
       948.00000  1.25948e-07  5.04672e+06
       948.10000  1.25948e-07  5.04672e+06
       948.20000  1.25948e-07  5.04672e+06
       948.30000  1.25948e-07  5.04546e+06
       948.40000  1.25948e-07  5.04546e+06
       948.50000  1.66640e-07  6.67393e+06
       948.60000  1.66640e-07  6.67393e+06
       948.70000  1.66640e-07  6.67393e+06
       948.80000  1.67157e-07  6.69298e+06
       948.90000  1.67157e-07  6.69298e+06
       949.00000  1.67157e-07  6.69131e+06
       949.10000  1.67157e-07  6.69131e+06
       949.20000  1.67157e-07  6.68964e+06
       949.30000  1.67157e-07  6.68964e+06
       949.40000  1.67157e-07  6.68796e+06
       949.50000  1.38103e-07  5.52548e+06
       949.60000  1.38103e-07  5.52410e+06
       949.70000  1.38103e-07  5.52272e+06
       949.80000  1.38103e-07  5.52272e+06
       949.90000  1.38103e-07  5.52134e+06
       950.00000  1.38103e-07  5.51996e+06
       950.10000  1.38103e-07  5.51996e+06
       950.20000  1.38103e-07  5.51858e+06
       950.30000  1.38103e-07  5.51720e+06
       950.40000  1.38103e-07  5.51720e+06
       950.50000  1.32782e-07  5.30332e+06
       950.60000  1.32782e-07  5.30199e+06
       950.70000  1.32782e-07  5.30067e+06
       950.80000  1.32782e-07  5.30067e+06
       950.90000  1.32782e-07  5.29934e+06
       951.00000  1.32782e-07  5.29801e+06
       951.10000  1.32782e-07  5.29668e+06
       951.20000  1.32782e-07  5.29535e+06
       951.30000  1.32656e-07  5.29030e+06
       951.40000  1.32656e-07  5.28898e+06
       951.50000  1.51310e-07  6.03121e+06
       951.60000  1.51310e-07  6.02969e+06
       951.70000  1.51310e-07  6.02818e+06
       951.80000  1.51310e-07  6.02667e+06
       951.90000  1.51310e-07  6.02516e+06
       952.00000  1.51310e-07  6.02364e+06
       952.10000  1.51310e-07  6.01154e+06
       952.20000  1.51310e-07  5.99943e+06
       952.30000  1.51310e-07  5.98884e+06
       952.40000  1.51310e-07  5.97825e+06
       952.50000  1.36880e-07  5.39854e+06
       952.60000  1.36880e-07  5.38896e+06
       952.70000  1.36880e-07  5.38075e+06
       952.80000  1.36880e-07  5.37254e+06
       952.90000  1.36880e-07  5.36432e+06
       953.00000  1.36880e-07  5.35748e+06
       953.10000  1.36880e-07  5.35063e+06
       953.20000  1.36880e-07  5.34379e+06
       953.30000  1.36880e-07  5.33832e+06
       953.40000  1.36880e-07  5.33147e+06
       953.50000  1.27345e-07  4.95499e+06
       953.60000  1.27345e-07  4.95117e+06
       953.70000  1.27345e-07  4.94608e+06
       953.80000  1.27617e-07  4.95280e+06
       953.90000  1.27617e-07  4.94897e+06
       954.00000  1.27617e-07  4.94642e+06
       954.10000  1.27617e-07  4.94514e+06
       954.20000  1.27617e-07  4.94387e+06
       954.30000  1.27617e-07  4.94387e+06
       954.40000  1.27617e-07  4.94387e+06
       954.50000  1.33314e-07  5.16326e+06
       954.60000  1.33314e-07  5.16326e+06
       954.70000  1.33314e-07  5.16326e+06
       954.80000  1.33314e-07  5.16326e+06
       954.90000  1.33314e-07  5.16459e+06
       955.00000  1.33314e-07  5.16459e+06
       955.10000  1.33314e-07  5.16592e+06
       955.20000  1.33314e-07  5.16592e+06
       955.30000  1.33314e-07  5.16726e+06
       955.40000  1.33314e-07  5.16859e+06
       955.50000  1.15968e-07  4.49724e+06
       955.60000  1.15968e-07  4.49840e+06
       955.70000  1.15968e-07  4.49956e+06
       955.80000  1.15968e-07  4.50188e+06
       955.90000  1.15968e-07  4.50304e+06
       956.00000  1.15968e-07  4.50536e+06
       956.10000  1.15968e-07  4.50767e+06
       956.20000  1.15968e-07  4.50883e+06
       956.30000  1.16362e-07  4.52647e+06
       956.40000  1.16362e-07  4.52996e+06
       956.50000  1.22821e-07  4.78388e+06
       956.60000  1.22821e-07  4.78633e+06
       956.70000  1.22821e-07  4.79002e+06
       956.80000  1.22821e-07  4.79248e+06
       956.90000  1.22821e-07  4.79616e+06
       957.00000  1.22821e-07  4.79984e+06
       957.10000  1.22821e-07  4.80353e+06
       957.20000  1.22821e-07  4.80721e+06
       957.30000  1.22821e-07  4.81213e+06
       957.40000  1.22821e-07  4.81581e+06
       957.50000  1.08251e-07  4.24777e+06
       957.60000  1.08251e-07  4.25210e+06
       957.70000  1.08251e-07  4.25643e+06
       957.80000  1.08251e-07  4.26076e+06
       957.90000  1.08251e-07  4.26509e+06
       958.00000  1.08251e-07  4.26942e+06
       958.10000  1.08251e-07  4.26942e+06
       958.20000  1.08251e-07  4.26833e+06
       958.30000  1.08251e-07  4.26833e+06
       958.40000  1.08251e-07  4.26833e+06
       958.50000  1.10817e-07  4.36950e+06
       958.60000  1.10817e-07  4.36839e+06
       958.70000  1.10817e-07  4.36839e+06
       958.80000  1.10931e-07  4.37290e+06
       958.90000  1.10931e-07  4.37179e+06
       959.00000  1.10931e-07  4.37179e+06
       959.10000  1.10931e-07  4.37068e+06
       959.20000  1.10931e-07  4.37068e+06
       959.30000  1.10931e-07  4.36957e+06
       959.40000  1.10931e-07  4.36846e+06
       959.50000  1.16088e-07  4.57155e+06
       959.60000  1.16088e-07  4.57038e+06
       959.70000  1.16088e-07  4.57038e+06
       959.80000  1.16088e-07  4.56922e+06
       959.90000  1.16088e-07  4.56806e+06
       960.00000  1.16088e-07  4.56690e+06
       960.10000  1.16088e-07  4.56574e+06
       960.20000  1.16088e-07  4.56458e+06
       960.30000  1.16088e-07  4.56342e+06
       960.40000  1.16088e-07  4.56226e+06
       960.50000  9.88532e-08  3.88394e+06
       960.60000  9.88532e-08  3.88295e+06
       960.70000  9.88532e-08  3.88196e+06
       960.80000  9.88532e-08  3.88097e+06
       960.90000  9.88532e-08  3.87999e+06
       961.00000  9.88532e-08  3.87900e+06
       961.10000  9.88532e-08  3.87801e+06
       961.20000  9.88532e-08  3.87702e+06
       961.30000  9.90471e-08  3.88364e+06
       961.40000  9.90471e-08  3.88265e+06
       961.50000  1.16428e-07  4.56281e+06
       961.60000  1.16428e-07  4.56049e+06
       961.70000  1.16428e-07  4.55932e+06
       961.80000  1.16428e-07  4.55816e+06
       961.90000  1.16428e-07  4.55699e+06
       962.00000  1.16428e-07  4.55583e+06
       962.10000  1.16428e-07  4.55350e+06
       962.20000  1.16428e-07  4.55234e+06
       962.30000  1.16428e-07  4.55117e+06
       962.40000  1.16428e-07  4.54884e+06
       962.50000  9.80083e-08  3.82820e+06
       962.60000  9.80083e-08  3.82722e+06
       962.70000  9.80083e-08  3.82526e+06
       962.80000  9.80083e-08  3.82428e+06
       962.90000  9.80083e-08  3.82232e+06
       963.00000  9.80083e-08  3.82134e+06
       963.10000  9.80083e-08  3.82036e+06
       963.20000  9.80083e-08  3.81840e+06
       963.30000  9.80083e-08  3.81742e+06
       963.40000  9.80083e-08  3.81546e+06
       963.50000  1.02530e-07  3.99046e+06
       963.60000  1.02530e-07  3.98841e+06
       963.70000  1.02530e-07  3.98739e+06
       963.80000  1.02746e-07  3.99375e+06
       963.90000  1.02746e-07  3.99170e+06
       964.00000  1.02746e-07  3.99067e+06
       964.10000  1.02746e-07  3.98861e+06
       964.20000  1.02746e-07  3.98553e+06
       964.30000  1.02746e-07  3.98348e+06
       964.40000  1.02746e-07  3.98245e+06
       964.50000  1.30968e-07  5.07371e+06
       964.60000  1.30968e-07  5.07109e+06
       964.70000  1.30968e-07  5.06978e+06
       964.80000  1.30968e-07  5.06717e+06
       964.90000  1.30968e-07  5.06586e+06
       965.00000  1.30968e-07  5.06324e+06
       965.10000  1.30968e-07  5.06193e+06
       965.20000  1.30968e-07  5.06062e+06
       965.30000  1.30968e-07  5.05931e+06
       965.40000  1.30968e-07  5.05931e+06
       965.50000  1.07687e-07  4.15888e+06
       965.60000  1.07687e-07  4.15781e+06
       965.70000  1.07687e-07  4.15781e+06
       965.80000  1.07687e-07  4.15673e+06
       965.90000  1.07687e-07  4.15673e+06
       966.00000  1.07687e-07  4.15673e+06
       966.10000  1.07687e-07  4.15781e+06
       966.20000  1.07687e-07  4.15888e+06
       966.30000  1.08040e-07  4.17468e+06
       966.40000  1.08040e-07  4.17576e+06
       966.50000  1.02210e-07  3.95145e+06
       966.60000  1.02210e-07  3.95247e+06
       966.70000  1.02210e-07  3.95349e+06
       966.80000  1.02210e-07  3.95452e+06
       966.90000  1.02210e-07  3.95554e+06
       967.00000  1.02210e-07  3.95656e+06
       967.10000  1.02210e-07  3.95758e+06
       967.20000  1.02210e-07  3.95861e+06
       967.30000  1.02210e-07  3.95963e+06
       967.40000  1.02210e-07  3.96065e+06
       967.50000  1.00398e-07  3.89044e+06
       967.60000  1.00398e-07  3.89144e+06
       967.70000  1.00398e-07  3.89245e+06
       967.80000  1.00398e-07  3.89245e+06
       967.90000  1.00398e-07  3.89345e+06
       968.00000  1.00398e-07  3.89446e+06
       968.10000  1.00398e-07  3.89446e+06
       968.20000  1.00398e-07  3.89546e+06
       968.30000  1.00398e-07  3.89546e+06
       968.40000  1.00398e-07  3.89546e+06
       968.50000  9.79121e-08  3.79997e+06
       968.60000  9.79121e-08  3.79997e+06
       968.70000  9.79121e-08  3.79997e+06
       968.80000  9.81433e-08  3.80992e+06
       968.90000  9.81433e-08  3.80992e+06
       969.00000  9.81433e-08  3.80992e+06
       969.10000  9.81433e-08  3.80992e+06
       969.20000  9.81433e-08  3.80992e+06
       969.30000  9.81433e-08  3.80992e+06
       969.40000  9.81433e-08  3.80992e+06
       969.50000  9.29667e-08  3.60897e+06
       969.60000  9.29667e-08  3.60897e+06
       969.70000  9.29667e-08  3.60897e+06
       969.80000  9.29667e-08  3.60897e+06
       969.90000  9.29667e-08  3.60897e+06
       970.00000  9.29667e-08  3.60897e+06
       970.10000  9.29667e-08  3.60990e+06
       970.20000  9.29667e-08  3.61083e+06
       970.30000  9.29667e-08  3.61083e+06
       970.40000  9.29667e-08  3.61176e+06
       970.50000  1.14048e-07  4.43075e+06
       970.60000  1.14048e-07  4.43189e+06
       970.70000  1.14048e-07  4.43189e+06
       970.80000  1.14048e-07  4.43189e+06
       970.90000  1.14048e-07  4.43189e+06
       971.00000  1.14048e-07  4.43189e+06
       971.10000  1.14048e-07  4.43189e+06
       971.20000  1.14048e-07  4.43075e+06
       971.30000  1.14232e-07  4.43793e+06
       971.40000  1.14232e-07  4.43679e+06
       971.50000  9.01862e-08  3.50283e+06
       971.60000  9.01862e-08  3.50193e+06
       971.70000  9.01862e-08  3.50103e+06
       971.80000  9.01862e-08  3.50013e+06
       971.90000  9.01862e-08  3.49923e+06
       972.00000  9.01862e-08  3.49742e+06
       972.10000  9.01862e-08  3.49381e+06
       972.20000  9.01862e-08  3.49021e+06
       972.30000  9.01862e-08  3.48750e+06
       972.40000  9.01862e-08  3.48389e+06
       972.50000  8.44940e-08  3.26147e+06
       972.60000  8.44940e-08  3.25809e+06
       972.70000  8.44940e-08  3.25556e+06
       972.80000  8.44940e-08  3.25302e+06
       972.90000  8.44940e-08  3.25049e+06
       973.00000  8.44940e-08  3.24880e+06
       973.10000  8.44940e-08  3.24626e+06
       973.20000  8.44940e-08  3.24457e+06
       973.30000  8.44940e-08  3.24288e+06
       973.40000  8.44940e-08  3.24119e+06
       973.50000  9.87835e-08  3.78736e+06
       973.60000  9.87835e-08  3.78539e+06
       973.70000  9.87835e-08  3.78440e+06
       973.80000  9.88370e-08  3.78447e+06
       973.90000  9.88370e-08  3.78348e+06
       974.00000  9.88370e-08  3.78249e+06
       974.10000  9.88370e-08  3.78348e+06
       974.20000  9.88370e-08  3.78546e+06
       974.30000  9.88370e-08  3.78645e+06
       974.40000  9.88370e-08  3.78743e+06
       974.50000  7.97112e-08  3.05533e+06
       974.60000  7.97112e-08  3.05613e+06
       974.70000  7.97112e-08  3.05692e+06
       974.80000  7.97112e-08  3.05772e+06
       974.90000  7.97112e-08  3.05772e+06
       975.00000  7.97112e-08  3.05852e+06
       975.10000  7.97112e-08  3.05932e+06
       975.20000  7.97112e-08  3.05932e+06
       975.30000  7.97112e-08  3.06011e+06
       975.40000  7.97112e-08  3.06011e+06
       975.50000  8.98678e-08  3.45003e+06
       975.60000  8.98678e-08  3.45092e+06
       975.70000  8.98678e-08  3.45092e+06
       975.80000  8.98678e-08  3.45092e+06
       975.90000  8.98678e-08  3.45092e+06
       976.00000  8.98678e-08  3.45092e+06
       976.10000  8.98678e-08  3.45003e+06
       976.20000  8.98678e-08  3.44913e+06
       976.30000  8.98074e-08  3.44591e+06
       976.40000  8.98074e-08  3.44501e+06
       976.50000  9.40193e-08  3.60658e+06
       976.60000  9.40193e-08  3.60564e+06
       976.70000  9.40193e-08  3.60470e+06
       976.80000  9.40193e-08  3.60376e+06
       976.90000  9.40193e-08  3.60376e+06
       977.00000  9.40193e-08  3.60282e+06
       977.10000  9.40193e-08  3.60188e+06
       977.20000  9.40193e-08  3.60094e+06
       977.30000  9.40193e-08  3.60094e+06
       977.40000  9.40193e-08  3.60000e+06
       977.50000  7.58817e-08  2.90475e+06
       977.60000  7.58817e-08  2.90475e+06
       977.70000  7.58817e-08  2.90399e+06
       977.80000  7.58817e-08  2.90323e+06
       977.90000  7.58817e-08  2.90323e+06
       978.00000  7.58817e-08  2.90247e+06
       978.10000  7.58817e-08  2.90247e+06
       978.20000  7.58817e-08  2.90172e+06
       978.30000  7.58817e-08  2.90172e+06
       978.40000  7.58817e-08  2.90096e+06
       978.50000  6.84906e-08  2.61771e+06
       978.60000  6.84906e-08  2.61771e+06
       978.70000  6.84906e-08  2.61771e+06
       978.80000  6.84793e-08  2.61660e+06
       978.90000  6.84793e-08  2.61660e+06
       979.00000  6.84793e-08  2.61591e+06
       979.10000  6.84793e-08  2.61591e+06
       979.20000  6.84793e-08  2.61523e+06
       979.30000  6.84793e-08  2.61523e+06
       979.40000  6.84793e-08  2.61523e+06
       979.50000  7.54927e-08  2.88231e+06
       979.60000  7.54927e-08  2.88231e+06
       979.70000  7.54927e-08  2.88231e+06
       979.80000  7.54927e-08  2.88156e+06
       979.90000  7.54927e-08  2.88156e+06
       980.00000  7.54927e-08  2.88156e+06
       980.10000  7.54927e-08  2.88306e+06
       980.20000  7.54927e-08  2.88382e+06
       980.30000  7.54927e-08  2.88533e+06
       980.40000  7.54927e-08  2.88608e+06
       980.50000  7.14738e-08  2.73387e+06
       980.60000  7.14738e-08  2.73459e+06
       980.70000  7.14738e-08  2.73530e+06
       980.80000  7.14738e-08  2.73602e+06
       980.90000  7.14738e-08  2.73673e+06
       981.00000  7.14738e-08  2.73745e+06
       981.10000  7.14738e-08  2.73816e+06
       981.20000  7.14738e-08  2.73888e+06
       981.30000  7.18573e-08  2.75357e+06
       981.40000  7.18573e-08  2.75429e+06
       981.50000  7.97315e-08  3.05611e+06
       981.60000  7.97315e-08  3.05611e+06
       981.70000  7.97315e-08  3.05690e+06
       981.80000  7.97315e-08  3.05690e+06
       981.90000  7.97315e-08  3.05690e+06
       982.00000  7.97315e-08  3.05611e+06
       982.10000  7.97315e-08  3.05531e+06
       982.20000  7.97315e-08  3.05372e+06
       982.30000  7.97315e-08  3.05292e+06
       982.40000  7.97315e-08  3.05132e+06
       982.50000  6.77506e-08  2.59214e+06
       982.60000  6.77506e-08  2.59078e+06
       982.70000  6.77506e-08  2.59010e+06
       982.80000  6.77506e-08  2.58943e+06
       982.90000  6.77506e-08  2.58807e+06
       983.00000  6.77506e-08  2.58739e+06
       983.10000  6.77506e-08  2.58672e+06
       983.20000  6.77506e-08  2.58604e+06
       983.30000  6.77506e-08  2.58536e+06
       983.40000  6.77506e-08  2.58401e+06
       983.50000  5.93876e-08  2.26445e+06
       983.60000  5.93876e-08  2.26385e+06
       983.70000  5.93876e-08  2.26326e+06
       983.80000  5.94340e-08  2.26443e+06
       983.90000  5.94340e-08  2.26384e+06
       984.00000  5.94340e-08  2.26325e+06
       984.10000  5.94340e-08  2.26325e+06
       984.20000  5.94340e-08  2.26265e+06
       984.30000  5.94340e-08  2.26206e+06
       984.40000  5.94340e-08  2.26146e+06
       984.50000  5.66288e-08  2.15472e+06
       984.60000  5.66288e-08  2.15416e+06
       984.70000  5.66288e-08  2.15359e+06
       984.80000  5.66288e-08  2.15359e+06
       984.90000  5.66288e-08  2.15303e+06
       985.00000  5.66288e-08  2.15246e+06
       985.10000  5.66288e-08  2.15246e+06
       985.20000  5.66288e-08  2.15189e+06
       985.30000  5.66288e-08  2.15189e+06
       985.40000  5.66288e-08  2.15189e+06
       985.50000  6.22025e-08  2.36307e+06
       985.60000  6.22025e-08  2.36307e+06
       985.70000  6.22025e-08  2.36307e+06
       985.80000  6.22025e-08  2.36245e+06
       985.90000  6.22025e-08  2.36245e+06
       986.00000  6.22025e-08  2.36245e+06
       986.10000  6.22025e-08  2.36183e+06
       986.20000  6.22025e-08  2.36183e+06
       986.30000  6.18461e-08  2.34830e+06
       986.40000  6.18461e-08  2.34768e+06
       986.50000  5.65016e-08  2.14423e+06
       986.60000  5.65016e-08  2.14423e+06
       986.70000  5.65016e-08  2.14367e+06
       986.80000  5.65016e-08  2.14367e+06
       986.90000  5.65016e-08  2.14310e+06
       987.00000  5.65016e-08  2.14254e+06
       987.10000  5.65016e-08  2.14197e+06
       987.20000  5.65016e-08  2.14197e+06
       987.30000  5.65016e-08  2.14141e+06
       987.40000  5.65016e-08  2.14084e+06
       987.50000  6.17089e-08  2.33753e+06
       987.60000  6.17089e-08  2.33692e+06
       987.70000  6.17089e-08  2.33630e+06
       987.80000  6.17089e-08  2.33568e+06
       987.90000  6.17089e-08  2.33506e+06
       988.00000  6.17089e-08  2.33445e+06
       988.10000  6.17089e-08  2.33260e+06
       988.20000  6.17089e-08  2.33136e+06
       988.30000  6.17089e-08  2.32951e+06
       988.40000  6.17089e-08  2.32828e+06
       988.50000  5.90024e-08  2.22498e+06
       988.60000  5.90024e-08  2.22380e+06
       988.70000  5.90024e-08  2.22262e+06
       988.80000  5.91653e-08  2.22757e+06
       988.90000  5.91653e-08  2.22639e+06
       989.00000  5.91653e-08  2.22580e+06
       989.10000  5.91653e-08  2.22521e+06
       989.20000  5.91653e-08  2.22402e+06
       989.30000  5.91653e-08  2.22343e+06
       989.40000  5.91653e-08  2.22284e+06
       989.50000  5.31209e-08  1.99522e+06
       989.60000  5.31209e-08  1.99469e+06
       989.70000  5.31209e-08  1.99469e+06
       989.80000  5.31209e-08  1.99416e+06
       989.90000  5.31209e-08  1.99416e+06
       990.00000  5.31209e-08  1.99416e+06
       990.10000  5.31209e-08  1.99363e+06
       990.20000  5.31209e-08  1.99363e+06
       990.30000  5.31209e-08  1.99416e+06
       990.40000  5.31209e-08  1.99416e+06
       990.50000  4.67834e-08  1.75625e+06
       990.60000  4.67834e-08  1.75672e+06
       990.70000  4.67834e-08  1.75672e+06
       990.80000  4.67834e-08  1.75718e+06
       990.90000  4.67834e-08  1.75765e+06
       991.00000  4.67834e-08  1.75812e+06
       991.10000  4.67834e-08  1.75859e+06
       991.20000  4.67834e-08  1.75906e+06
       991.30000  4.68825e-08  1.76325e+06
       991.40000  4.68825e-08  1.76419e+06
       991.50000  4.65870e-08  1.75353e+06
       991.60000  4.65870e-08  1.75447e+06
       991.70000  4.65870e-08  1.75540e+06
       991.80000  4.65870e-08  1.75633e+06
       991.90000  4.65870e-08  1.75726e+06
       992.00000  4.65870e-08  1.75819e+06
       992.10000  4.65870e-08  1.75866e+06
       992.20000  4.65870e-08  1.75866e+06
       992.30000  4.65870e-08  1.75866e+06
       992.40000  4.65870e-08  1.75866e+06
       992.50000  4.83626e-08  1.82617e+06
       992.60000  4.83626e-08  1.82617e+06
       992.70000  4.83626e-08  1.82617e+06
       992.80000  4.83626e-08  1.82617e+06
       992.90000  4.83626e-08  1.82617e+06
       993.00000  4.83626e-08  1.82665e+06
       993.10000  4.83626e-08  1.82665e+06
       993.20000  4.83626e-08  1.82665e+06
       993.30000  4.83626e-08  1.82665e+06
       993.40000  4.83626e-08  1.82665e+06
       993.50000  5.40649e-08  2.04203e+06
       993.60000  5.40649e-08  2.04203e+06
       993.70000  5.40649e-08  2.04203e+06
       993.80000  5.40951e-08  2.04317e+06
       993.90000  5.40951e-08  2.04263e+06
       994.00000  5.40951e-08  2.04263e+06
       994.10000  5.40951e-08  2.04263e+06
       994.20000  5.40951e-08  2.04209e+06
       994.30000  5.40951e-08  2.04209e+06
       994.40000  5.40951e-08  2.04155e+06
       994.50000  5.12401e-08  1.93380e+06
       994.60000  5.12401e-08  1.93329e+06
       994.70000  5.12401e-08  1.93329e+06
       994.80000  5.12401e-08  1.93278e+06
       994.90000  5.12401e-08  1.93278e+06
       995.00000  5.12401e-08  1.93227e+06
       995.10000  5.12401e-08  1.93227e+06
       995.20000  5.12401e-08  1.93227e+06
       995.30000  5.12401e-08  1.93175e+06
       995.40000  5.12401e-08  1.93175e+06
       995.50000  4.84353e-08  1.82601e+06
       995.60000  4.84353e-08  1.82553e+06
       995.70000  4.84353e-08  1.82553e+06
       995.80000  4.84353e-08  1.82553e+06
       995.90000  4.84353e-08  1.82553e+06
       996.00000  4.84353e-08  1.82504e+06
       996.10000  4.84353e-08  1.82553e+06
       996.20000  4.84353e-08  1.82553e+06
       996.30000  4.84918e-08  1.82766e+06
       996.40000  4.84918e-08  1.82766e+06
       996.50000  5.48007e-08  2.06544e+06
       996.60000  5.48007e-08  2.06544e+06
       996.70000  5.48007e-08  2.06544e+06
       996.80000  5.48007e-08  2.06544e+06
       996.90000  5.48007e-08  2.06544e+06
       997.00000  5.48007e-08  2.06544e+06
       997.10000  5.48007e-08  2.06544e+06
       997.20000  5.48007e-08  2.06544e+06
       997.30000  5.48007e-08  2.06544e+06
       997.40000  5.48007e-08  2.06544e+06
       997.50000  4.55277e-08  1.71594e+06
       997.60000  4.55277e-08  1.71594e+06
       997.70000  4.55277e-08  1.71594e+06
       997.80000  4.55277e-08  1.71594e+06
       997.90000  4.55277e-08  1.71594e+06
       998.00000  4.55277e-08  1.71548e+06
       998.10000  4.55277e-08  1.71548e+06
       998.20000  4.55277e-08  1.71503e+06
       998.30000  4.55277e-08  1.71503e+06
       998.40000  4.55277e-08  1.71457e+06
       998.50000  4.13108e-08  1.55535e+06
       998.60000  4.13108e-08  1.55535e+06
       998.70000  4.13108e-08  1.55494e+06
       998.80000  4.16497e-08  1.56769e+06
       998.90000  4.16497e-08  1.56769e+06
       999.00000  4.16497e-08  1.56728e+06
       999.10000  4.16497e-08  1.56728e+06
       999.20000  4.16497e-08  1.56686e+06
       999.30000  4.16497e-08  1.56686e+06
       999.40000  4.16497e-08  1.56686e+06
       999.50000  4.42888e-08  1.66570e+06
       999.60000  4.42888e-08  1.66570e+06
       999.70000  4.42888e-08  1.66570e+06
       999.80000  4.42888e-08  1.66570e+06
       999.90000  4.42888e-08  1.66570e+06
       1000.0000  4.42888e-08  1.66526e+06
       1000.1000  4.42888e-08  1.66526e+06
       1000.2000  4.42888e-08  1.66526e+06
       1000.3000  4.42888e-08  1.66526e+06
       1000.4000  4.42888e-08  1.66526e+06
       1000.5000  4.33637e-08  1.63048e+06
       1000.6000  4.33637e-08  1.63048e+06
       1000.7000  4.33637e-08  1.63048e+06
       1000.8000  4.33637e-08  1.63048e+06
       1000.9000  4.33637e-08  1.63048e+06
       1001.0000  4.33637e-08  1.63048e+06
       1001.1000  4.33637e-08  1.63048e+06
       1001.2000  4.33637e-08  1.63091e+06
       1001.3000  4.28555e-08  1.61180e+06
       1001.4000  4.28555e-08  1.61180e+06
       1001.5000  3.48383e-08  1.31027e+06
       1001.6000  3.48383e-08  1.31027e+06
       1001.7000  3.48383e-08  1.31062e+06
       1001.8000  3.48383e-08  1.31062e+06
       1001.9000  3.48383e-08  1.31062e+06
       1002.0000  3.48383e-08  1.31096e+06
       1002.1000  3.48383e-08  1.30887e+06
       1002.2000  3.48383e-08  1.30678e+06
       1002.3000  3.48383e-08  1.30504e+06
       1002.4000  3.48383e-08  1.30295e+06
       1002.5000  4.02645e-08  1.50388e+06
       1002.6000  4.02645e-08  1.50146e+06
       1002.7000  4.02645e-08  1.49945e+06
       1002.8000  4.02645e-08  1.49744e+06
       1002.9000  4.02645e-08  1.49542e+06
       1003.0000  4.02645e-08  1.49341e+06
       1003.1000  4.02645e-08  1.49140e+06
       1003.2000  4.02645e-08  1.48938e+06
       1003.3000  4.02645e-08  1.48777e+06
       1003.4000  4.02645e-08  1.48576e+06
       1003.5000  3.16202e-08  1.16552e+06
       1003.6000  3.16202e-08  1.16426e+06
       1003.7000  3.16202e-08  1.16267e+06
       1003.8000  3.16117e-08  1.16110e+06
       1003.9000  3.16117e-08  1.15984e+06
       1004.0000  3.16117e-08  1.15857e+06
       1004.1000  3.16117e-08  1.15667e+06
       1004.2000  3.16117e-08  1.15446e+06
       1004.3000  3.16117e-08  1.15288e+06
       1004.4000  3.16117e-08  1.15098e+06
       1004.5000  3.45892e-08  1.25766e+06
       1004.6000  3.45892e-08  1.25594e+06
       1004.7000  3.45892e-08  1.25455e+06
       1004.8000  3.45892e-08  1.25317e+06
       1004.9000  3.45892e-08  1.25213e+06
       1005.0000  3.45892e-08  1.25109e+06
       1005.1000  3.45892e-08  1.25006e+06
       1005.2000  3.45892e-08  1.24936e+06
       1005.3000  3.45892e-08  1.24867e+06
       1005.4000  3.45892e-08  1.24833e+06
       1005.5000  3.21169e-08  1.15878e+06
       1005.6000  3.21169e-08  1.15846e+06
       1005.7000  3.21169e-08  1.15846e+06
       1005.8000  3.21169e-08  1.15878e+06
       1005.9000  3.21169e-08  1.15878e+06
       1006.0000  3.21169e-08  1.15910e+06
       1006.1000  3.21169e-08  1.15974e+06
       1006.2000  3.21169e-08  1.16038e+06
       1006.3000  3.20502e-08  1.15861e+06
       1006.4000  3.20502e-08  1.15957e+06
       1006.5000  3.38003e-08  1.22391e+06
       1006.6000  3.38003e-08  1.22526e+06
       1006.7000  3.38003e-08  1.22661e+06
       1006.8000  3.38003e-08  1.22796e+06
       1006.9000  3.38003e-08  1.22965e+06
       1007.0000  3.38003e-08  1.23134e+06
       1007.1000  3.38003e-08  1.23337e+06
       1007.2000  3.38003e-08  1.23540e+06
       1007.3000  3.38003e-08  1.23743e+06
       1007.4000  3.38003e-08  1.23979e+06
       1007.5000  2.63644e-08      968890.
       1007.6000  2.63644e-08      970999.
       1007.7000  2.63644e-08      973108.
       1007.8000  2.63644e-08      975217.
       1007.9000  2.63644e-08      977590.
       1008.0000  2.63644e-08      979963.
       1008.1000  2.63644e-08      980227.
       1008.2000  2.63644e-08      980227.
       1008.3000  2.63644e-08      980227.
       1008.4000  2.63644e-08      980227.
       1008.5000  3.23613e-08  1.20319e+06
       1008.6000  3.23613e-08  1.20319e+06
       1008.7000  3.23613e-08  1.20319e+06
       1008.8000  3.22934e-08  1.20067e+06
       1008.9000  3.22934e-08  1.20067e+06
       1009.0000  3.22934e-08  1.20034e+06
       1009.1000  3.22934e-08  1.20034e+06
       1009.2000  3.22934e-08  1.20034e+06
       1009.3000  3.22934e-08  1.20034e+06
       1009.4000  3.22934e-08  1.20002e+06
       1009.5000  3.36704e-08  1.25119e+06
       1009.6000  3.36704e-08  1.25119e+06
       1009.7000  3.36704e-08  1.25086e+06
       1009.8000  3.36704e-08  1.25086e+06
       1009.9000  3.36704e-08  1.25052e+06
       1010.0000  3.36704e-08  1.25052e+06
       1010.1000  3.36704e-08  1.25018e+06
       1010.2000  3.36704e-08  1.24985e+06
       1010.3000  3.36704e-08  1.24951e+06
       1010.4000  3.36704e-08  1.24917e+06
       1010.5000  3.43884e-08  1.27547e+06
       1010.6000  3.43884e-08  1.27512e+06
       1010.7000  3.43884e-08  1.27478e+06
       1010.8000  3.43884e-08  1.27444e+06
       1010.9000  3.43884e-08  1.27409e+06
       1011.0000  3.43884e-08  1.27375e+06
       1011.1000  3.43884e-08  1.27375e+06
       1011.2000  3.43884e-08  1.27340e+06
       1011.3000  3.42964e-08  1.26965e+06
       1011.4000  3.42964e-08  1.26931e+06
       1011.5000  3.80739e-08  1.40873e+06
       1011.6000  3.80739e-08  1.40835e+06
       1011.7000  3.80739e-08  1.40797e+06
       1011.8000  3.80739e-08  1.40759e+06
       1011.9000  3.80739e-08  1.40721e+06
       1012.0000  3.80739e-08  1.40683e+06
       1012.1000  3.80739e-08  1.40645e+06
       1012.2000  3.80739e-08  1.40607e+06
       1012.3000  3.80739e-08  1.40569e+06
       1012.4000  3.80739e-08  1.40531e+06
       1012.5000  2.89210e-08  1.06719e+06
       1012.6000  2.89210e-08  1.06690e+06
       1012.7000  2.89210e-08  1.06661e+06
       1012.8000  2.89210e-08  1.06632e+06
       1012.9000  2.89210e-08  1.06632e+06
       1013.0000  2.89210e-08  1.06603e+06
       1013.1000  2.89210e-08  1.06574e+06
       1013.2000  2.89210e-08  1.06545e+06
       1013.3000  2.89210e-08  1.06516e+06
       1013.4000  2.89210e-08  1.06487e+06
       1013.5000  2.71382e-08      998959.
       1013.6000  2.71382e-08      998688.
       1013.7000  2.71382e-08      998416.
       1013.8000  2.71172e-08      997369.
       1013.9000  2.71172e-08      997098.
       1014.0000  2.71172e-08      996827.
       1014.1000  2.71172e-08      996284.
       1014.2000  2.71172e-08      995742.
       1014.3000  2.71172e-08      995200.
       1014.4000  2.71172e-08      994657.
       1014.5000  3.02335e-08  1.10866e+06
       1014.6000  3.02335e-08  1.10806e+06
       1014.7000  3.02335e-08  1.10745e+06
       1014.8000  3.02335e-08  1.10715e+06
       1014.9000  3.02335e-08  1.10655e+06
       1015.0000  3.02335e-08  1.10624e+06
       1015.1000  3.02335e-08  1.10564e+06
       1015.2000  3.02335e-08  1.10534e+06
       1015.3000  3.02335e-08  1.10503e+06
       1015.4000  3.02335e-08  1.10443e+06
       1015.5000  2.96770e-08  1.08380e+06
       1015.6000  2.96770e-08  1.08351e+06
       1015.7000  2.96770e-08  1.08321e+06
       1015.8000  2.96770e-08  1.08291e+06
       1015.9000  2.96770e-08  1.08262e+06
       1016.0000  2.96770e-08  1.08232e+06
       1016.1000  2.96770e-08  1.08232e+06
       1016.2000  2.96770e-08  1.08232e+06
       1016.3000  2.97250e-08  1.08407e+06
       1016.4000  2.97250e-08  1.08377e+06
       1016.5000  3.17274e-08  1.15678e+06
       1016.6000  3.17274e-08  1.15678e+06
       1016.7000  3.17274e-08  1.15678e+06
       1016.8000  3.17274e-08  1.15647e+06
       1016.9000  3.17274e-08  1.15647e+06
       1017.0000  3.17274e-08  1.15615e+06
       1017.1000  3.17274e-08  1.15615e+06
       1017.2000  3.17274e-08  1.15583e+06
       1017.3000  3.17274e-08  1.15583e+06
       1017.4000  3.17274e-08  1.15551e+06
       1017.5000  3.03257e-08  1.10446e+06
       1017.6000  3.03257e-08  1.10416e+06
       1017.7000  3.03257e-08  1.10385e+06
       1017.8000  3.03257e-08  1.10355e+06
       1017.9000  3.03257e-08  1.10325e+06
       1018.0000  3.03257e-08  1.10325e+06
       1018.1000  3.03257e-08  1.10264e+06
       1018.2000  3.03257e-08  1.10203e+06
       1018.3000  3.03257e-08  1.10143e+06
       1018.4000  3.03257e-08  1.10082e+06
       1018.5000  2.58066e-08      936522.
       1018.6000  2.58066e-08      936006.
       1018.7000  2.58066e-08      935748.
       1018.8000  2.57944e-08      934790.
       1018.9000  2.57944e-08      934532.
       1019.0000  2.57944e-08      934016.
       1019.1000  2.57944e-08      933758.
       1019.2000  2.57944e-08      933500.
       1019.3000  2.57944e-08      933242.
       1019.4000  2.57944e-08      932727.
       1019.5000  2.07045e-08      748467.
       1019.6000  2.07045e-08      748260.
       1019.7000  2.07045e-08      748053.
       1019.8000  2.07045e-08      748053.
       1019.9000  2.07045e-08      747846.
       1020.0000  2.07045e-08      747638.
       1020.1000  2.07045e-08      747432.
       1020.2000  2.07045e-08      747224.
       1020.3000  2.07045e-08      747224.
       1020.4000  2.07045e-08      747017.
       1020.5000  2.01114e-08      725619.
       1020.6000  2.01114e-08      725418.
       1020.7000  2.01114e-08      725418.
       1020.8000  2.01114e-08      725217.
       1020.9000  2.01114e-08      725217.
       1021.0000  2.01114e-08      725217.
       1021.1000  2.01114e-08      725217.
       1021.2000  2.01114e-08      725217.
       1021.3000  2.00687e-08      723676.
       1021.4000  2.00687e-08      723676.
       1021.5000  1.79742e-08      648149.
       1021.6000  1.79742e-08      648149.
       1021.7000  1.79742e-08      648149.
       1021.8000  1.79742e-08      648329.
       1021.9000  1.79742e-08      648329.
       1022.0000  1.79742e-08      648509.
       1022.1000  1.79742e-08      648509.
       1022.2000  1.79742e-08      648689.
       1022.3000  1.79742e-08      648868.
       1022.4000  1.79742e-08      648868.
       1022.5000  1.69156e-08      610822.
       1022.6000  1.69156e-08      610991.
       1022.7000  1.69156e-08      611160.
       1022.8000  1.69156e-08      611329.
       1022.9000  1.69156e-08      611498.
       1023.0000  1.69156e-08      611667.
       1023.1000  1.69156e-08      612006.
       1023.2000  1.69156e-08      612175.
       1023.3000  1.69156e-08      612344.
       1023.4000  1.69156e-08      612682.
       1023.5000  1.19861e-08      434255.
       1023.6000  1.19861e-08      434495.
       1023.7000  1.19861e-08      434615.
       1023.8000  1.19510e-08      433582.
       1023.9000  1.19510e-08      433821.
       1024.0000  1.19510e-08      434060.
       1024.1000  1.19510e-08      434060.
       1024.2000  1.19510e-08      433941.
       1024.3000  1.19510e-08      433941.
       1024.4000  1.19510e-08      433941.
       1024.5000  1.19988e-08      435675.
       1024.6000  1.19988e-08      435555.
       1024.7000  1.19988e-08      435555.
       1024.8000  1.19988e-08      435555.
       1024.9000  1.19988e-08      435435.
       1025.0000  1.19988e-08      435435.
       1025.1000  1.19988e-08      435435.
       1025.2000  1.19988e-08      435315.
       1025.3000  1.19988e-08      435315.
       1025.4000  1.19988e-08      435315.
       1025.5000  9.10500e-09      330238.
       1025.6000  9.10500e-09      330238.
       1025.7000  9.10500e-09      330147.
       1025.8000  9.10500e-09      330147.
       1025.9000  9.10500e-09      330056.
       1026.0000  9.10500e-09      330056.
       1026.1000  9.10500e-09      330056.
       1026.2000  9.10500e-09      329965.
       1026.3000  9.07250e-09      328787.
       1026.4000  9.07250e-09      328697.
       1026.5000  7.72372e-09      279830.
       1026.6000  7.72372e-09      279753.
       1026.7000  7.72372e-09      279676.
       1026.8000  7.72372e-09      279676.
       1026.9000  7.72372e-09      279599.
       1027.0000  7.72372e-09      279599.
       1027.1000  7.72372e-09      279521.
       1027.2000  7.72372e-09      279444.
       1027.3000  7.72372e-09      279444.
       1027.4000  7.72372e-09      279367.
       1027.5000  6.03830e-09      218345.
       1027.6000  6.03830e-09      218345.
       1027.7000  6.03830e-09      218285.
       1027.8000  6.03830e-09      218224.
       1027.9000  6.03830e-09      218164.
       1028.0000  6.03830e-09      218104.
       1028.1000  6.03830e-09      218104.
       1028.2000  6.03830e-09      218043.
       1028.3000  6.03830e-09      217983.
       1028.4000  6.03830e-09      217922.
       1028.5000  5.27191e-09      190210.
       1028.6000  5.27191e-09      190158.
       1028.7000  5.27191e-09      190105.
       1028.8000  5.27345e-09      190108.
       1028.9000  5.27345e-09      190055.
       1029.0000  5.27345e-09      190002.
       1029.1000  5.27345e-09      189950.
       1029.2000  5.27345e-09      189897.
       1029.3000  5.27345e-09      189844.
       1029.4000  5.27345e-09      189792.
       1029.5000  2.99242e-09      107667.
       1029.6000  2.99242e-09      107637.
       1029.7000  2.99242e-09      107607.
       1029.8000  2.99242e-09      107577.
       1029.9000  2.99242e-09      107547.
       1030.0000  2.99242e-09      107488.
       1030.1000  2.99242e-09      107518.
       1030.2000  2.99242e-09      107518.
       1030.3000  2.99242e-09      107518.
       1030.4000  2.99242e-09      107518.
       1030.5000  2.70771e-09      97288.1
       1030.6000  2.70771e-09      97288.1
       1030.7000  2.70771e-09      97261.0
       1030.8000  2.70771e-09      97261.0
       1030.9000  2.70771e-09      97261.0
       1031.0000  2.70771e-09      97233.9
       1031.1000  2.70771e-09      97233.9
       1031.2000  2.70771e-09      97206.8
       1031.3000  2.70849e-09      97234.9
       1031.4000  2.70849e-09      97207.8
       1031.5000  2.01571e-09      72323.9
       1031.6000  2.01571e-09      72303.7
       1031.7000  2.01571e-09      72283.5
       1031.8000  2.01571e-09      72263.4
       1031.9000  2.01571e-09      72243.2
       1032.0000  2.01571e-09      72223.1
       1032.1000  2.01571e-09      72162.6
       1032.2000  2.01571e-09      72082.0
       1032.3000  2.01571e-09      72021.5
       1032.4000  2.01571e-09      71981.2
       1032.5000  1.71617e-09      61233.0
       1032.6000  1.71617e-09      61181.5
       1032.7000  1.71617e-09      61147.2
       1032.8000  1.71617e-09      61095.7
       1032.9000  1.71617e-09      61061.4
       1033.0000  1.71617e-09      61027.0
       1033.1000  1.71617e-09      60992.7
       1033.2000  1.71617e-09      60975.6
       1033.3000  1.71617e-09      60941.2
       1033.4000  1.71617e-09      60924.1
       1033.5000  1.28817e-09      45704.2
       1033.6000  1.28817e-09      45691.4
       1033.7000  1.28817e-09      45678.5
       1033.8000  1.29002e-09      45731.4
       1033.9000  1.29002e-09      45731.4
       1034.0000  1.29002e-09      45718.5
       1034.1000  1.29002e-09      45718.5
       1034.2000  1.29002e-09      45705.6
       1034.3000  1.29002e-09      45705.6
       1034.4000  1.29002e-09      45705.6
       1034.5000  1.12740e-09      39943.7
       1034.6000  1.12740e-09      39955.0
       1034.7000  1.12740e-09      39955.0
       1034.8000  1.12740e-09      39966.2
       1034.9000  1.12740e-09      39966.2
       1035.0000  1.12740e-09      39977.5
       1035.1000  1.12740e-09      39988.8
       1035.2000  1.12740e-09      40000.1
       1035.3000  1.12740e-09      40022.6
       1035.4000  1.12740e-09      40033.9
       1035.5000  9.40330e-10      33409.9
       1035.6000  9.40330e-10      33428.7
       1035.7000  9.40330e-10      33438.1
       1035.8000  9.40330e-10      33456.9
       1035.9000  9.40330e-10      33485.1
       1036.0000  9.40330e-10      33504.0
       1036.1000  9.40330e-10      33485.1
       1036.2000  9.40330e-10      33466.3
       1036.3000  9.38775e-10      33392.2
       1036.4000  9.38775e-10      33373.5
       1036.5000  6.70428e-10      23820.3
       1036.6000  6.70428e-10      23806.9
       1036.7000  6.70428e-10      23800.2
       1036.8000  6.70428e-10      23786.8
       1036.9000  6.70428e-10      23773.4
       1037.0000  6.70428e-10      23766.7
       1037.1000  6.70428e-10      23760.0
       1037.2000  6.70428e-10      23746.6
       1037.3000  6.70428e-10      23739.9
       1037.4000  6.70428e-10      23733.1
       1037.5000  5.72785e-10      20270.8
       1037.6000  5.72785e-10      20265.1
       1037.7000  5.72785e-10      20259.4
       1037.8000  5.72785e-10      20253.7
       1037.9000  5.72785e-10      20247.9
       1038.0000  5.72785e-10      20242.2
       1038.1000  5.72785e-10      20242.2
       1038.2000  5.72785e-10      20242.2
       1038.3000  5.72785e-10      20247.9
       1038.4000  5.72785e-10      20247.9
       1038.5000  3.79228e-10      13405.7
       1038.6000  3.79228e-10      13405.7
       1038.7000  3.79228e-10      13405.7
       1038.8000  3.78395e-10      13376.3
       1038.9000  3.78395e-10      13376.3
       1039.0000  3.78395e-10      13376.3
       1039.1000  3.78395e-10      13376.3
       1039.2000  3.78395e-10      13376.3
       1039.3000  3.78395e-10      13376.3
       1039.4000  3.78395e-10      13376.3
       1039.5000  2.72053e-10      9617.09
       1039.6000  2.72053e-10      9617.09
       1039.7000  2.72053e-10      9617.09
       1039.8000  2.72053e-10      9617.09
       1039.9000  2.72053e-10      9617.09
       1040.0000  2.72053e-10      9617.09
       1040.1000  2.72053e-10      9617.09
       1040.2000  2.72053e-10      9617.09
       1040.3000  2.72053e-10      9617.09
       1040.4000  2.72053e-10      9617.09
       1040.5000  3.01292e-10      10650.7
       1040.6000  3.01292e-10      10650.7
       1040.7000  3.01292e-10      10650.7
       1040.8000  3.01292e-10      10650.7
       1040.9000  3.01292e-10      10650.7
       1041.0000  3.01292e-10      10650.7
       1041.1000  3.01292e-10      10650.7
       1041.2000  3.01292e-10      10650.7
       1041.3000  3.01181e-10      10646.7
       1041.4000  3.01181e-10      10646.7
       1041.5000  2.17233e-10      7679.18
       1041.6000  2.17233e-10      7679.18
       1041.7000  2.17233e-10      7679.18
       1041.8000  2.17233e-10      7677.01
       1041.9000  2.17233e-10      7677.01
       1042.0000  2.17233e-10      7677.01
       1042.1000  2.17233e-10      7679.18
       1042.2000  2.17233e-10      7679.18
       1042.3000  2.17233e-10      7681.35
       1042.4000  2.17233e-10      7681.35
       1042.5000  1.68344e-10      5952.63
       1042.6000  1.68344e-10      5952.63
       1042.7000  1.68344e-10      5952.63
       1042.8000  1.68344e-10      5950.94
       1042.9000  1.68344e-10      5950.94
       1043.0000  1.68344e-10      5950.94
       1043.1000  1.68344e-10      5949.26
       1043.2000  1.68344e-10      5947.58
       1043.3000  1.68344e-10      5947.58
       1043.4000  1.68344e-10      5945.89
       1043.5000  1.38922e-10      4905.33
       1043.6000  1.38922e-10      4903.95
       1043.7000  1.38922e-10      4902.56
       1043.8000  1.39355e-10      4915.04
       1043.9000  1.39355e-10      4913.65
       1044.0000  1.39355e-10      4910.86
       1044.1000  1.39355e-10      4905.29
       1044.2000  1.39355e-10      4898.32
       1044.3000  1.39355e-10      4892.75
       1044.4000  1.39355e-10      4887.17
       1044.5000  1.07127e-10      3752.67
       1044.6000  1.07127e-10      3749.46
       1044.7000  1.07127e-10      3745.17
       1044.8000  1.07127e-10      3741.96
       1044.9000  1.07127e-10      3738.75
       1045.0000  1.07127e-10      3735.53
       1045.1000  1.07127e-10      3733.39
       1045.2000  1.07127e-10      3730.18
       1045.3000  1.07127e-10      3728.03
       1045.4000  1.07127e-10      3725.89
       1045.5000  1.01530e-10      3530.21
       1045.6000  1.01530e-10      3528.17
       1045.7000  1.01530e-10      3527.16
       1045.8000  1.01530e-10      3526.14
       1045.9000  1.01530e-10      3525.13
       1046.0000  1.01530e-10      3524.11
       1046.1000  1.01530e-10      3524.11
       1046.2000  1.01530e-10      3523.10
       1046.3000  1.01782e-10      3531.84
       1046.4000  1.01782e-10      3531.84
       1046.5000  7.19332e-11      2496.80
       1046.6000  7.19332e-11      2496.80
       1046.7000  7.19332e-11      2497.52
       1046.8000  7.19332e-11      2498.24
       1046.9000  7.19332e-11      2498.96
       1047.0000  7.19332e-11      2500.40
       1047.1000  7.19332e-11      2501.12
       1047.2000  7.19332e-11      2502.56
       1047.3000  7.19332e-11      2504.00
       1047.4000  7.19332e-11      2505.43
       1047.5000  6.63222e-11      2311.99
       1047.6000  6.63222e-11      2313.32
       1047.7000  6.63222e-11      2315.31
       1047.8000  6.63222e-11      2317.30
       1047.9000  6.63222e-11      2319.29
       1048.0000  6.63222e-11      2321.94
       1048.1000  6.63222e-11      2321.94
       1048.2000  6.63222e-11      2321.94
       1048.3000  6.63222e-11      2321.94
       1048.4000  6.63222e-11      2321.28
       1048.5000  7.10820e-11      2487.87
       1048.6000  7.10820e-11      2487.87
       1048.7000  7.10820e-11      2487.87
       1048.8000  7.10652e-11      2487.28
       1048.9000  7.10652e-11      2487.28
       1049.0000  7.10652e-11      2486.57
       1049.1000  7.10652e-11      2486.57
       1049.2000  7.10652e-11      2486.57
       1049.3000  7.10652e-11      2485.86
       1049.4000  7.10652e-11      2485.86
       1049.5000  4.18749e-11      1464.78
       1049.6000  4.18749e-11      1464.37
       1049.7000  4.18749e-11      1464.37
       1049.8000  4.18749e-11      1464.37
       1049.9000  4.18749e-11      1463.95
       1050.0000  4.18749e-11      1463.95
       1050.1000  4.18749e-11      1463.53
       1050.2000  4.18749e-11      1463.53
       1050.3000  4.18749e-11      1463.11
       1050.4000  4.18749e-11      1462.69
       1050.5000  2.85240e-11      996.345
       1050.6000  2.85240e-11      996.060
       1050.7000  2.85240e-11      996.060
       1050.8000  2.85240e-11      995.774
       1050.9000  2.85240e-11      995.489
       1051.0000  2.85240e-11      995.489
       1051.1000  2.85240e-11      995.204
       1051.2000  2.85240e-11      995.204
       1051.3000  2.84179e-11      991.217
       1051.4000  2.84179e-11      990.933
       1051.5000  2.53673e-11      884.558
       1051.6000  2.53673e-11      884.304
       1051.7000  2.53673e-11      884.051
       1051.8000  2.53673e-11      884.051
       1051.9000  2.53673e-11      883.797
       1052.0000  2.53673e-11      883.797
       1052.1000  2.53673e-11      883.543
       1052.2000  2.53673e-11      883.290
       1052.3000  2.53673e-11      883.290
       1052.4000  2.53673e-11      883.036
       1052.5000  1.74031e-11      605.628
       1052.6000  1.74031e-11      605.628
       1052.7000  1.74031e-11      605.454
       1052.8000  1.74031e-11      605.279
       1052.9000  1.74031e-11      605.279
       1053.0000  1.74031e-11      605.105
       1053.1000  1.74031e-11      605.105
       1053.2000  1.74031e-11      604.931
       1053.3000  1.74031e-11      604.757
       1053.4000  1.74031e-11      604.757
       1053.5000  1.54911e-11      538.161
       1053.6000  1.54911e-11      538.006
       1053.7000  1.54911e-11      538.006
       1053.8000  1.53862e-11      534.207
       1053.9000  1.53862e-11      534.053
       1054.0000  1.53862e-11      534.053
       1054.1000  1.53862e-11      534.361
       1054.2000  1.53862e-11      534.515
       1054.3000  1.53862e-11      534.823
       1054.4000  1.53862e-11      535.130
       1054.5000  8.68461e-12      302.138
       1054.6000  8.68461e-12      302.224
       1054.7000  8.68461e-12      302.311
       1054.8000  8.68461e-12      302.398
       1054.9000  8.68461e-12      302.485
       1055.0000  8.68461e-12      302.572
       1055.1000  8.68461e-12      302.572
       1055.2000  8.68461e-12      302.572
       1055.3000  8.68461e-12      302.659
       1055.4000  8.68461e-12      302.659
       1055.5000  4.20759e-12      146.592
       1055.6000  4.20759e-12      146.592
       1055.7000  4.20759e-12      146.592
       1055.8000  4.20759e-12      146.550
       1055.9000  4.20759e-12      146.508
       1056.0000  4.20759e-12      146.466
       1056.1000  4.20759e-12      146.340
       1056.2000  4.20759e-12      146.214
       1056.3000  4.16493e-12      144.607
       1056.4000  4.16493e-12      144.440
       1056.5000  1.20438e-12      41.7318
       1056.6000  1.20438e-12      41.7077
       1056.7000  1.20438e-12      41.6716
       1056.8000  1.20438e-12      41.6354
       1056.9000  1.20438e-12      41.5993
       1057.0000  1.20438e-12      41.5752
