PDS_VERSION_ID         = PDS3
RECORD_TYPE            = STREAM
OBJECT                 = TEXT
  PUBLICATION_DATE     = 2014-04-25
  INTERCHANGE_FORMAT   = ASCII
  NOTE                 = "System transmission vs. wavelength."
END_OBJECT             = TEXT
END
    
The systrans directory contains the non-wavelength-integrated system 
transmission values (QE*optics*filter1*filter2) for each filter combination. 
The naming convention for these files is as follows:

<camera><filter 1><filter 2>_systrans.tab

where <camera> is "issna" or "isswa," and <filter 1> and <filter 2> represent
the filter names. For polarized filter combinations, values are given for the
parallel orientation of the filter (full transmission), with values for the 
perpendicular (blocking) orientation provided in files with subscript 
"_b_systrans.tab". 

Columns in systrans files are as follows:

 1st column: Wavelength (nm)  
 2nd column: Transmitted Flux
 3rd column: Transmitted Flux * Solar Flux (phot per cm^2-s-angstrom at 1 AU)

The solar spectrum used for this calculation is provided in solarflux.tab.

\begindata
       661.00000  1.30312e-06  6.80358e+07
       661.10000  1.16932e-06  6.10149e+07
       661.20000  1.03965e-06  5.42075e+07
       661.30000  9.15917e-07  4.77285e+07
       661.40000  8.10793e-07  4.22261e+07
       661.50000  7.15136e-07  3.72228e+07
       661.60000  6.34554e-07  3.30158e+07
       661.70000  5.67516e-07  2.95108e+07
       661.80000  5.01785e-07  2.60828e+07
       661.90000  3.96106e-07  2.05817e+07
       662.00000  3.50314e-07  1.81953e+07
       662.10000  3.10642e-07  1.61285e+07
       662.20000  2.79151e-07  1.44880e+07
       662.30000  2.51511e-07  1.30509e+07
       662.40000  2.23871e-07  1.16144e+07
       662.50000  3.32806e-07  1.72593e+07
       662.60000  2.96502e-07  1.53766e+07
       662.70000  2.65580e-07  1.37703e+07
       662.80000  2.16106e-07  1.12029e+07
       662.90000  1.94919e-07  1.01046e+07
       663.00000  1.75565e-07  9.10128e+06
       663.10000  1.57814e-07  8.18738e+06
       663.20000  1.42811e-07  7.41332e+06
       663.30000  1.29641e-07  6.73484e+06
       663.40000  1.18761e-07  6.17320e+06
       663.50000  8.57942e-08  4.46216e+06
       663.60000  7.78283e-08  4.05018e+06
       663.70000  6.40939e-08  3.33673e+06
       663.80000  5.90233e-08  3.07452e+06
       663.90000  5.39981e-08  2.81384e+06
       664.00000  4.96125e-08  2.58580e+06
       664.10000  4.54096e-08  2.36766e+06
       664.20000  4.13894e-08  2.15846e+06
       664.30000  3.77347e-08  1.96824e+06
       664.40000  3.49937e-08  1.82562e+06
       664.50000  3.21406e-08  1.67678e+06
       664.60000  2.73013e-08  1.42431e+06
       664.70000  2.48359e-08  1.29569e+06
       664.80000  2.28272e-08  1.19089e+06
       664.90000  2.15488e-08  1.12420e+06
       665.00000  1.98140e-08  1.03350e+06
       665.10000  1.84443e-08      961872.
       665.20000  1.68921e-08      880754.
       665.30000  1.58877e-08      828067.
       665.40000  1.45181e-08      756392.
       665.50000  6.47892e-09      337422.
       665.60000  5.97703e-09      311164.
       665.70000  5.61202e-09      291994.
       665.80000  5.11014e-09      265778.
       665.90000  4.69950e-09      244280.
       666.00000  4.38012e-09      227503.
       666.10000  4.19761e-09      217898.
       666.20000  3.92385e-09      203530.
       666.30000  3.64093e-09      188709.
       666.40000  3.18581e-09      164993.
       666.50000  4.24901e-10      21984.4
       666.60000  4.31754e-10      22317.4
       666.70000  3.76928e-10      19464.6
       666.80000  3.76928e-10      19445.7
       666.90000  3.35809e-10      17307.6
       667.00000  3.22102e-10      16581.8
       667.10000  2.67276e-10      13775.4
       667.20000  2.94689e-10      15203.0
       667.30000  2.53570e-10      13094.3
       667.40000  2.19304e-10      11335.8
       667.50000  2.31823e-09      119945.
       667.60000  1.90913e-09      98854.9
       667.70000  1.97732e-09      102465.
       667.80000  1.84095e-09      95453.2
       667.90000  1.77277e-09      91971.1
       668.00000  1.56822e-09      81406.1
       668.10000  1.50003e-09      77911.7
       668.20000  1.22730e-09      63770.5
       668.30000  1.29548e-09      67339.2
       668.40000  1.15912e-09      60262.5
       668.50000  9.52284e-11      4951.87
       668.60000  7.84234e-11      4078.80
       668.70000  8.40250e-11      4370.14
       668.80000  8.38876e-11      4362.99
       668.90000  8.38876e-11      4362.99
       669.00000  5.59250e-11      2908.10
       669.10000  7.27026e-11      3775.44
       669.20000  6.15176e-11      3190.30
       669.30000  5.59250e-11      2896.92
       669.40000  5.03325e-11      2604.21
       669.50000  2.05074e-10      10598.2
       669.60000  1.86431e-10      9623.57
       669.70000  2.05074e-10      10575.7
       669.80000  1.49145e-10      7683.94
       669.90000  1.49145e-10      7676.48
       670.00000  1.30502e-10      6711.71
       670.10000  1.67788e-10      8622.62
       670.20000  1.30502e-10      6701.26
       670.30000  1.30502e-10      6696.04
       670.40000  1.11859e-10      5736.11
       670.50000  1.35888e-10      6964.26
       670.60000  9.05920e-11      4640.12
       670.70000  1.58536e-10      8117.04
       670.80000  9.05920e-11      4636.50
       670.90000  9.05920e-11      4634.69
       671.00000  4.52960e-11      2316.89
       671.10000  9.05920e-11      4631.97
       671.20000  1.32230e-11      676.093
       671.30000  1.13244e-10      5789.05
       671.40000  4.52977e-11      2315.62
       671.50000  1.35809e-10      6942.56
       671.60000  2.71618e-10      13885.1
       671.70000  5.71709e-11      2922.58
       671.80000  4.84255e-11      2475.99
       671.90000  2.03714e-10      10417.9
       672.00000  1.72545e-11      882.743
       672.10000  2.03714e-10      10426.1
       672.20000  1.35809e-10      6953.43
       672.30000  1.35809e-10      6956.14
       672.40000  2.03714e-10      10440.3
       672.50000  1.41593e-11      726.090
       672.60000  4.00349e-11      2054.19
       672.70000  2.00174e-11      1027.69
       672.80000  1.15971e-11      595.859
       672.90000  4.00349e-11      2058.59
       673.00000  6.43400e-12      331.158
       673.10000  1.82040e-11      936.598
       673.20000  9.04547e-12      465.209
       673.30000  1.30339e-11      670.075
       673.40000  1.43477e-11      737.471
       673.50000  5.09322e-13      26.1690
       673.60000  2.76296e-12      141.933
       673.70000  1.15984e-11      595.691
       673.80000  5.00166e-13      25.6785
       673.90000  7.73532e-12      397.054
       674.00000  3.28446e-12      168.558
       674.10000  3.28446e-12      168.525
       674.20000  3.28446e-12      168.493
       674.30000  3.28446e-12      168.460
       674.40000  3.28446e-12      168.427
       674.50000  5.42430e-10      27810.4
       674.60000  5.42430e-10      27810.4
       674.70000  5.42430e-10      27805.0
       674.80000  5.42430e-10      27805.0
       674.90000  5.42430e-10      27799.6
       675.00000  5.42430e-10      27799.6
       675.10000  5.42430e-10      27805.0
       675.20000  5.42430e-10      27810.4
       675.30000  5.42430e-10      27815.8
       675.40000  5.42430e-10      27821.2
       675.50000  4.74333e-10      24328.5
       675.60000  4.74333e-10      24333.3
       675.70000  4.74333e-10      24338.0
       675.80000  4.74333e-10      24338.0
       675.90000  4.74333e-10      24342.7
       676.00000  4.74333e-10      24342.7
       676.10000  4.74333e-10      24347.5
       676.20000  4.74333e-10      24347.5
       676.30000  4.73849e-10      24322.7
       676.40000  4.73849e-10      24322.7
       676.50000  6.31407e-10      32416.4
       676.60000  6.31407e-10      32416.4
       676.70000  6.31407e-10      32416.4
       676.80000  6.31407e-10      32410.1
       676.90000  6.31407e-10      32410.1
       677.00000  6.31407e-10      32410.1
       677.10000  6.31407e-10      32410.1
       677.20000  6.31407e-10      32403.8
       677.30000  6.31407e-10      32403.8
       677.40000  6.31407e-10      32397.5
       677.50000  4.73261e-10      24283.0
       677.60000  4.73261e-10      24278.3
       677.70000  4.73261e-10      24278.3
       677.80000  4.73261e-10      24273.6
       677.90000  4.73261e-10      24268.8
       678.00000  4.73261e-10      24264.1
       678.10000  4.73261e-10      24259.4
       678.20000  4.73261e-10      24254.6
       678.30000  4.73261e-10      24249.9
       678.40000  4.73261e-10      24245.2
       678.50000  5.83964e-12      299.048
       678.60000  5.83964e-12      298.989
       678.70000  5.83964e-12      298.931
       678.80000  5.83920e-12      298.792
       678.90000  5.83920e-12      298.733
       679.00000  5.83920e-12      298.616
       679.10000  5.83920e-12      298.616
       679.20000  5.83920e-12      298.675
       679.30000  5.83920e-12      298.675
       679.40000  5.83920e-12      298.675
       679.50000  2.70071e-10      13814.2
       679.60000  2.70071e-10      13814.2
       679.70000  2.70071e-10      13814.2
       679.80000  2.70071e-10      13814.2
       679.90000  2.70071e-10      13814.2
       680.00000  2.70071e-10      13811.5
       680.10000  2.70071e-10      13811.5
       680.20000  2.70071e-10      13811.5
       680.30000  2.70071e-10      13808.8
       680.40000  2.70071e-10      13808.8
       680.50000  2.70018e-10      13803.3
       680.60000  2.70018e-10      13803.3
       680.70000  2.70018e-10      13800.6
       680.80000  2.70018e-10      13797.9
       680.90000  2.70018e-10      13795.2
       681.00000  2.70018e-10      13795.2
       681.10000  2.70018e-10      13792.5
       681.20000  2.70018e-10      13789.8
       681.30000  2.69993e-10      13788.5
       681.40000  2.69993e-10      13785.8
       681.50000  6.75115e-10      34464.6
       681.60000  6.75115e-10      34457.9
       681.70000  6.75115e-10      34451.1
       681.80000  6.75115e-10      34437.6
       681.90000  6.75115e-10      34430.9
       682.00000  6.75115e-10      34424.1
       682.10000  6.75115e-10      34410.6
       682.20000  6.75115e-10      34397.1
       682.30000  6.75115e-10      34390.4
       682.40000  6.75115e-10      34376.9
       682.50000  2.70099e-10      13748.1
       682.60000  2.70099e-10      13742.7
       682.70000  2.70099e-10      13737.3
       682.80000  2.70099e-10      13731.9
       682.90000  2.70099e-10      13723.7
       683.00000  2.70099e-10      13718.3
       683.10000  2.70099e-10      13712.9
       683.20000  2.70099e-10      13704.8
       683.30000  2.70099e-10      13696.7
       683.40000  2.70099e-10      13688.6
       683.50000  2.70153e-10      13685.9
       683.60000  2.70153e-10      13677.8
       683.70000  2.70153e-10      13669.7
       683.80000  2.69946e-10      13648.5
       683.90000  2.69946e-10      13640.4
       684.00000  2.69946e-10      13632.3
       684.10000  2.69946e-10      13621.5
       684.20000  2.69946e-10      13613.4
       684.30000  2.69946e-10      13602.6
       684.40000  2.69946e-10      13594.5
       684.50000  5.39998e-10      27172.7
       684.60000  5.39998e-10      27151.1
       684.70000  5.39998e-10      27129.5
       684.80000  5.39998e-10      27107.9
       684.90000  5.39998e-10      27080.9
       685.00000  5.39998e-10      27059.3
       685.10000  5.39998e-10      27080.9
       685.20000  5.39998e-10      27107.9
       685.30000  5.39998e-10      27129.5
       685.40000  5.39998e-10      27145.7
       685.50000  5.40105e-10      27172.7
       685.60000  5.40105e-10      27194.3
       685.70000  5.40105e-10      27210.5
       685.80000  5.40105e-10      27226.7
       685.90000  5.40105e-10      27242.9
       686.00000  5.40105e-10      27259.1
       686.10000  5.40105e-10      27275.3
       686.20000  5.40105e-10      27286.1
       686.30000  5.39537e-10      27273.6
       686.40000  5.39537e-10      27284.4
       686.50000  2.69822e-10      13650.3
       686.60000  2.69822e-10      13655.7
       686.70000  2.69822e-10      13661.1
       686.80000  2.69822e-10      13663.8
       686.90000  2.69822e-10      13669.2
       687.00000  2.69822e-10      13671.9
       687.10000  2.69822e-10      13674.6
       687.20000  2.69822e-10      13674.6
       687.30000  2.69822e-10      13674.6
       687.40000  2.69822e-10      13674.6
       687.50000  1.29729e-10      6574.67
       687.60000  1.29729e-10      6574.67
       687.70000  1.29729e-10      6574.67
       687.80000  1.29729e-10      6574.67
       687.90000  1.29729e-10      6574.67
       688.00000  1.29729e-10      6573.37
       688.10000  1.29729e-10      6573.37
       688.20000  1.29729e-10      6573.37
       688.30000  1.29729e-10      6572.07
       688.40000  1.29729e-10      6572.07
       688.50000  6.74822e-10      34179.7
       688.60000  6.74822e-10      34173.0
       688.70000  6.74822e-10      34173.0
       688.80000  6.73961e-10      34122.6
       688.90000  6.73961e-10      34115.9
       689.00000  6.73961e-10      34109.2
       689.10000  6.73961e-10      34102.4
       689.20000  6.73961e-10      34095.7
       689.30000  6.73961e-10      34088.9
       689.40000  6.73961e-10      34082.2
       689.50000  2.69638e-10      13632.9
       689.60000  2.69638e-10      13630.2
       689.70000  2.69638e-10      13624.8
       689.80000  2.69638e-10      13622.1
       689.90000  2.69638e-10      13619.4
       690.00000  2.69638e-10      13614.0
       690.10000  2.69638e-10      13608.6
       690.20000  2.69638e-10      13605.9
       690.30000  2.69638e-10      13600.5
       690.40000  2.69638e-10      13595.1
       690.50000  4.04536e-10      20392.7
       690.60000  4.04536e-10      20384.6
       690.70000  4.04536e-10      20376.5
       690.80000  4.04536e-10      20368.4
       690.90000  4.04536e-10      20360.3
       691.00000  4.04536e-10      20352.2
       691.10000  4.04536e-10      20360.3
       691.20000  4.04536e-10      20364.3
       691.30000  4.04150e-10      20353.0
       691.40000  4.04150e-10      20357.0
       691.50000  4.04241e-10      20365.7
       691.60000  4.04241e-10      20373.7
       691.70000  4.04241e-10      20377.8
       691.80000  4.04241e-10      20381.8
       691.90000  4.04241e-10      20385.9
       692.00000  4.04241e-10      20385.9
       692.10000  4.04241e-10      20389.9
       692.20000  4.04241e-10      20394.0
       692.30000  4.04241e-10      20394.0
       692.40000  4.04241e-10      20394.0
       692.50000  4.04321e-10      20402.0
       692.60000  4.04321e-10      20402.0
       692.70000  4.04321e-10      20402.0
       692.80000  4.04321e-10      20402.0
       692.90000  4.04321e-10      20402.0
       693.00000  4.04321e-10      20398.0
       693.10000  4.04321e-10      20398.0
       693.20000  4.04321e-10      20393.9
       693.30000  4.04321e-10      20389.9
       693.40000  4.04321e-10      20385.9
       693.50000  4.04401e-10      20385.8
       693.60000  4.04401e-10      20381.8
       693.70000  4.04401e-10      20377.7
       693.80000  4.02796e-10      20292.9
       693.90000  4.02796e-10      20284.8
       694.00000  4.02796e-10      20280.8
       694.10000  4.02796e-10      20276.8
       694.20000  4.02796e-10      20268.7
       694.30000  4.02796e-10      20264.7
       694.40000  4.02796e-10      20256.6
       694.50000  2.68584e-10      13501.7
       694.60000  2.68584e-10      13499.0
       694.70000  2.68584e-10      13493.6
       694.80000  2.68584e-10      13488.3
       694.90000  2.68584e-10      13482.9
       695.00000  2.68584e-10      13477.5
       695.10000  2.68584e-10      13472.2
       695.20000  2.68584e-10      13466.8
       695.30000  2.68584e-10      13458.7
       695.40000  2.68584e-10      13453.4
       695.50000  5.37273e-10      26901.3
       695.60000  5.37273e-10      26885.2
       695.70000  5.37273e-10      26874.4
       695.80000  5.37273e-10      26858.3
       695.90000  5.37273e-10      26842.2
       696.00000  5.37273e-10      26831.4
       696.10000  5.37273e-10      26815.3
       696.20000  5.37273e-10      26799.2
       696.30000  5.36746e-10      26756.8
       696.40000  5.36746e-10      26740.7
       696.50000  2.68426e-10      13364.9
       696.60000  2.68426e-10      13356.9
       696.70000  2.68426e-10      13346.1
       696.80000  2.68426e-10      13338.1
       696.90000  2.68426e-10      13330.0
       697.00000  2.68426e-10      13319.3
       697.10000  2.68426e-10      13338.1
       697.20000  2.68426e-10      13351.5
       697.30000  2.68426e-10      13367.6
       697.40000  2.68426e-10      13381.0
       697.50000  8.05436e-10      40191.3
       697.60000  8.05436e-10      40223.5
       697.70000  8.05436e-10      40255.7
       697.80000  8.05436e-10      40279.9
       697.90000  8.05436e-10      40304.0
       698.00000  8.05436e-10      40320.1
       698.10000  8.05436e-10      40336.2
       698.20000  8.05436e-10      40352.4
       698.30000  8.05436e-10      40360.4
       698.40000  8.05436e-10      40368.5
       698.50000  8.05595e-10      40384.5
       698.60000  8.05595e-10      40384.5
       698.70000  8.05595e-10      40376.4
       698.80000  8.04220e-10      40299.5
       698.90000  8.04220e-10      40291.4
       699.00000  8.04220e-10      40275.3
       699.10000  8.04220e-10      40203.0
       699.20000  8.04220e-10      40122.5
       699.30000  8.04220e-10      40058.2
       699.40000  8.04220e-10      39985.8
       699.50000  2.68126e-10      13309.8
       699.60000  2.68126e-10      13288.3
       699.70000  2.68126e-10      13269.6
       699.80000  2.68126e-10      13250.8
       699.90000  2.68126e-10      13232.0
       700.00000  2.68126e-10      13215.9
       700.10000  2.68126e-10      13199.8
       700.20000  2.68126e-10      13183.8
       700.30000  2.68126e-10      13170.4
       700.40000  2.68126e-10      13156.9
       700.50000  4.02268e-10      19719.2
       700.60000  4.02268e-10      19703.1
       700.70000  4.02268e-10      19687.0
       700.80000  4.02268e-10      19674.9
       700.90000  4.02268e-10      19662.9
       701.00000  4.02268e-10      19650.8
       701.10000  4.02268e-10      19646.8
       701.20000  4.02268e-10      19642.8
       701.30000  4.01994e-10      19625.3
       701.40000  4.01994e-10      19625.3
       701.50000  3.35061e-10      16357.7
       701.60000  3.35061e-10      16357.7
       701.70000  3.35061e-10      16357.7
       701.80000  3.35061e-10      16361.0
       701.90000  3.35061e-10      16361.0
       702.00000  3.35061e-10      16364.4
       702.10000  3.35061e-10      16371.1
       702.20000  3.35061e-10      16374.4
       702.30000  3.35061e-10      16381.1
       702.40000  3.35061e-10      16384.5
       702.50000  4.46848e-10      21859.8
       702.60000  4.46848e-10      21873.2
       702.70000  4.46848e-10      21882.2
       702.80000  4.46848e-10      21895.6
       702.90000  4.46848e-10      21909.0
       703.00000  4.46848e-10      21922.4
       703.10000  4.46848e-10      21962.6
       703.20000  4.46848e-10      22002.8
       703.30000  4.46848e-10      22038.6
       703.40000  4.46848e-10      22074.3
       703.50000  4.46936e-10      22109.9
       703.60000  4.46936e-10      22145.7
       703.70000  4.46936e-10      22172.5
       703.80000  4.45733e-10      22144.0
       703.90000  4.45733e-10      22170.8
       704.00000  4.45733e-10      22193.1
       704.10000  4.45733e-10      22219.8
       704.20000  4.45733e-10      22242.1
       704.30000  4.45733e-10      22259.9
       704.40000  4.45733e-10      22277.8
       704.50000  5.93566e-11      2969.02
       704.60000  5.93566e-11      2971.39
       704.70000  5.93566e-11      2973.17
       704.80000  5.93566e-11      2974.36
       704.90000  5.93566e-11      2976.14
       705.00000  5.93566e-11      2977.33
       705.10000  5.93566e-11      2977.92
       705.20000  5.93566e-11      2978.52
       705.30000  5.93566e-11      2979.11
       705.40000  5.93566e-11      2979.70
       705.50000  3.34432e-10      16788.5
       705.60000  3.34432e-10      16788.5
       705.70000  3.34432e-10      16785.1
       705.80000  3.34432e-10      16781.8
       705.90000  3.34432e-10      16778.4
       706.00000  3.34432e-10      16771.7
       706.10000  3.34432e-10      16765.1
       706.20000  3.34432e-10      16755.0
       706.30000  3.34683e-10      16757.6
       706.40000  3.34683e-10      16747.5
       706.50000  5.57915e-10      27895.7
       706.60000  5.57915e-10      27873.4
       706.70000  5.57915e-10      27851.1
       706.80000  5.57915e-10      27823.2
       706.90000  5.57915e-10      27795.3
       707.00000  5.57915e-10      27767.4
       707.10000  5.57915e-10      27745.1
       707.20000  5.57915e-10      27728.4
       707.30000  5.57915e-10      27706.0
       707.40000  5.57915e-10      27689.3
       707.50000  3.34815e-10      16606.8
       707.60000  3.34815e-10      16596.8
       707.70000  3.34815e-10      16590.1
       707.80000  3.34815e-10      16580.0
       707.90000  3.34815e-10      16573.3
       708.00000  3.34815e-10      16566.6
       708.10000  3.34815e-10      16559.9
       708.20000  3.34815e-10      16553.2
       708.30000  3.34815e-10      16546.5
       708.40000  3.34815e-10      16539.8
       708.50000  8.93015e-11      4410.60
       708.60000  8.93015e-11      4408.81
       708.70000  8.93015e-11      4407.92
       708.80000  8.89974e-11      4392.02
       708.90000  8.89974e-11      4391.13
       709.00000  8.89974e-11      4391.13
       709.10000  8.89974e-11      4392.91
       709.20000  8.89974e-11      4394.69
       709.30000  8.89974e-11      4395.58
       709.40000  8.89974e-11      4397.36
       709.50000  1.33522e-10      6598.68
       709.60000  1.33522e-10      6601.35
       709.70000  1.33522e-10      6602.68
       709.80000  1.33522e-10      6604.02
       709.90000  1.33522e-10      6605.35
       710.00000  1.33522e-10      6606.69
       710.10000  1.33522e-10      6608.02
       710.20000  1.33522e-10      6609.36
       710.30000  1.33522e-10      6609.36
       710.40000  1.33522e-10      6610.69
       710.50000  1.33549e-10      6611.99
       710.60000  1.33549e-10      6611.99
       710.70000  1.33549e-10      6611.99
       710.80000  1.33549e-10      6611.99
       710.90000  1.33549e-10      6611.99
       711.00000  1.33549e-10      6611.99
       711.10000  1.33549e-10      6611.99
       711.20000  1.33549e-10      6610.66
       711.30000  1.33578e-10      6612.09
       711.40000  1.33578e-10      6610.75
       711.50000  1.11336e-10      5508.93
       711.60000  1.11336e-10      5507.82
       711.70000  1.11336e-10      5506.70
       711.80000  1.11336e-10      5505.59
       711.90000  1.11336e-10      5504.48
       712.00000  1.11336e-10      5502.25
       712.10000  1.11336e-10      5501.14
       712.20000  1.11336e-10      5498.91
       712.30000  1.11336e-10      5497.79
       712.40000  1.11336e-10      5495.57
       712.50000  4.58017e-11      2259.86
       712.60000  4.58017e-11      2258.94
       712.70000  4.58017e-11      2257.57
       712.80000  4.58017e-11      2256.65
       712.90000  4.58017e-11      2255.73
       713.00000  4.58017e-11      2254.36
       713.10000  4.58017e-11      2254.36
       713.20000  4.58017e-11      2254.36
       713.30000  4.58017e-11      2254.36
       713.40000  4.58017e-11      2253.90
       713.50000  4.12270e-11      2028.78
       713.60000  4.12270e-11      2028.78
       713.70000  4.12270e-11      2028.37
       713.80000  4.12174e-11      2027.89
       713.90000  4.12174e-11      2027.48
       714.00000  4.12174e-11      2027.48
       714.10000  4.12174e-11      2027.07
       714.20000  4.12174e-11      2026.66
       714.30000  4.12174e-11      2026.66
       714.40000  4.12174e-11      2026.25
       714.50000  7.22584e-12      355.150
       714.60000  7.22584e-12      355.078
       714.70000  7.22584e-12      355.078
       714.80000  7.22584e-12      355.005
       714.90000  7.22584e-12      354.933
       715.00000  7.22584e-12      354.861
       715.10000  7.22584e-12      354.789
       715.20000  7.22584e-12      354.789
       715.30000  7.22584e-12      354.789
       715.40000  7.22584e-12      354.716
       715.50000  9.25008e-12      453.994
       715.60000  9.25008e-12      453.901
       715.70000  9.25008e-12      453.809
       715.80000  9.25008e-12      453.716
       715.90000  9.25008e-12      453.624
       716.00000  9.25008e-12      453.439
       716.10000  9.25008e-12      453.346
       716.20000  9.25008e-12      453.161
       716.30000  9.23674e-12      452.323
       716.40000  9.23674e-12      452.138
       716.50000  5.35608e-12      262.073
       716.60000  5.35608e-12      261.966
       716.70000  5.35608e-12      261.859
       716.80000  5.35608e-12      261.698
       716.90000  5.35608e-12      261.591
       717.00000  5.35608e-12      261.430
       717.10000  5.35608e-12      261.270
       717.20000  5.35608e-12      261.109
       717.30000  5.35608e-12      260.948
       717.40000  5.35608e-12      260.788
       717.50000  3.76045e-13      18.2983
       717.60000  3.76045e-13      18.2833
       717.70000  3.76045e-13      18.2720
       717.80000  3.76045e-13      18.2570
       717.90000  3.76045e-13      18.2419
       718.00000  3.76045e-13      18.2269
       718.10000  3.76045e-13      18.2118
       718.20000  3.76045e-13      18.1968
       718.30000  3.76045e-13      18.1818
       718.40000  3.76045e-13      18.1630
       718.50000  8.62078e-13      41.6039
       718.60000  8.62078e-13      41.5608
       718.70000  8.62078e-13      41.5177
       718.80000  8.58538e-13      41.3042
       718.90000  8.58538e-13      41.2613
       719.00000  8.58538e-13      41.2184
       719.10000  8.58538e-13      41.2184
       719.20000  8.58538e-13      41.2184
       719.30000  8.58538e-13      41.2184
       719.40000  8.58538e-13      41.2270
       719.50000  1.34331e-12      64.5057
       719.60000  1.34331e-12      64.5191
       719.70000  1.34331e-12      64.5191
       719.80000  1.34331e-12      64.5325
       719.90000  1.34331e-12      64.5460
       720.00000  1.34331e-12      64.5728
       720.10000  1.34331e-12      64.5863
       720.20000  1.34331e-12      64.5997
       720.30000  1.34331e-12      64.6266
       720.40000  1.34331e-12      64.6400
       720.50000  2.53489e-12      122.030
       720.60000  2.53489e-12      122.080
       720.70000  2.53489e-12      122.131
       720.80000  2.53489e-12      122.182
       720.90000  2.53489e-12      122.258
       721.00000  2.53489e-12      122.308
       721.10000  2.53489e-12      122.435
       721.20000  2.53489e-12      122.562
       721.30000  2.52973e-12      122.439
       721.40000  2.52973e-12      122.540
       721.50000  8.68306e-13      42.1041
       721.60000  8.68306e-13      42.1389
       721.70000  8.68306e-13      42.1736
       721.80000  8.68306e-13      42.2170
       721.90000  8.68306e-13      42.2518
       722.00000  8.68306e-13      42.2778
       722.10000  8.68306e-13      42.3125
       722.20000  8.68306e-13      42.3473
       722.30000  8.68306e-13      42.3733
       722.40000  8.68306e-13      42.3994
       722.50000  8.23258e-13      40.2244
       722.60000  8.23258e-13      40.2573
       722.70000  8.23258e-13      40.2738
       722.80000  8.23258e-13      40.2985
       722.90000  8.23258e-13      40.3232
       723.00000  8.23258e-13      40.3396
       723.10000  8.23258e-13      40.3643
       723.20000  8.23258e-13      40.3808
       723.30000  8.23258e-13      40.3973
       723.40000  8.23258e-13      40.4137
       723.50000  1.35597e-12      66.5917
       723.60000  1.35597e-12      66.6053
       723.70000  1.35597e-12      66.6324
       723.80000  1.35181e-12      66.4415
       723.90000  1.35181e-12      66.4550
       724.00000  1.35181e-12      66.4685
       724.10000  1.35181e-12      66.4820
       724.20000  1.35181e-12      66.4955
       724.30000  1.35181e-12      66.5090
       724.40000  1.35181e-12      66.5226
       724.50000  1.04392e-12      51.3715
       724.60000  1.04392e-12      51.3715
       724.70000  1.04392e-12      51.3715
       724.80000  1.04392e-12      51.3715
       724.90000  1.04392e-12      51.3715
       725.00000  1.04392e-12      51.3715
       725.10000  1.04392e-12      51.3924
       725.20000  1.04392e-12      51.4132
       725.30000  1.04392e-12      51.4237
       725.40000  1.04392e-12      51.4446
       725.50000  3.06274e-12      150.963
       725.60000  3.06274e-12      150.993
       725.70000  3.06274e-12      150.993
       725.80000  3.06274e-12      151.024
       725.90000  3.06274e-12      151.024
       726.00000  3.06274e-12      151.024
       726.10000  3.06274e-12      151.024
       726.20000  3.06274e-12      151.024
       726.30000  3.05477e-12      150.600
       726.40000  3.05477e-12      150.570
       726.50000  1.40708e-12      69.3409
       726.60000  1.40708e-12      69.3268
       726.70000  1.40708e-12      69.3128
       726.80000  1.40708e-12      69.2846
       726.90000  1.40708e-12      69.2565
       727.00000  1.40708e-12      69.2283
       727.10000  1.40708e-12      69.1298
       727.20000  1.40708e-12      69.0313
       727.30000  1.40708e-12      68.9328
       727.40000  1.40708e-12      68.8484
       727.50000  1.24497e-13      6.08418
       727.60000  1.24497e-13      6.07671
       727.70000  1.24497e-13      6.07049
       727.80000  1.24497e-13      6.06427
       727.90000  1.24497e-13      6.05804
       728.00000  1.24497e-13      6.05306
       728.10000  1.24497e-13      6.04808
       728.20000  1.24497e-13      6.04310
       728.30000  1.24497e-13      6.03812
       728.40000  1.24497e-13      6.03439
       728.50000  7.47737e-12      362.204
       728.60000  7.47737e-12      362.054
       728.70000  7.47737e-12      361.830
       728.80000  7.47894e-12      361.831
       728.90000  7.47894e-12      361.682
       729.00000  7.47894e-12      361.607
       729.10000  7.47894e-12      361.532
       729.20000  7.47894e-12      361.457
       729.30000  7.47894e-12      361.457
       729.40000  7.47894e-12      361.382
       729.50000  4.23129e-12      204.498
       729.60000  4.23129e-12      204.498
       729.70000  4.23129e-12      204.541
       729.80000  4.23129e-12      204.583
       729.90000  4.23129e-12      204.668
       730.00000  4.23129e-12      204.752
       730.10000  4.23129e-12      204.837
       730.20000  4.23129e-12      204.921
       730.30000  4.23129e-12      205.048
       730.40000  4.23129e-12      205.175
       730.50000  1.62904e-12      79.0412
       730.60000  1.62904e-12      79.1064
       730.70000  1.62904e-12      79.1715
       730.80000  1.62904e-12      79.2367
       730.90000  1.62904e-12      79.3181
       731.00000  1.62904e-12      79.3996
       731.10000  1.62904e-12      79.3833
       731.20000  1.62904e-12      79.3670
       731.30000  1.62784e-12      79.2923
       731.40000  1.62784e-12      79.2923
       731.50000  3.76478e-13      18.3345
       731.60000  3.76478e-13      18.3307
       731.70000  3.76478e-13      18.3270
       731.80000  3.76478e-13      18.3270
       731.90000  3.76478e-13      18.3232
       732.00000  3.76478e-13      18.3194
       732.10000  3.76478e-13      18.3157
       732.20000  3.76478e-13      18.3119
       732.30000  3.76478e-13      18.3119
       732.40000  3.76478e-13      18.3081
       732.50000  6.19687e-12      301.292
       732.60000  6.19687e-12      301.230
       732.70000  6.19687e-12      301.168
       732.80000  6.19687e-12      301.106
       732.90000  6.19687e-12      301.044
       733.00000  6.19687e-12      300.982
       733.10000  6.19687e-12      300.920
       733.20000  6.19687e-12      300.796
       733.30000  6.19687e-12      300.734
       733.40000  6.19687e-12      300.610
       733.50000  1.67472e-13      8.12237
       733.60000  1.67472e-13      8.12069
       733.70000  1.67472e-13      8.11734
       733.80000  1.67195e-13      8.10227
       733.90000  1.67195e-13      8.10059
       734.00000  1.67195e-13      8.09892
       734.10000  1.67195e-13      8.09725
       734.20000  1.67195e-13      8.09558
       734.30000  1.67195e-13      8.09391
       734.40000  1.67195e-13      8.09391
       734.50000  2.87552e-13      13.9175
       734.60000  2.87552e-13      13.9146
       734.70000  2.87552e-13      13.9146
       734.80000  2.87552e-13      13.9118
       734.90000  2.87552e-13      13.9118
       735.00000  2.87552e-13      13.9089
       735.10000  2.87552e-13      13.9089
       735.20000  2.87552e-13      13.9089
       735.30000  2.87552e-13      13.9089
       735.40000  2.87552e-13      13.9060
       735.50000  4.78554e-13      23.1429
       735.60000  4.78554e-13      23.1429
       735.70000  4.78554e-13      23.1429
       735.80000  4.78554e-13      23.1477
       735.90000  4.78554e-13      23.1477
       736.00000  4.78554e-13      23.1477
       736.10000  4.78554e-13      23.1477
       736.20000  4.78554e-13      23.1524
       736.30000  4.77640e-13      23.1082
       736.40000  4.77640e-13      23.1130
       736.50000  3.00891e-12      145.601
       736.60000  3.00891e-12      145.631
       736.70000  3.00891e-12      145.661
       736.80000  3.00891e-12      145.661
       736.90000  3.00891e-12      145.691
       737.00000  3.00891e-12      145.721
       737.10000  3.00891e-12      145.571
       737.20000  3.00891e-12      145.390
       737.30000  3.00891e-12      145.240
       737.40000  3.00891e-12      145.090
       737.50000  2.50527e-12      120.654
       737.60000  2.50527e-12      120.529
       737.70000  2.50527e-12      120.403
       737.80000  2.50527e-12      120.278
       737.90000  2.50527e-12      120.178
       738.00000  2.50527e-12      120.053
       738.10000  2.50527e-12      119.927
       738.20000  2.50527e-12      119.802
       738.30000  2.50527e-12      119.702
       738.40000  2.50527e-12      119.602
       738.50000  2.48858e-12      118.681
       738.60000  2.48858e-12      118.581
       738.70000  2.48858e-12      118.482
       738.80000  2.47813e-12      117.885
       738.90000  2.47813e-12      117.786
       739.00000  2.47813e-12      117.686
       741.00000  4.14922e-14      1.94474
       741.10000  4.14922e-14      1.94557
       741.20000  4.14922e-14      1.94640
       741.30000  4.14639e-14      1.94590
       741.40000  4.14639e-14      1.94715
       741.50000  2.50802e-13      11.7852
       741.60000  2.50802e-13      11.7952
       741.70000  2.50802e-13      11.8078
       741.80000  2.50802e-13      11.8178
       741.90000  2.50802e-13      11.8329
       742.00000  2.50802e-13      11.8454
       742.10000  2.50802e-13      11.8604
       742.20000  2.50802e-13      11.8780
       742.30000  2.50802e-13      11.8956
       742.40000  2.50802e-13      11.9131
       742.50000  6.44928e-12      306.857
       742.60000  6.44928e-12      307.373
       742.70000  6.44928e-12      307.953
       742.80000  6.44928e-12      308.534
       742.90000  6.44928e-12      309.178
       743.00000  6.44928e-12      309.823
       743.10000  6.44928e-12      309.694
       743.20000  6.44928e-12      309.630
       743.30000  6.44928e-12      309.565
       743.40000  6.44928e-12      309.436
       743.50000  1.37574e-12      65.9942
       743.60000  1.37574e-12      65.9805
       743.70000  1.37574e-12      65.9667
       743.80000  1.37513e-12      65.9235
       743.90000  1.37513e-12      65.9098
       744.00000  1.37513e-12      65.8960
       744.10000  1.37513e-12      65.8960
       744.20000  1.37513e-12      65.8823
       744.30000  1.37513e-12      65.8823
       744.40000  1.37513e-12      65.8823
       744.50000  8.13280e-13      38.9561
       744.60000  8.13280e-13      38.9561
       744.70000  8.13280e-13      38.9561
       744.80000  8.13280e-13      38.9561
       744.90000  8.13280e-13      38.9643
       745.00000  8.13280e-13      38.9643
       745.10000  8.13280e-13      38.9887
       745.20000  8.13280e-13      39.0131
       745.30000  8.13280e-13      39.0293
       745.40000  8.13280e-13      39.0537
       745.50000  1.22807e-12      58.9965
       745.60000  1.22807e-12      59.0210
       745.70000  1.22807e-12      59.0456
       745.80000  1.22807e-12      59.0701
       745.90000  1.22807e-12      59.0824
       746.00000  1.22807e-12      59.1070
       746.10000  1.22807e-12      59.1193
       746.20000  1.22807e-12      59.1315
       746.30000  1.22247e-12      58.8741
       746.40000  1.22247e-12      58.8863
       746.50000  1.59105e-11      766.566
       746.60000  1.59105e-11      766.566
       746.70000  1.59105e-11      766.725
       746.80000  1.59105e-11      766.725
       746.90000  1.59105e-11      766.725
       747.00000  1.59105e-11      766.725
       747.10000  1.59105e-11      766.248
       747.20000  1.59105e-11      765.930
       747.30000  1.59105e-11      765.612
       747.40000  1.59105e-11      765.294
       747.50000  1.10235e-12      53.0012
       747.60000  1.10235e-12      52.9791
       747.70000  1.10235e-12      52.9571
       747.80000  1.10235e-12      52.9350
       747.90000  1.10235e-12      52.9130
       748.00000  1.10235e-12      52.8909
       750.00000  4.14219e-13      19.7665
       750.10000  4.14219e-13      19.7624
       750.20000  4.14219e-13      19.7582
       750.30000  4.14219e-13      19.7541
       750.40000  4.14219e-13      19.7541
       750.50000  4.92952e-12      235.039
       750.60000  4.92952e-12      234.990
       750.70000  4.92952e-12      234.990
       750.80000  4.92952e-12      234.941
       750.90000  4.92952e-12      234.941
       751.00000  4.92952e-12      234.891
       751.10000  4.92952e-12      234.891
       751.20000  4.92952e-12      234.891
       751.30000  4.91848e-12      234.317
       751.40000  4.91848e-12      234.317
       751.50000  2.16283e-13      10.3037
       751.60000  2.16283e-13      10.3037
       751.70000  2.16283e-13      10.3037
       751.80000  2.16283e-13      10.3037
       751.90000  2.16283e-13      10.3037
       752.00000  2.16283e-13      10.3037
       752.10000  2.16283e-13      10.3037
       752.20000  2.16283e-13      10.3037
       752.30000  2.16283e-13      10.3037
       752.40000  2.16283e-13      10.3037
       752.50000  1.34398e-12      64.0406
       752.60000  1.34398e-12      64.0406
       752.70000  1.34398e-12      64.0406
       752.80000  1.34398e-12      64.0541
       752.90000  1.34398e-12      64.0541
       753.00000  1.34398e-12      64.0675
       755.00000  3.81563e-13      18.1777
       755.10000  3.81563e-13      18.1738
       755.20000  3.81563e-13      18.1738
       755.30000  3.81563e-13      18.1700
       755.40000  3.81563e-13      18.1700
       755.50000  2.14017e-12      101.894
       755.60000  2.14017e-12      101.872
       755.70000  2.14017e-12      101.872
       755.80000  2.14017e-12      101.851
       755.90000  2.14017e-12      101.829
       756.00000  2.14017e-12      101.829
       756.10000  2.14017e-12      101.808
       756.20000  2.14017e-12      101.787
       756.30000  2.13676e-12      101.603
       756.40000  2.13676e-12      101.603
       756.50000  1.80187e-12      85.6609
       756.60000  1.80187e-12      85.6429
       756.70000  1.80187e-12      85.6249
       756.80000  1.80187e-12      85.6249
       756.90000  1.80187e-12      85.6069
       757.00000  1.80187e-12      85.5889
       757.10000  1.80187e-12      85.5709
       757.20000  1.80187e-12      85.5528
       757.30000  1.80187e-12      85.5528
       757.40000  1.80187e-12      85.5348
       757.50000  8.95531e-14      4.25019
       757.60000  8.95531e-14      4.24930
       757.70000  8.95531e-14      4.24840
       757.80000  8.95531e-14      4.24751
       757.90000  8.95531e-14      4.24661
       758.00000  8.95531e-14      4.24661
       758.10000  8.95531e-14      4.24571
       758.20000  8.95531e-14      4.24482
       758.30000  8.95531e-14      4.24392
       758.40000  8.95531e-14      4.24303
       758.50000  1.00180e-11      474.552
       758.60000  1.00180e-11      474.452
       758.70000  1.00180e-11      474.352
       758.80000  9.99095e-12      472.972
       758.90000  9.99095e-12      472.872
       759.00000  9.99095e-12      472.772
       759.10000  9.99095e-12      472.772
       759.20000  9.99095e-12      472.672
       759.30000  9.99095e-12      472.672
       759.40000  9.99095e-12      472.572
       759.50000  1.99699e-12      94.4578
       759.60000  1.99699e-12      94.4578
       759.70000  1.99699e-12      94.4378
       759.80000  1.99699e-12      94.4378
       759.90000  1.99699e-12      94.4378
       760.00000  1.99699e-12      94.4378
       760.10000  1.99699e-12      94.4378
       760.20000  1.99699e-12      94.4378
       760.30000  1.99699e-12      94.4578
       760.40000  1.99699e-12      94.4578
       760.50000  2.83576e-13      13.4132
       760.60000  2.83576e-13      13.4160
       760.70000  2.83576e-13      13.4160
       760.80000  2.83576e-13      13.4188
       760.90000  2.83576e-13      13.4188
       761.00000  2.83576e-13      13.4217
       763.00000  5.32564e-12      253.554
       763.10000  5.32564e-12      253.501
       763.20000  5.32564e-12      253.447
       763.30000  5.32564e-12      253.341
       763.40000  5.32564e-12      253.234
       763.50000  1.07750e-12      51.2134
       763.60000  1.07750e-12      51.1918
       763.70000  1.07750e-12      51.1703
       763.80000  1.07474e-12      51.0071
       763.90000  1.07474e-12      50.9748
       764.00000  1.07474e-12      50.9426
       764.10000  1.07474e-12      50.9104
       764.20000  1.07474e-12      50.8674
       764.30000  1.07474e-12      50.8244
       764.40000  1.07474e-12      50.7814
       764.50000  1.57449e-12      74.3317
       764.60000  1.57449e-12      74.2687
       764.70000  1.57449e-12      74.1900
       764.80000  1.57449e-12      74.1112
       764.90000  1.57449e-12      74.0325
       765.00000  1.57449e-12      73.9380
       765.10000  1.57449e-12      73.7648
       765.20000  1.57449e-12      73.5917
       765.30000  1.57449e-12      73.4342
       765.40000  1.57449e-12      73.2768
       765.50000  2.67098e-13      12.4067
       765.60000  2.67098e-13      12.3853
       765.70000  2.67098e-13      12.3613
       765.80000  2.67098e-13      12.3426
       765.90000  2.67098e-13      12.3239
       766.00000  2.67098e-13      12.3052
       766.10000  2.67098e-13      12.2892
       766.20000  2.67098e-13      12.2731
       766.30000  2.67091e-13      12.2595
       766.40000  2.67091e-13      12.2488
       766.50000  3.26695e-12      149.691
       766.60000  3.26695e-12      149.561
       766.70000  3.26695e-12      149.495
       766.80000  3.26695e-12      149.397
       766.90000  3.26695e-12      149.332
       767.00000  3.26695e-12      149.299
       767.10000  3.26695e-12      149.463
       767.20000  3.26695e-12      149.659
       767.30000  3.26695e-12      149.822
       767.40000  3.26695e-12      149.985
       767.50000  3.84915e-12      176.907
       767.60000  3.84915e-12      177.099
       767.70000  3.84915e-12      177.292
       767.80000  3.84915e-12      177.446
       767.90000  3.84915e-12      177.638
       768.00000  3.84915e-12      177.792
       768.10000  3.84915e-12      177.946
       768.20000  3.84915e-12      178.100
       768.30000  3.84915e-12      178.216
       768.40000  3.84915e-12      178.370
       768.50000  5.25617e-12      243.729
       768.60000  5.25617e-12      243.886
       768.70000  5.25617e-12      244.044
       768.80000  5.25338e-12      244.072
       768.90000  5.25338e-12      244.230
       769.00000  5.25338e-12      244.335
       769.10000  5.25338e-12      244.492
       769.20000  5.25338e-12      244.598
       769.30000  5.25338e-12      244.703
       769.40000  5.25338e-12      244.808
       769.50000  7.64107e-14      3.56150
       769.60000  7.64107e-14      3.56303
       769.70000  7.64107e-14      3.56379
       769.80000  7.64107e-14      3.56532
       769.90000  7.64107e-14      3.56609
       770.00000  7.64107e-14      3.56609
       770.10000  7.64107e-14      3.56685
       770.20000  7.64107e-14      3.56761
       770.30000  7.64107e-14      3.56761
       770.40000  7.64107e-14      3.56761
       770.50000  5.95622e-12      278.096
       770.60000  5.95622e-12      278.096
       770.70000  5.95622e-12      278.096
       770.80000  5.95622e-12      278.096
       770.90000  5.95622e-12      278.037
       771.00000  5.95622e-12      277.977
       771.10000  5.95622e-12      278.215
       771.20000  5.95622e-12      278.394
       771.30000  5.93800e-12      277.720
       771.40000  5.93800e-12      277.898
       771.50000  3.90103e-17   0.00182685
       771.60000  3.90103e-17   0.00182763
       771.70000  3.90103e-17   0.00182880
       771.80000  3.90103e-17   0.00182958
       771.90000  3.90103e-17   0.00182998
       772.00000  3.90103e-17   0.00183076
       772.10000  3.90103e-17   0.00183115
       772.20000  3.90103e-17   0.00183154
       772.30000  3.90103e-17   0.00183193
       772.40000  3.90103e-17   0.00183232
       772.50000  1.04058e-12      48.8761
       772.60000  1.04058e-12      48.8761
       772.70000  1.04058e-12      48.8761
       772.80000  1.04058e-12      48.8657
       772.90000  1.04058e-12      48.8657
       773.00000  1.04058e-12      48.8553
       773.10000  1.04058e-12      48.7929
       773.20000  1.04058e-12      48.7408
       773.30000  1.04058e-12      48.6784
       773.40000  1.04058e-12      48.6264
       773.50000  3.48191e-12      162.536
       773.60000  3.48191e-12      162.396
       773.70000  3.48191e-12      162.257
       773.80000  3.46814e-12      161.476
       773.90000  3.46814e-12      161.338
       774.00000  3.46814e-12      161.199
       774.10000  3.46814e-12      161.095
       774.20000  3.46814e-12      160.991
       774.30000  3.46814e-12      160.921
       774.40000  3.46814e-12      160.817
       774.50000  1.79058e-13      8.29934
       774.60000  1.79058e-13      8.29755
       774.70000  1.79058e-13      8.29397
       774.80000  1.79058e-13      8.29217
       774.90000  1.79058e-13      8.29038
       775.00000  1.79058e-13      8.28859
       775.10000  1.79058e-13      8.28859
       775.20000  1.79058e-13      8.28859
       775.30000  1.79058e-13      8.28859
       775.40000  1.79058e-13      8.28859
       775.50000  1.45721e-12      67.4690
       775.60000  1.45721e-12      67.4836
       775.70000  1.45721e-12      67.4981
       775.80000  1.45721e-12      67.5127
       775.90000  1.45721e-12      67.5418
       776.00000  1.45721e-12      67.5710
       776.10000  1.45721e-12      67.6001
       776.20000  1.45721e-12      67.6439
       776.30000  1.45352e-12      67.5160
       776.40000  1.45352e-12      67.5596
       776.50000  2.22012e-12      103.258
       776.60000  2.22012e-12      103.347
       776.70000  2.22012e-12      103.435
       776.80000  2.22012e-12      103.524
       776.90000  2.22012e-12      103.635
       777.00000  2.22012e-12      103.724
       777.10000  2.22012e-12      103.680
       777.20000  2.22012e-12      103.657
       777.30000  2.22012e-12      103.613
       777.40000  2.22012e-12      103.569
       777.50000  2.14100e-13      9.98348
       777.60000  2.14100e-13      9.98134
       777.70000  2.14100e-13      9.97706
       777.80000  2.14100e-13      9.97492
       777.90000  2.14100e-13      9.97278
       778.00000  2.14100e-13      9.96850
       778.10000  2.14100e-13      9.96635
       778.20000  2.14100e-13      9.96421
       778.30000  2.14100e-13      9.96207
       778.40000  2.14100e-13      9.95993
       778.50000  2.68990e-12      125.134
       778.60000  2.68990e-12      125.107
       778.70000  2.68990e-12      125.080
       778.80000  2.68308e-12      124.763
       778.90000  2.68308e-12      124.763
       779.00000  2.68308e-12      124.736
       779.10000  2.68308e-12      124.790
       779.20000  2.68308e-12      124.817
       779.30000  2.68308e-12      124.871
       779.40000  2.68308e-12      124.897
       779.50000  2.87602e-13      13.3908
       779.60000  2.87602e-13      13.3936
       779.70000  2.87602e-13      13.3965
       779.80000  2.87602e-13      13.3994
       779.90000  2.87602e-13      13.4023
       780.00000  2.87602e-13      13.4051
       780.10000  2.87602e-13      13.4051
       780.20000  2.87602e-13      13.4080
       780.30000  2.87602e-13      13.4080
       780.40000  2.87602e-13      13.4080
       780.50000  1.02190e-12      47.6409
       780.60000  1.02190e-12      47.6409
       780.70000  1.02190e-12      47.6409
       780.80000  1.02190e-12      47.6409
       780.90000  1.02190e-12      47.6409
       781.00000  1.02190e-12      47.6307
       781.10000  1.02190e-12      47.6307
       781.20000  1.02190e-12      47.6205
       781.30000  1.01622e-12      47.3456
       781.40000  1.01622e-12      47.3354
       781.50000  3.09807e-13      14.4277
       781.60000  3.09807e-13      14.4246
       781.70000  3.09807e-13      14.4215
       781.80000  3.09807e-13      14.4184
       781.90000  3.09807e-13      14.4122
       782.00000  3.09807e-13      14.4091
       782.10000  3.09807e-13      14.4030
       782.20000  3.09807e-13      14.3968
       782.30000  3.09807e-13      14.3937
       782.40000  3.09807e-13      14.3875
       782.50000  3.25548e-12      151.119
       782.60000  3.25548e-12      151.021
       782.70000  3.25548e-12      150.956
       782.80000  3.25548e-12      150.891
       782.90000  3.25548e-12      150.794
       783.00000  3.25548e-12      150.729
       783.10000  3.25548e-12      150.794
       783.20000  3.25548e-12      150.859
       783.30000  3.25548e-12      150.924
       783.40000  3.25548e-12      150.956
       783.50000  1.56742e-12      72.7127
       783.60000  1.56742e-12      72.7440
       783.70000  1.56742e-12      72.7597
       783.80000  1.55943e-12      72.4200
       783.90000  1.55943e-12      72.4512
       784.00000  1.55943e-12      72.4668
       784.10000  1.55943e-12      72.4824
       784.20000  1.55943e-12      72.5136
       784.30000  1.55943e-12      72.5292
       784.40000  1.55943e-12      72.5448
       784.50000  3.98660e-12      185.496
       784.60000  3.98660e-12      185.536
       784.70000  3.98660e-12      185.576
       784.80000  3.98660e-12      185.616
       784.90000  3.98660e-12      185.656
       785.00000  3.98660e-12      185.656
       785.10000  3.98660e-12      185.656
       785.20000  3.98660e-12      185.656
       785.30000  3.98660e-12      185.656
       785.40000  3.98660e-12      185.656
       785.50000  3.64984e-12      169.973
       785.60000  3.64984e-12      169.973
       785.70000  3.64984e-12      169.973
       785.80000  3.64984e-12      169.973
       785.90000  3.64984e-12      169.973
       786.00000  3.64984e-12      169.973
       786.10000  3.64984e-12      169.973
       786.20000  3.64984e-12      169.973
       786.30000  3.64372e-12      169.688
       786.40000  3.64372e-12      169.688
       786.50000  2.67553e-12      124.599
       786.60000  2.67553e-12      124.599
       786.70000  2.67553e-12      124.599
       786.80000  2.67553e-12      124.599
       786.90000  2.67553e-12      124.599
       787.00000  2.67553e-12      124.599
       787.10000  2.67553e-12      124.599
       787.20000  2.67553e-12      124.599
       787.30000  2.67553e-12      124.599
       787.40000  2.67553e-12      124.599
       787.50000  2.77658e-12      129.305
       787.60000  2.77658e-12      129.305
       787.70000  2.77658e-12      129.305
       787.80000  2.77658e-12      129.305
       787.90000  2.77658e-12      129.305
       788.00000  2.77658e-12      129.305
       788.10000  2.77658e-12      129.305
       788.20000  2.77658e-12      129.305
       788.30000  2.77658e-12      129.305
       788.40000  2.77658e-12      129.305
       788.50000  7.20948e-13      33.5746
       788.60000  7.20948e-13      33.5746
       788.70000  7.20948e-13      33.5746
       788.80000  7.21074e-13      33.5804
       788.90000  7.21074e-13      33.5804
       789.00000  7.21074e-13      33.5804
       789.10000  7.21074e-13      33.5660
       789.20000  7.21074e-13      33.5444
       789.30000  7.21074e-13      33.5227
       789.40000  7.21074e-13      33.5083
       789.50000  3.15933e-12      146.719
       789.60000  3.15933e-12      146.625
       789.70000  3.15933e-12      146.561
       789.80000  3.15933e-12      146.467
       789.90000  3.15933e-12      146.372
       790.00000  3.15933e-12      146.309
       790.10000  3.15933e-12      146.214
       790.20000  3.15933e-12      146.151
       790.30000  3.15933e-12      146.056
       790.40000  3.15933e-12      145.993
       790.50000  3.24087e-12      149.663
       790.60000  3.24087e-12      149.566
       790.70000  3.24087e-12      149.501
       790.80000  3.24087e-12      149.404
       790.90000  3.24087e-12      149.339
       791.00000  3.24087e-12      149.242
       791.10000  3.24087e-12      149.145
       791.20000  3.24087e-12      149.080
       791.30000  3.23142e-12      148.548
       791.40000  3.23142e-12      148.452
       791.50000  3.30884e-12      151.909
       791.60000  3.30884e-12      151.810
       791.70000  3.30884e-12      151.743
       791.80000  3.30884e-12      151.644
       791.90000  3.30884e-12      151.578
       792.00000  3.30884e-12      151.479
       792.10000  3.30884e-12      151.413
       792.20000  3.30884e-12      151.346
       792.30000  3.30884e-12      151.247
       792.40000  3.30884e-12      151.181
       792.50000  2.56565e-13      11.7173
       792.60000  2.56565e-13      11.7122
       792.70000  2.56565e-13      11.7071
       792.80000  2.56565e-13      11.7019
       792.90000  2.56565e-13      11.6968
       793.00000  2.56565e-13      11.6917
       793.10000  2.56565e-13      11.6840
       793.20000  2.56565e-13      11.6737
       793.30000  2.56565e-13      11.6660
       793.40000  2.56565e-13      11.6583
       793.50000  7.81778e-13      35.5005
       793.60000  7.81778e-13      35.4849
       793.70000  7.81778e-13      35.4615
       793.80000  7.79548e-13      35.3525
       793.90000  7.79548e-13      35.3369
       794.00000  7.79548e-13      35.3291
       794.10000  7.79548e-13      35.3135
       794.20000  7.79548e-13      35.3135
       794.30000  7.79548e-13      35.3057
       794.40000  7.79548e-13      35.3057
       794.50000  1.64785e-13      7.46311
       794.60000  1.64785e-13      7.46311
       794.70000  1.64785e-13      7.46475
       794.80000  1.64785e-13      7.46475
       794.90000  1.64785e-13      7.46640
       795.00000  1.64785e-13      7.46970
       795.10000  1.64785e-13      7.48123
       795.20000  1.64785e-13      7.49277
       795.30000  1.64785e-13      7.50430
       795.40000  1.64785e-13      7.51584
       795.50000  2.34808e-12      107.237
       795.60000  2.34808e-12      107.378
       795.70000  2.34808e-12      107.495
       795.80000  2.34808e-12      107.613
       795.90000  2.34808e-12      107.730
       796.00000  2.34808e-12      107.824
       796.10000  2.34808e-12      107.918
       796.20000  2.34808e-12      108.012
       796.30000  2.34496e-12      107.938
       796.40000  2.34496e-12      108.009
       796.50000  9.47929e-13      43.6901
       796.60000  9.47929e-13      43.7090
       796.70000  9.47929e-13      43.7280
       796.80000  9.47929e-13      43.7375
       796.90000  9.47929e-13      43.7469
       797.00000  9.47929e-13      43.7564
       797.10000  9.47929e-13      43.7659
       797.20000  9.47929e-13      43.7659
       797.30000  9.47929e-13      43.7659
       797.40000  9.47929e-13      43.7564
       797.50000  1.02949e-12      47.5111
       797.60000  1.02949e-12      47.5008
       797.70000  1.02949e-12      47.4802
       797.80000  1.02949e-12      47.4596
       797.90000  1.02949e-12      47.4390
       798.00000  1.02949e-12      47.4082
       798.10000  1.02949e-12      47.3773
       798.20000  1.02949e-12      47.3464
       798.30000  1.02949e-12      47.3052
       798.40000  1.02949e-12      47.2640
       798.50000  1.04209e-12      47.8009
       798.60000  1.04209e-12      47.7487
       798.70000  1.04209e-12      47.6966
       798.80000  1.03971e-12      47.5356
       798.90000  1.03971e-12      47.4732
       799.00000  1.03971e-12      47.4109
       799.10000  1.03971e-12      47.4421
       799.20000  1.03971e-12      47.4836
       799.30000  1.03971e-12      47.5252
       799.40000  1.03971e-12      47.5564
       799.50000  8.66078e-11      3964.04
       799.60000  8.66078e-11      3966.64
       799.70000  8.66078e-11      3969.24
       799.80000  8.66078e-11      3970.97
       799.90000  8.66078e-11      3972.70
       800.00000  8.66078e-11      3974.43
       800.10000  8.66078e-11      3976.17
       800.20000  8.66078e-11      3977.90
       800.30000  8.66078e-11      3979.63
       800.40000  8.66078e-11      3980.50
       800.50000  4.51506e-11      2075.57
       800.60000  4.51506e-11      2076.02
       800.70000  4.51506e-11      2076.02
       800.80000  4.51506e-11      2076.48
       800.90000  4.51506e-11      2076.48
       801.00000  4.51506e-11      2076.48
       801.10000  4.51506e-11      2075.57
       801.20000  4.51506e-11      2074.67
       801.30000  4.50180e-11      2067.68
       801.40000  4.50180e-11      2066.78
       801.50000  2.22947e-11      1023.11
       801.60000  2.22947e-11      1022.66
       801.70000  2.22947e-11      1022.21
       801.80000  2.22947e-11      1021.77
       801.90000  2.22947e-11      1021.32
       802.00000  2.22947e-11      1020.88
       802.10000  2.22947e-11      1020.43
       802.20000  2.22947e-11      1019.98
       802.30000  2.22947e-11      1019.54
       802.40000  2.22947e-11      1019.09
       802.50000  2.77681e-11      1268.72
       802.60000  2.77681e-11      1268.17
       802.70000  2.77681e-11      1267.61
       802.80000  2.77681e-11      1266.78
       802.90000  2.77681e-11      1266.22
       803.00000  2.77681e-11      1265.67
       803.10000  2.77681e-11      1265.11
       803.20000  2.77681e-11      1264.56
       803.30000  2.77681e-11      1264.00
       803.40000  2.77681e-11      1263.17
       803.50000  1.26629e-11      575.781
       803.60000  1.26629e-11      575.527
       803.70000  1.26629e-11      575.274
       803.80000  1.26235e-11      573.234
       803.90000  1.26235e-11      572.855
       804.00000  1.26235e-11      572.603
       804.10000  1.26235e-11      572.350
       804.20000  1.26235e-11      572.098
       804.30000  1.26235e-11      571.719
       804.40000  1.26235e-11      571.467
       804.50000  5.04469e-11      2282.72
       804.60000  5.04469e-11      2281.21
       804.70000  5.04469e-11      2280.20
       804.80000  5.04469e-11      2279.19
       804.90000  5.04469e-11      2277.68
       805.00000  5.04469e-11      2276.67
       805.10000  5.04469e-11      2278.69
       805.20000  5.04469e-11      2281.21
       805.30000  5.04469e-11      2282.72
       805.40000  5.04469e-11      2284.74
       805.50000  1.79092e-11      811.645
       805.60000  1.79092e-11      812.182
       805.70000  1.79092e-11      812.720
       805.80000  1.79092e-11      813.078
       805.90000  1.79092e-11      813.436
       806.00000  1.79092e-11      813.794
       806.10000  1.79092e-11      813.973
       806.20000  1.79092e-11      814.153
       806.30000  1.78742e-11      812.739
       806.40000  1.78742e-11      812.918
       806.50000  4.45820e-11      2027.59
       806.60000  4.45820e-11      2027.59
       806.70000  4.45820e-11      2027.14
       806.80000  4.45820e-11      2027.14
       806.90000  4.45820e-11      2026.70
       807.00000  4.45820e-11      2025.81
       807.10000  4.45820e-11      2022.24
       807.20000  4.45820e-11      2018.23
       807.30000  4.45820e-11      2014.66
       807.40000  4.45820e-11      2011.54
       807.50000  3.25573e-11      1466.71
       807.60000  3.25573e-11      1464.43
       807.70000  3.25573e-11      1462.47
       807.80000  3.25573e-11      1460.85
       807.90000  3.25573e-11      1459.22
       808.00000  3.25573e-11      1457.59
       808.10000  3.25573e-11      1456.29
       808.20000  3.25573e-11      1454.99
       808.30000  3.25573e-11      1453.68
       808.40000  3.25573e-11      1452.71
       808.50000  2.22298e-11      991.447
       808.60000  2.22298e-11      991.003
       808.70000  2.22298e-11      990.558
       808.80000  2.22087e-11      989.399
       808.90000  2.22087e-11      989.177
       809.00000  2.22087e-11      989.177
       809.10000  2.22087e-11      989.177
       809.20000  2.22087e-11      989.399
       809.30000  2.22087e-11      989.621
       809.40000  2.22087e-11      989.843
       809.50000  4.26618e-12      190.229
       809.60000  4.26618e-12      190.357
       809.70000  4.26618e-12      190.485
       809.80000  4.26618e-12      190.613
       809.90000  4.26618e-12      190.783
       810.00000  4.26618e-12      190.954
       810.10000  4.26618e-12      191.167
       810.20000  4.26618e-12      191.381
       810.30000  4.26618e-12      191.594
       810.40000  4.26618e-12      191.850
       810.50000  4.63512e-11      2087.66
       810.60000  4.63512e-11      2090.44
       810.70000  4.63512e-11      2094.15
       810.80000  4.63512e-11      2097.85
       810.90000  4.63512e-11      2101.56
       811.00000  4.63512e-11      2105.73
       811.10000  4.63512e-11      2106.20
       811.20000  4.63512e-11      2107.12
       811.30000  4.63206e-11      2106.20
       811.40000  4.63206e-11      2107.12
       811.50000  1.60402e-12      72.9830
       811.60000  1.60402e-12      72.9990
       811.70000  1.60402e-12      73.0151
       811.80000  1.60402e-12      73.0311
       811.90000  1.60402e-12      73.0471
       812.00000  1.60402e-12      73.0632
       812.10000  1.60402e-12      73.0632
       812.20000  1.60402e-12      73.0792
       812.30000  1.60402e-12      73.0953
       812.40000  1.60402e-12      73.0953
       812.50000  3.79748e-12      173.051
       812.60000  3.79748e-12      173.089
       812.70000  3.79748e-12      173.089
       812.80000  3.79748e-12      173.089
       812.90000  3.79748e-12      173.089
       813.00000  3.79748e-12      173.089
       813.10000  3.79748e-12      173.013
       813.20000  3.79748e-12      172.975
       813.30000  3.79748e-12      172.899
       813.40000  3.79748e-12      172.861
       813.50000  3.98090e-12      181.131
       813.60000  3.98090e-12      181.091
       813.70000  3.98090e-12      181.051
       813.80000  3.98047e-12      180.992
       813.90000  3.98047e-12      180.952
       814.00000  3.98047e-12      180.872
       814.10000  3.98047e-12      180.833
       814.20000  3.98047e-12      180.793
       814.30000  3.98047e-12      180.753
       814.40000  3.98047e-12      180.753
       814.50000  3.31282e-16    0.0150402
       814.60000  3.31282e-16    0.0150369
       814.70000  3.31282e-16    0.0150336
       814.80000  3.31282e-16    0.0150302
       814.90000  3.31282e-16    0.0150302
       815.00000  3.31282e-16    0.0150269
       815.10000  3.31282e-16    0.0150402
       815.20000  3.31282e-16    0.0150501
       815.30000  3.31282e-16    0.0150601
       815.40000  3.31282e-16    0.0150667
       815.50000  1.07669e-11      490.000
       815.60000  1.07669e-11      490.108
       815.70000  1.07669e-11      490.323
       815.80000  1.07669e-11      490.323
       815.90000  1.07669e-11      490.431
       816.00000  1.07669e-11      490.431
       816.10000  1.07669e-11      490.431
       816.20000  1.07669e-11      490.323
       816.30000  1.07666e-11      490.202
       816.40000  1.07666e-11      490.094
       816.50000  1.61467e-11      734.676
       816.60000  1.61467e-11      734.353
       816.70000  1.61467e-11      733.869
       816.80000  1.61467e-11      733.385
       816.90000  1.61467e-11      732.900
       817.00000  1.61467e-11      732.254
       817.10000  1.61467e-11      729.994
       817.20000  1.61467e-11      727.895
       817.30000  1.61467e-11      725.957
       817.40000  1.61467e-11      724.020
       817.50000  9.69032e-12      433.448
       817.60000  9.69032e-12      432.479
       817.70000  9.69032e-12      431.510
       817.80000  9.69032e-12      430.541
       817.90000  9.69032e-12      429.766
       818.00000  9.69032e-12      428.894
       818.10000  9.69032e-12      428.215
       818.20000  9.69032e-12      427.537
       818.30000  9.69032e-12      426.859
       818.40000  9.69032e-12      426.374
       818.50000  1.76629e-11      776.106
       818.60000  1.76629e-11      775.400
       818.70000  1.76629e-11      774.693
       818.80000  1.76602e-11      773.869
       818.90000  1.76602e-11      773.516
       819.00000  1.76602e-11      772.986
       819.10000  1.76602e-11      772.810
       819.20000  1.76602e-11      772.633
       819.30000  1.76602e-11      772.456
       819.40000  1.76602e-11      772.456
       819.50000  6.19741e-11      2711.37
       819.60000  6.19741e-11      2711.99
       819.70000  6.19741e-11      2713.22
       819.80000  6.19741e-11      2715.08
       819.90000  6.19741e-11      2716.94
       820.00000  6.19741e-11      2719.42
       820.10000  6.19741e-11      2721.90
       820.20000  6.19741e-11      2725.00
       820.30000  6.19741e-11      2728.72
       820.40000  6.19741e-11      2732.44
       820.50000  2.97075e-11      1311.88
       820.60000  2.97075e-11      1313.96
       820.70000  2.97075e-11      1316.34
       820.80000  2.97075e-11      1318.72
       820.90000  2.97075e-11      1321.39
       821.00000  2.97075e-11      1324.36
       821.10000  2.97075e-11      1323.77
       821.20000  2.97075e-11      1323.47
       821.30000  2.97927e-11      1326.67
       821.40000  2.97927e-11      1326.37
       821.50000  4.53930e-11      2019.99
       821.60000  4.53930e-11      2019.53
       821.70000  4.53930e-11      2019.08
       821.80000  4.53930e-11      2018.17
       821.90000  4.53930e-11      2017.72
       822.00000  4.53930e-11      2017.27
       822.10000  4.53930e-11      2017.27
       822.20000  4.53930e-11      2016.81
       822.30000  4.53930e-11      2016.36
       822.40000  4.53930e-11      2016.36
       822.50000  7.99680e-12      355.138
       822.60000  7.99680e-12      355.138
       822.70000  7.99680e-12      355.058
       822.80000  7.99680e-12      355.058
       822.90000  7.99680e-12      355.058
       823.00000  7.99680e-12      355.058
       823.10000  7.99680e-12      355.058
       823.20000  7.99680e-12      355.058
       823.30000  7.99680e-12      355.058
       823.40000  7.99680e-12      355.058
       823.50000  2.48154e-16    0.0110205
       823.60000  2.48154e-16    0.0110205
       823.70000  2.48154e-16    0.0110230
       823.80000  2.48831e-16    0.0110531
       823.90000  2.48831e-16    0.0110556
       824.00000  2.48831e-16    0.0110581
       824.10000  2.48831e-16    0.0110606
       824.20000  2.48831e-16    0.0110630
       824.30000  2.48831e-16    0.0110655
       824.40000  2.48831e-16    0.0110705
       824.50000  6.08197e-12      270.648
       824.60000  6.08197e-12      270.769
       824.70000  6.08197e-12      270.830
       824.80000  6.08197e-12      270.952
       824.90000  6.08197e-12      271.074
       825.00000  6.08197e-12      271.195
       825.10000  6.08197e-12      271.317
       825.20000  6.08197e-12      271.438
       825.30000  6.08197e-12      271.621
       825.40000  6.08197e-12      271.743
       825.50000  3.43670e-11      1536.55
       825.60000  3.43670e-11      1537.24
       825.70000  3.43670e-11      1538.27
       825.80000  3.43670e-11      1539.30
       825.90000  3.43670e-11      1540.33
       826.00000  3.43670e-11      1541.36
       826.10000  3.43670e-11      1542.39
       826.20000  3.43670e-11      1543.08
       826.30000  3.43898e-11      1545.14
       826.40000  3.43898e-11      1545.82
       826.50000  3.78095e-11      1699.92
       826.60000  3.78095e-11      1700.67
       826.70000  3.78095e-11      1701.43
       826.80000  3.78095e-11      1701.81
       826.90000  3.78095e-11      1702.18
       827.00000  3.78095e-11      1702.56
       827.10000  3.78095e-11      1702.56
       827.20000  3.78095e-11      1702.94
       827.30000  3.78095e-11      1702.94
       827.40000  3.78095e-11      1702.94
       827.50000  8.24044e-12      371.150
       827.60000  8.24044e-12      371.150
       827.70000  8.24044e-12      371.067
       827.80000  8.24044e-12      370.985
       827.90000  8.24044e-12      370.902
       828.00000  8.24044e-12      370.820
       828.10000  8.24044e-12      370.573
       828.20000  8.24044e-12      370.243
       828.30000  8.24044e-12      369.913
       828.40000  8.24044e-12      369.584
       828.50000  2.89110e-11      1295.79
       828.60000  2.89110e-11      1294.64
       828.70000  2.89110e-11      1293.77
       828.80000  2.88876e-11      1291.85
       828.90000  2.88876e-11      1290.70
       829.00000  2.88876e-11      1289.83
       829.10000  2.88876e-11      1288.96
       829.20000  2.88876e-11      1288.10
       829.30000  2.88876e-11      1287.23
       829.40000  2.88876e-11      1286.36
       829.50000  3.93651e-11      1751.75
       829.60000  3.93651e-11      1750.57
       829.70000  3.93651e-11      1749.39
       829.80000  3.93651e-11      1748.21
       829.90000  3.93651e-11      1747.42
       830.00000  3.93651e-11      1746.24
       830.10000  3.93651e-11      1745.45
       830.20000  3.93651e-11      1744.27
       830.30000  3.93651e-11      1743.48
       830.40000  3.93651e-11      1742.30
       830.50000  6.76134e-11      2991.22
       830.60000  6.76134e-11      2989.87
       830.70000  6.76134e-11      2987.84
       830.80000  6.76134e-11      2986.48
       830.90000  6.76134e-11      2985.13
       831.00000  6.76134e-11      2983.78
       831.10000  6.76134e-11      2982.43
       831.20000  6.76134e-11      2981.08
       831.30000  6.77967e-11      2988.48
       831.40000  6.77967e-11      2987.12
       831.50000  3.97587e-11      1750.97
       831.60000  3.97587e-11      1750.57
       831.70000  3.97587e-11      1749.78
       831.80000  3.97587e-11      1748.98
       831.90000  3.97587e-11      1748.59
       832.00000  3.97587e-11      1748.19
       832.10000  3.97587e-11      1746.60
       832.20000  3.97587e-11      1745.01
       832.30000  3.97587e-11      1743.82
       832.40000  3.97587e-11      1742.62
       832.50000  1.07844e-11      472.359
       832.60000  1.07844e-11      472.143
       832.70000  1.07844e-11      471.928
       832.80000  1.07844e-11      471.604
       832.90000  1.07844e-11      471.496
       833.00000  1.07844e-11      471.280
       833.10000  1.07844e-11      471.065
       833.20000  1.07844e-11      470.957
       833.30000  1.07844e-11      470.849
       833.40000  1.07844e-11      470.741
       833.50000  4.24850e-11      1854.47
       833.60000  4.24850e-11      1854.05
       833.70000  4.24850e-11      1854.05
       833.80000  4.25293e-11      1855.98
       833.90000  4.25293e-11      1856.41
       834.00000  4.25293e-11      1856.41
       834.10000  4.25293e-11      1858.53
       834.20000  4.25293e-11      1860.23
       834.30000  4.25293e-11      1862.36
       834.40000  4.25293e-11      1864.06
       834.50000  4.05270e-11      1777.92
       834.60000  4.05270e-11      1779.54
       834.70000  4.05270e-11      1780.76
       834.80000  4.05270e-11      1781.97
       834.90000  4.05270e-11      1783.59
       835.00000  4.05270e-11      1784.81
       835.10000  4.05270e-11      1785.62
       835.20000  4.05270e-11      1786.84
       835.30000  4.05270e-11      1787.65
       835.40000  4.05270e-11      1788.46
       835.50000  2.36957e-11      1046.16
       835.60000  2.36957e-11      1046.64
       835.70000  2.36957e-11      1046.87
       835.80000  2.36957e-11      1047.35
       835.90000  2.36957e-11      1047.58
       836.00000  2.36957e-11      1047.82
       836.10000  2.36957e-11      1047.35
       836.20000  2.36957e-11      1047.11
       836.30000  2.36849e-11      1046.16
       836.40000  2.36849e-11      1045.93
       836.50000  4.24573e-11      1874.49
       836.60000  4.24573e-11      1873.64
       836.70000  4.24573e-11      1873.22
       836.80000  4.24573e-11      1872.79
       836.90000  4.24573e-11      1871.94
       837.00000  4.24573e-11      1871.52
       837.10000  4.24573e-11      1871.09
       837.20000  4.24573e-11      1870.67
       837.30000  4.24573e-11      1870.25
       837.40000  4.24573e-11      1869.82
       837.50000  1.84870e-11      813.983
       837.60000  1.84870e-11      813.798
       837.70000  1.84870e-11      813.613
       837.80000  1.84870e-11      813.428
       837.90000  1.84870e-11      813.428
       838.00000  1.84870e-11      813.243
       838.10000  1.84870e-11      813.058
       838.20000  1.84870e-11      813.058
       838.30000  1.84870e-11      813.058
       838.40000  1.84870e-11      813.058
       838.50000  2.80901e-11      1235.12
       838.60000  2.80901e-11      1235.12
       838.70000  2.80901e-11      1235.12
       838.80000  2.80052e-11      1231.11
       838.90000  2.80052e-11      1231.11
       839.00000  2.80052e-11      1231.11
       839.10000  2.80052e-11      1230.83
       839.20000  2.80052e-11      1230.83
       839.30000  2.80052e-11      1230.83
       839.40000  2.80052e-11      1230.55
       839.50000  5.28476e-12      232.213
       839.60000  5.28476e-12      232.213
       839.70000  5.28476e-12      232.160
       839.80000  5.28476e-12      232.160
       839.90000  5.28476e-12      232.160
       840.00000  5.28476e-12      232.107
       840.10000  5.28476e-12      232.107
       840.20000  5.28476e-12      232.107
       840.30000  5.28476e-12      232.054
       840.40000  5.28476e-12      232.054
       840.50000  2.65569e-16    0.0116612
       840.60000  2.65569e-16    0.0116585
       840.70000  2.65569e-16    0.0116585
       840.80000  2.65569e-16    0.0116585
       840.90000  2.65569e-16    0.0116558
       841.00000  2.65569e-16    0.0116558
       841.10000  2.65569e-16    0.0116558
       841.20000  2.65569e-16    0.0116558
       841.30000  2.65555e-16    0.0116526
       841.40000  2.65555e-16    0.0116526
       841.50000  6.64780e-11      2917.06
       841.60000  6.64780e-11      2916.39
       841.70000  6.64780e-11      2916.39
       841.80000  6.64780e-11      2916.39
       841.90000  6.64780e-11      2915.73
       842.00000  6.64780e-11      2915.73
       842.10000  6.64780e-11      2913.07
       842.20000  6.64780e-11      2911.07
       842.30000  6.64780e-11      2909.08
       842.40000  6.64780e-11      2906.42
       842.50000  1.40759e-12      61.4977
       842.60000  1.40759e-12      61.4695
       842.70000  1.40759e-12      61.4273
       842.80000  1.40759e-12      61.3991
       842.90000  1.40759e-12      61.3569
       843.00000  1.40759e-12      61.3288
       843.10000  1.40759e-12      61.3006
       843.20000  1.40759e-12      61.2725
       843.30000  1.40759e-12      61.2584
       843.40000  1.40759e-12      61.2302
       843.50000  3.36040e-12      146.144
       843.60000  3.36040e-12      146.110
       843.70000  3.36040e-12      146.077
       843.80000  3.36524e-12      146.253
       843.90000  3.36524e-12      146.253
       844.00000  3.36524e-12      146.220
       844.10000  3.36524e-12      146.321
       844.20000  3.36524e-12      146.388
       844.30000  3.36524e-12      146.455
       844.40000  3.36524e-12      146.523
       844.50000  7.91958e-11      3449.77
       844.60000  7.91958e-11      3451.35
       844.70000  7.91958e-11      3452.15
       844.80000  7.91958e-11      3453.73
       844.90000  7.91958e-11      3454.52
       845.00000  7.91958e-11      3456.11
       845.10000  7.91958e-11      3456.90
       845.20000  7.91958e-11      3457.69
       845.30000  7.91958e-11      3459.27
       845.40000  7.91958e-11      3460.07
       845.50000  2.47184e-11      1079.95
       845.60000  2.47184e-11      1080.20
       845.70000  2.47184e-11      1080.44
       845.80000  2.47184e-11      1080.69
       845.90000  2.47184e-11      1080.69
       846.00000  2.47184e-11      1080.94
       846.10000  2.47184e-11      1080.94
       846.20000  2.47184e-11      1080.94
       846.30000  2.47835e-11      1083.78
       846.40000  2.47835e-11      1084.03
       846.50000  3.94159e-12      172.405
       846.60000  3.94159e-12      172.366
       846.70000  3.94159e-12      172.366
       846.80000  3.94159e-12      172.366
       846.90000  3.94159e-12      172.327
       847.00000  3.94159e-12      172.327
       847.10000  3.94159e-12      172.287
       847.20000  3.94159e-12      172.287
       847.30000  3.94159e-12      172.248
       847.40000  3.94159e-12      172.208
       847.50000  1.20416e-11      525.977
       847.60000  1.20416e-11      525.857
       847.70000  1.20416e-11      525.736
       847.80000  1.20416e-11      525.616
       847.90000  1.20416e-11      525.375
       848.00000  1.20416e-11      525.255
       848.10000  1.20416e-11      522.726
       848.20000  1.20416e-11      520.438
       848.30000  1.20416e-11      518.150
       848.40000  1.20416e-11      515.983
       848.50000  1.37178e-11      585.476
       848.60000  1.37178e-11      583.419
       848.70000  1.37178e-11      581.361
       848.80000  1.37702e-11      581.652
       848.90000  1.37702e-11      579.862
       849.00000  1.37702e-11      578.210
