PDS_VERSION_ID         = PDS3
RECORD_TYPE            = STREAM
OBJECT                 = TEXT
  PUBLICATION_DATE     = 2014-04-25
  INTERCHANGE_FORMAT   = ASCII
  NOTE                 = "System transmission vs. wavelength."
END_OBJECT             = TEXT
END
    
The systrans directory contains the non-wavelength-integrated system 
transmission values (QE*optics*filter1*filter2) for each filter combination. 
The naming convention for these files is as follows:

<camera><filter 1><filter 2>_systrans.tab

where <camera> is "issna" or "isswa," and <filter 1> and <filter 2> represent
the filter names. For polarized filter combinations, values are given for the
parallel orientation of the filter (full transmission), with values for the 
perpendicular (blocking) orientation provided in files with subscript 
"_b_systrans.tab". 

Columns in systrans files are as follows:

 1st column: Wavelength (nm)  
 2nd column: Transmitted Flux
 3rd column: Transmitted Flux * Solar Flux (phot per cm^2-s-angstrom at 1 AU)

The solar spectrum used for this calculation is provided in solarflux.tab.

\begindata
       600.00000  2.77350e-10      14771.7
       600.10000  2.77350e-10      14749.5
       600.20000  2.77350e-10      14724.5
       600.30000  2.77350e-10      14694.0
       600.40000  2.77350e-10      14657.9
       600.50000  8.16849e-10      43064.3
       600.60000  8.16849e-10      43121.5
       600.70000  8.16849e-10      43170.5
       600.80000  8.16849e-10      43219.5
       600.90000  8.16849e-10      43252.2
       601.00000  8.16849e-10      43276.7
       601.10000  8.16849e-10      43284.9
       601.20000  8.16849e-10      43293.0
       601.30000  8.16742e-10      43287.3
       601.40000  8.16742e-10      43271.0
       601.50000  5.22344e-10      27663.3
       601.60000  5.22344e-10      27543.2
       601.70000  5.22344e-10      27444.0
       601.80000  5.22344e-10      27355.2
       601.90000  5.22344e-10      27287.3
       602.00000  5.22344e-10      27235.0
       602.10000  5.22344e-10      27193.2
       602.20000  5.22344e-10      27172.3
       602.30000  5.22344e-10      27167.1
       602.40000  5.22344e-10      27177.6
       602.50000  4.36605e-10      22734.0
       602.60000  4.36605e-10      22768.9
       602.70000  4.36605e-10      22817.0
       602.80000  4.36605e-10      22878.1
       602.90000  4.36605e-10      22952.3
       603.00000  4.36605e-10      23039.6
       603.10000  4.36605e-10      23140.1
       603.20000  4.36605e-10      23253.6
       603.30000  4.36605e-10      23380.2
       603.40000  4.36605e-10      23519.9
       603.50000  1.77779e-10      9639.18
       603.60000  1.77779e-10      9635.62
       603.70000  1.77779e-10      9632.07
       603.80000  1.77704e-10      9624.42
       603.90000  1.77704e-10      9619.09
       604.00000  1.77704e-10      9615.54
       604.10000  1.77704e-10      9610.21
       604.20000  1.77704e-10      9606.65
       604.30000  1.77704e-10      9601.32
       604.40000  1.77704e-10      9597.77
       604.50000  4.98185e-10      26892.0
       604.60000  4.98185e-10      26872.1
       604.70000  4.98185e-10      26852.2
       604.80000  4.98185e-10      26832.2
       604.90000  4.98185e-10      26812.3
       605.00000  4.98185e-10      26797.4
       605.10000  4.98185e-10      26782.4
       605.20000  4.98185e-10      26772.4
       605.30000  4.98185e-10      26757.5
       605.40000  4.98185e-10      26747.5
       605.50000  1.77818e-10      9543.48
       605.60000  1.77818e-10      9541.70
       605.70000  1.77818e-10      9538.14
       605.80000  1.77818e-10      9536.36
       605.90000  1.77818e-10      9536.36
       606.00000  1.77818e-10      9534.59
       606.10000  1.77818e-10      9534.59
       606.20000  1.77818e-10      9534.59
       606.30000  1.77823e-10      9534.85
       606.40000  1.77823e-10      9536.62
       606.50000  5.60827e-10      30082.8
       606.60000  5.60827e-10      30094.0
       606.70000  5.60827e-10      30099.6
       606.80000  5.60827e-10      30110.8
       606.90000  5.60827e-10      30110.8
       607.00000  5.60827e-10      30116.4
       607.10000  5.60827e-10      30116.4
       607.20000  5.60827e-10      30116.4
       607.30000  5.60827e-10      30110.8
       607.40000  5.60827e-10      30105.2
       607.50000  1.37853e-10      7398.56
       607.60000  1.37853e-10      7390.29
       607.70000  1.37853e-10      7383.40
       607.80000  1.37853e-10      7377.89
       607.90000  1.37853e-10      7372.37
       608.00000  1.37853e-10      7366.86
       608.10000  1.37853e-10      7362.72
       608.20000  1.37853e-10      7358.59
       608.30000  1.37853e-10      7355.83
       608.40000  1.37853e-10      7353.07
       608.50000  4.38104e-10      23364.1
       608.60000  4.38104e-10      23359.7
       608.70000  4.38104e-10      23355.3
       608.80000  4.38009e-10      23350.3
       608.90000  4.38009e-10      23354.7
       609.00000  4.38009e-10      23359.0
       609.10000  4.38009e-10      23363.4
       609.20000  4.38009e-10      23372.2
       609.30000  4.38009e-10      23380.9
       609.40000  4.38009e-10      23394.1
       609.50000  9.70524e-11      5187.45
       609.60000  9.70524e-11      5164.16
       609.70000  9.70524e-11      5143.78
       609.80000  9.70524e-11      5126.31
       609.90000  9.70524e-11      5111.75
       610.00000  9.70524e-11      5099.13
       610.10000  9.70524e-11      5088.46
       610.20000  9.70524e-11      5080.69
       610.30000  9.70524e-11      5075.84
       610.40000  9.70524e-11      5073.90
       610.50000  3.86486e-10      20201.6
       610.60000  3.86486e-10      20302.1
       610.70000  3.86486e-10      20391.0
       610.80000  3.86486e-10      20472.1
       610.90000  3.86486e-10      20541.7
       611.00000  3.86486e-10      20599.7
       611.10000  3.86486e-10      20649.9
       611.20000  3.86486e-10      20688.6
       611.30000  3.86487e-10      20719.6
       611.40000  3.86487e-10      20738.9
       611.50000  3.18900e-10      17118.6
       611.60000  3.18900e-10      17118.6
       611.70000  3.18900e-10      17109.0
       611.80000  3.18900e-10      17093.1
       611.90000  3.18900e-10      17067.5
       612.00000  3.18900e-10      17035.7
       612.10000  3.18900e-10      16994.2
       612.20000  3.18900e-10      16943.2
       612.30000  3.18900e-10      16885.8
       612.40000  3.18900e-10      16818.8
       612.50000  2.42367e-10      12726.7
       612.60000  2.42367e-10      12695.2
       612.70000  2.42367e-10      12666.1
       612.80000  2.42367e-10      12641.9
       612.90000  2.42367e-10      12622.5
       613.00000  2.42367e-10      12605.5
       613.10000  2.42367e-10      12593.4
       613.20000  2.42367e-10      12583.7
       613.30000  2.42367e-10      12578.8
       613.40000  2.42367e-10      12578.8
       613.50000  1.69522e-10      8799.90
       613.60000  1.69522e-10      8825.33
       613.70000  1.69522e-10      8847.37
       613.80000  1.69337e-10      8858.02
       613.90000  1.69337e-10      8878.34
       614.00000  1.69337e-10      8896.97
       614.10000  1.69337e-10      8912.21
       614.20000  1.69337e-10      8927.45
       614.30000  1.69337e-10      8941.00
       614.40000  1.69337e-10      8952.85
       614.50000  3.74813e-10      19838.9
       614.60000  3.74813e-10      19857.6
       614.70000  3.74813e-10      19872.6
       614.80000  3.74813e-10      19883.9
       614.90000  3.74813e-10      19891.3
       615.00000  3.74813e-10      19895.1
       615.10000  3.74813e-10      19898.8
       615.20000  3.74813e-10      19895.1
       615.30000  3.74813e-10      19891.3
       615.40000  3.74813e-10      19883.9
       615.50000  1.84258e-10      9767.49
       615.60000  1.84258e-10      9658.78
       615.70000  1.84258e-10      9559.28
       615.80000  1.84258e-10      9472.68
       615.90000  1.84258e-10      9398.98
       616.00000  1.84258e-10      9334.49
       616.10000  1.84258e-10      9282.89
       616.20000  1.84258e-10      9242.36
       616.30000  1.84284e-10      9214.18
       616.40000  1.84284e-10      9197.60
       616.50000  1.17263e-10      5847.89
       616.60000  1.17263e-10      5898.32
       616.70000  1.17263e-10      5945.22
       616.80000  1.17263e-10      5988.61
       616.90000  1.17263e-10      6029.65
       617.00000  1.17263e-10      6068.35
       617.10000  1.17263e-10      6103.52
       617.20000  1.17263e-10      6135.19
       617.30000  1.17263e-10      6164.50
       617.40000  1.17263e-10      6191.47
       617.50000  1.33849e-10      7094.01
       617.60000  1.33849e-10      7116.76
       617.70000  1.33849e-10      7136.84
       617.80000  1.33849e-10      7154.24
       617.90000  1.33849e-10      7166.29
       618.00000  1.33849e-10      7177.00
       618.10000  1.33849e-10      7183.69
       618.20000  1.33849e-10      7186.37
       618.30000  1.33849e-10      7186.37
       618.40000  1.33849e-10      7182.35
       618.50000  1.51101e-10      8100.55
       618.60000  1.51101e-10      8085.44
       618.70000  1.51101e-10      8070.33
       618.80000  1.50949e-10      8051.64
       618.90000  1.50949e-10      8041.08
       619.00000  1.50949e-10      8033.53
       619.10000  1.50949e-10      8027.49
       619.20000  1.50949e-10      8024.47
       619.30000  1.50949e-10      8022.96
       619.40000  1.50949e-10      8022.96
       619.50000  1.23491e-10      6566.03
       619.60000  1.23491e-10      6589.49
       619.70000  1.23491e-10      6610.49
       619.80000  1.23491e-10      6629.01
       619.90000  1.23491e-10      6645.07
       620.00000  1.23491e-10      6657.42
       620.10000  1.23491e-10      6667.29
       620.20000  1.23491e-10      6674.70
       620.30000  1.23491e-10      6679.64
       620.40000  1.23491e-10      6680.88
       620.50000  3.18971e-10      17256.3
       620.60000  3.18971e-10      17186.2
       620.70000  3.18971e-10      17119.2
       620.80000  3.18971e-10      17061.8
       620.90000  3.18971e-10      17010.7
       621.00000  3.18971e-10      16966.1
       621.10000  3.18971e-10      16927.8
       621.20000  3.18971e-10      16899.1
       621.30000  3.18562e-10      16851.9
       621.40000  3.18562e-10      16832.8
       621.50000  2.38542e-10      12597.4
       621.60000  2.38542e-10      12640.3
       621.70000  2.38542e-10      12678.5
       621.80000  2.38542e-10      12709.5
       621.90000  2.38542e-10      12738.2
       622.00000  2.38542e-10      12759.6
       622.10000  2.38542e-10      12776.3
       622.20000  2.38542e-10      12785.9
       622.30000  2.38542e-10      12793.0
       622.40000  2.38542e-10      12793.0
       622.50000  1.02941e-10      5518.68
       622.60000  1.02941e-10      5514.56
       622.70000  1.02941e-10      5508.38
       622.80000  1.02941e-10      5500.15
       622.90000  1.02941e-10      5488.82
       623.00000  1.02941e-10      5476.47
       623.10000  1.02941e-10      5461.03
       623.20000  1.02941e-10      5442.50
       623.30000  1.02941e-10      5422.94
       623.40000  1.02941e-10      5400.29
       623.50000  1.15622e-11      603.893
       623.60000  1.15622e-11      603.777
       623.70000  1.15622e-11      603.777
       623.80000  1.15373e-11      602.247
       623.90000  1.15373e-11      602.132
       624.00000  1.15373e-11      601.901
       624.10000  1.15373e-11      601.555
       624.20000  1.15373e-11      601.208
       624.30000  1.15373e-11      600.862
       624.40000  1.15373e-11      600.401
       624.50000  9.38382e-11      4879.58
       624.60000  9.38382e-11      4860.82
       624.70000  9.38382e-11      4845.80
       624.80000  9.38382e-11      4832.67
       624.90000  9.38382e-11      4822.34
       625.00000  9.38382e-11      4814.84
       625.10000  9.38382e-11      4810.14
       625.20000  9.38382e-11      4807.33
       625.30000  9.38382e-11      4808.27
       625.40000  9.38382e-11      4811.08
       625.50000  1.56102e-10      8012.72
       625.60000  1.56102e-10      8025.21
       625.70000  1.56102e-10      8043.94
       625.80000  1.56102e-10      8065.80
       625.90000  1.56102e-10      8092.34
       626.00000  1.56102e-10      8123.56
       626.10000  1.56102e-10      8159.46
       626.20000  1.56102e-10      8198.49
       626.30000  1.55856e-10      8230.75
       626.40000  1.55856e-10      8279.07
       626.50000  7.45699e-11      3985.76
       626.60000  7.45699e-11      3986.51
       626.70000  7.45699e-11      3987.25
       626.80000  7.45699e-11      3988.00
       626.90000  7.45699e-11      3988.74
       627.00000  7.45699e-11      3989.49
       627.10000  7.45699e-11      3990.23
       627.20000  7.45699e-11      3990.23
       627.30000  7.45699e-11      3990.98
       627.40000  7.45699e-11      3991.73
       627.50000  1.18497e-10      6344.34
       627.60000  1.18497e-10      6349.08
       627.70000  1.18497e-10      6352.63
       627.80000  1.18497e-10      6355.00
       627.90000  1.18497e-10      6357.38
       628.00000  1.18497e-10      6358.56
       628.10000  1.18497e-10      6359.74
       628.20000  1.18497e-10      6359.74
       628.30000  1.18497e-10      6358.56
       628.40000  1.18497e-10      6357.38
       628.50000  2.84006e-11      1523.13
       628.60000  2.84006e-11      1522.27
       628.70000  2.84006e-11      1521.42
       628.80000  2.83406e-11      1517.07
       628.90000  2.83406e-11      1515.66
       629.00000  2.83406e-11      1514.24
       629.10000  2.83406e-11      1512.54
       629.20000  2.83406e-11      1510.84
       629.30000  2.83406e-11      1508.85
       629.40000  2.83406e-11      1506.59
       629.50000  4.80899e-11      2552.61
       629.60000  4.80899e-11      2547.32
       629.70000  4.80899e-11      2542.03
       629.80000  4.80899e-11      2537.22
       629.90000  4.80899e-11      2532.89
       630.00000  4.80899e-11      2528.57
       630.10000  4.80899e-11      2524.24
       630.20000  4.80899e-11      2520.87
       630.30000  4.80899e-11      2517.02
       630.40000  4.80899e-11      2514.14
       630.50000  4.51150e-11      2355.91
       630.60000  4.51150e-11      2353.20
       630.70000  4.51150e-11      2350.94
       630.80000  4.51150e-11      2349.14
       630.90000  4.51150e-11      2347.33
       631.00000  4.51150e-11      2345.98
       631.10000  4.51150e-11      2347.33
       631.20000  4.51150e-11      2348.69
       631.30000  4.51128e-11      2350.38
       631.40000  4.51128e-11      2351.73
       631.50000  1.53179e-10      7989.80
       631.60000  1.53179e-10      7994.40
       631.70000  1.53179e-10      7998.99
       631.80000  1.53179e-10      8002.06
       631.90000  1.53179e-10      8006.65
       632.00000  1.53179e-10      8011.25
       632.10000  1.53179e-10      8015.84
       632.20000  1.53179e-10      8018.90
       632.30000  1.53179e-10      8023.50
       632.40000  1.53179e-10      8028.10
       632.50000  5.07864e-12      266.273
       632.60000  5.07864e-12      266.375
       632.70000  5.07864e-12      266.527
       632.80000  5.07864e-12      266.629
       632.90000  5.07864e-12      266.730
       633.00000  5.07864e-12      266.883
       633.10000  5.07864e-12      266.984
       633.20000  5.07864e-12      267.086
       633.30000  5.07864e-12      267.187
       633.40000  5.07864e-12      267.289
       633.50000  2.07730e-11      1093.70
       633.60000  2.07730e-11      1094.11
       633.70000  2.07730e-11      1094.53
       633.80000  2.07698e-11      1094.57
       633.90000  2.07698e-11      1094.98
       634.00000  2.07698e-11      1095.40
       634.10000  2.07698e-11      1095.60
       634.20000  2.07698e-11      1096.02
       634.30000  2.07698e-11      1096.23
       634.40000  2.07698e-11      1096.64
       634.50000  1.03027e-10      5440.84
       634.60000  1.03027e-10      5441.87
       634.70000  1.03027e-10      5443.93
       634.80000  1.03027e-10      5444.96
       634.90000  1.03027e-10      5445.99
       635.00000  1.03027e-10      5447.02
       635.10000  1.03027e-10      5448.05
       635.20000  1.03027e-10      5448.05
       635.30000  1.03027e-10      5449.08
       635.40000  1.03027e-10      5449.08
       635.50000  1.30173e-10      6886.17
       635.60000  1.30173e-10      6887.47
       635.70000  1.30173e-10      6887.47
       635.80000  1.30173e-10      6888.77
       635.90000  1.30173e-10      6888.77
       636.00000  1.30173e-10      6890.07
       636.10000  1.30173e-10      6890.07
       636.20000  1.30173e-10      6891.38
       636.30000  1.29402e-10      6850.53
       636.40000  1.29402e-10      6851.83
       636.50000  1.91849e-10      10158.4
       636.60000  1.91849e-10      10160.3
       636.70000  1.91849e-10      10160.3
       636.80000  1.91849e-10      10162.2
       636.90000  1.91849e-10      10162.2
       637.00000  1.91849e-10      10162.2
       637.10000  1.91849e-10      10164.2
       637.20000  1.91849e-10      10164.2
       637.30000  1.91849e-10      10166.1
       637.40000  1.91849e-10      10166.1
       637.50000  7.00016e-11      3709.38
       637.60000  7.00016e-11      3710.08
       637.70000  7.00016e-11      3710.08
       637.80000  7.00016e-11      3710.78
       637.90000  7.00016e-11      3710.78
       638.00000  7.00016e-11      3710.78
       638.10000  7.00016e-11      3711.48
       638.20000  7.00016e-11      3711.48
       638.30000  7.00016e-11      3711.48
       638.40000  7.00016e-11      3712.18
       638.50000  1.14013e-12      60.4613
       638.60000  1.14013e-12      60.4613
       638.70000  1.14013e-12      60.4727
       638.80000  1.13266e-12      60.0761
       638.90000  1.13266e-12      60.0761
       639.00000  1.13266e-12      60.0761
       639.10000  1.13266e-12      59.9855
       639.20000  1.13266e-12      59.8949
       639.30000  1.13266e-12      59.8043
       639.40000  1.13266e-12      59.7250
       639.50000  6.88616e-11      3625.56
       639.60000  6.88616e-11      3621.43
       639.70000  6.88616e-11      3616.61
       639.80000  6.88616e-11      3612.48
       639.90000  6.88616e-11      3609.04
       640.00000  6.88616e-11      3604.91
       640.10000  6.88616e-11      3601.46
       640.20000  6.88616e-11      3598.71
       640.30000  6.88616e-11      3595.95
       640.40000  6.88616e-11      3593.20
       640.50000  7.89007e-11      4113.89
       640.60000  7.89007e-11      4111.52
       640.70000  7.89007e-11      4109.15
       640.80000  7.89007e-11      4107.57
       640.90000  7.89007e-11      4105.21
       641.00000  7.89007e-11      4104.42
       641.10000  7.89007e-11      4106.00
       641.20000  7.89007e-11      4107.57
       641.30000  7.83671e-11      4081.36
       641.40000  7.83671e-11      4082.92
       641.50000  8.35670e-11      4355.51
       641.60000  8.35670e-11      4357.19
       641.70000  8.35670e-11      4358.86
       641.80000  8.35670e-11      4360.53
       641.90000  8.35670e-11      4362.20
       642.00000  8.35670e-11      4363.87
       642.10000  8.35670e-11      4364.71
       642.20000  8.35670e-11      4366.38
       642.30000  8.35670e-11      4368.05
       642.40000  8.35670e-11      4369.72
       642.50000  3.62796e-11      1897.79
       642.60000  3.62796e-11      1898.51
       642.70000  3.62796e-11      1899.24
       642.80000  3.62796e-11      1899.96
       642.90000  3.62796e-11      1900.69
       643.00000  3.62796e-11      1901.41
       643.10000  3.62796e-11      1901.78
       643.20000  3.62796e-11      1902.50
       643.30000  3.62796e-11      1903.23
       643.40000  3.62796e-11      1903.95
       643.50000  1.38662e-13      7.27974
       643.60000  1.38662e-13      7.28252
       643.70000  1.38662e-13      7.28390
       643.80000  1.38477e-13      7.27697
       643.90000  1.38477e-13      7.27974
       644.00000  1.38477e-13      7.28251
       644.10000  1.38477e-13      7.28528
       644.20000  1.38477e-13      7.28667
       644.30000  1.38477e-13      7.28944
       644.40000  1.38477e-13      7.29220
       644.50000  2.40687e-11      1267.94
       644.60000  2.40687e-11      1268.18
       644.70000  2.40687e-11      1268.66
       644.80000  2.40687e-11      1269.14
       644.90000  2.40687e-11      1269.62
       645.00000  2.40687e-11      1269.86
       645.10000  2.40687e-11      1269.62
       645.20000  2.40687e-11      1269.14
       645.30000  2.40687e-11      1268.90
       645.40000  2.40687e-11      1268.42
       645.50000  2.04161e-11      1075.31
       645.60000  2.04161e-11      1074.91
       645.70000  2.04161e-11      1074.50
       645.80000  2.04161e-11      1073.88
       645.90000  2.04161e-11      1073.27
       646.00000  2.04161e-11      1072.66
       646.10000  2.04161e-11      1072.05
       646.20000  2.04161e-11      1071.43
       646.30000  2.04035e-11      1069.96
       646.40000  2.04035e-11      1069.15
       646.50000  2.64874e-11      1387.15
       646.60000  2.64874e-11      1385.82
       646.70000  2.64874e-11      1384.76
       646.80000  2.64874e-11      1383.70
       646.90000  2.64874e-11      1382.38
       647.00000  2.64874e-11      1381.32
       647.10000  2.64874e-11      1377.61
       647.20000  2.64874e-11      1374.17
       647.30000  2.64874e-11      1370.99
       647.40000  2.64874e-11      1367.81
       647.50000  4.36501e-11      2249.29
       647.60000  4.36501e-11      2245.36
       647.70000  4.36501e-11      2241.00
       647.80000  4.36501e-11      2237.51
       647.90000  4.36501e-11      2234.01
       648.00000  4.36501e-11      2230.96
       648.10000  4.36501e-11      2228.34
       648.20000  4.36501e-11      2226.16
       648.30000  4.36501e-11      2223.97
       648.40000  4.36501e-11      2222.23
       648.50000  2.46929e-11      1256.38
       648.60000  2.46929e-11      1255.88
       648.70000  2.46929e-11      1255.39
       648.80000  2.47185e-11      1256.44
       648.90000  2.47185e-11      1256.44
       649.00000  2.47185e-11      1256.69
       649.10000  2.47185e-11      1256.93
       649.20000  2.47185e-11      1257.68
       649.30000  2.47185e-11      1258.17
       649.40000  2.47185e-11      1259.16
       649.50000  3.46924e-11      1768.96
       649.60000  3.46924e-11      1770.70
       649.70000  3.46924e-11      1772.78
       649.80000  3.46924e-11      1775.21
       649.90000  3.46924e-11      1777.64
       650.00000  3.46924e-11      1780.41
       650.10000  3.46924e-11      1783.53
       650.20000  3.46924e-11      1787.00
       650.30000  3.46924e-11      1790.82
       650.40000  3.46924e-11      1794.64
       650.50000  1.19593e-10      6200.88
       650.60000  1.19593e-10      6216.42
       650.70000  1.19593e-10      6231.97
       650.80000  1.19593e-10      6249.91
       650.90000  1.19593e-10      6267.85
       651.00000  1.19593e-10      6286.98
       651.10000  1.19593e-10      6291.77
       651.20000  1.19593e-10      6296.55
       651.30000  1.19443e-10      6292.24
       651.40000  1.19443e-10      6295.82
       651.50000  1.04147e-10      5492.73
       651.60000  1.04147e-10      5493.77
       651.70000  1.04147e-10      5495.85
       651.80000  1.04147e-10      5496.89
       651.90000  1.04147e-10      5496.89
       652.00000  1.04147e-10      5496.89
       652.10000  1.04147e-10      5495.85
       652.20000  1.04147e-10      5494.81
       652.30000  1.04147e-10      5493.77
       652.40000  1.04147e-10      5491.68
       652.50000  4.75655e-11      2506.70
       652.60000  4.75655e-11      2505.28
       652.70000  4.75655e-11      2503.85
       652.80000  4.75655e-11      2501.47
       652.90000  4.75655e-11      2499.57
       653.00000  4.75655e-11      2497.19
       653.10000  4.75655e-11      2495.29
       653.20000  4.75655e-11      2493.39
       653.30000  4.75655e-11      2490.53
       653.40000  4.75655e-11      2487.68
       653.50000  4.09539e-11      2139.43
       653.60000  4.09539e-11      2136.56
       653.70000  4.09539e-11      2133.29
       653.80000  4.09040e-11      2127.01
       653.90000  4.09040e-11      2123.32
       654.00000  4.09040e-11      2119.23
       654.10000  4.09040e-11      2115.14
       654.20000  4.09040e-11      2110.24
       654.30000  4.09040e-11      2105.33
       654.40000  4.09040e-11      2100.42
       654.50000  1.13429e-10      5809.85
       654.60000  1.13429e-10      5793.97
       654.70000  1.13429e-10      5776.96
       654.80000  1.13429e-10      5759.94
       654.90000  1.13429e-10      5741.79
       655.00000  1.13429e-10      5722.51
       655.10000  1.13429e-10      5668.06
       655.20000  1.13429e-10      5615.89
       655.30000  1.13429e-10      5567.11
       655.40000  1.13429e-10      5521.74
       655.50000  6.07708e-11      2935.23
       655.60000  6.07708e-11      2913.96
       655.70000  6.07708e-11      2893.91
       655.80000  6.07708e-11      2875.67
       655.90000  6.07708e-11      2858.66
       656.00000  6.07708e-11      2843.47
       656.10000  6.07708e-11      2830.10
       656.20000  6.07708e-11      2817.94
       656.30000  6.07246e-11      2805.48
       656.40000  6.07246e-11      2796.37
       656.50000  5.66844e-12      260.352
       656.60000  5.66844e-12      259.841
       656.70000  5.66844e-12      259.445
       656.80000  5.66844e-12      259.218
       656.90000  5.66844e-12      259.104
       657.00000  5.66844e-12      259.161
       657.10000  5.66844e-12      261.372
       657.20000  5.66844e-12      263.526
       657.30000  5.66844e-12      265.623
       657.40000  5.66844e-12      267.664
       657.50000  3.31236e-11      1575.36
       657.60000  3.31236e-11      1586.62
       657.70000  3.31236e-11      1597.22
       657.80000  3.31236e-11      1607.49
       657.90000  3.31236e-11      1617.09
       658.00000  3.31236e-11      1626.70
       658.10000  3.31236e-11      1635.97
       658.20000  3.31236e-11      1644.59
       658.30000  3.31236e-11      1652.87
       658.40000  3.31236e-11      1660.82
       658.50000  5.63178e-11      2836.16
       658.60000  5.63178e-11      2848.55
       658.70000  5.63178e-11      2859.82
       658.80000  5.62593e-11      2868.10
       658.90000  5.62593e-11      2878.22
       659.00000  5.62593e-11      2887.23
       659.10000  5.62593e-11      2896.23
       659.20000  5.62593e-11      2904.67
       659.30000  5.62593e-11      2911.98
       659.40000  5.62593e-11      2918.73
       659.50000  5.08073e-11      2641.47
       659.60000  5.08073e-11      2646.55
       659.70000  5.08073e-11      2650.62
       659.80000  5.08073e-11      2654.68
       659.90000  5.08073e-11      2657.73
       660.00000  5.08073e-11      2660.27
       660.10000  5.08073e-11      2662.30
       660.20000  5.08073e-11      2663.32
       660.30000  5.08073e-11      2664.34
       660.40000  5.08073e-11      2664.34
       660.50000  8.56505e-12      449.066
       660.60000  8.56505e-12      448.894
       660.70000  8.56505e-12      448.637
       660.80000  8.56505e-12      448.209
       660.90000  8.56505e-12      447.781
       661.00000  8.56505e-12      447.181
       661.10000  8.56505e-12      446.924
       661.20000  8.56505e-12      446.582
       661.30000  8.54378e-12      445.217
       661.40000  8.54378e-12      444.960
       661.50000  6.92328e-11      3603.57
       661.60000  6.92328e-11      3602.18
       661.70000  6.92328e-11      3600.10
       661.80000  6.92328e-11      3598.72
       661.90000  6.92328e-11      3597.33
       662.00000  6.92328e-11      3595.95
       662.10000  6.92328e-11      3594.57
       662.20000  6.92328e-11      3593.18
       662.30000  6.92328e-11      3592.49
       662.40000  6.92328e-11      3591.80
       662.50000  4.77399e-11      2475.79
       662.60000  4.77399e-11      2475.79
       662.70000  4.77399e-11      2475.31
       662.80000  4.77399e-11      2474.84
       662.90000  4.77399e-11      2474.84
       663.00000  4.77399e-11      2474.84
       663.10000  4.77399e-11      2476.75
       663.20000  4.77399e-11      2478.18
       663.30000  4.77399e-11      2480.09
       663.40000  4.77399e-11      2481.52
       663.50000  4.59659e-11      2390.69
       663.60000  4.59659e-11      2392.07
       663.70000  4.59659e-11      2392.98
       663.80000  4.58679e-11      2389.26
       663.90000  4.58679e-11      2390.17
       664.00000  4.58679e-11      2390.63
       664.10000  4.58679e-11      2391.55
       664.20000  4.58679e-11      2392.01
       664.30000  4.58679e-11      2392.47
       664.40000  4.58679e-11      2392.93
       664.50000  3.59650e-11      1876.29
       664.60000  3.59650e-11      1876.29
       664.70000  3.59650e-11      1876.29
       664.80000  3.59650e-11      1876.29
       664.90000  3.59650e-11      1876.29
       665.00000  3.59650e-11      1875.93
       665.10000  3.59650e-11      1875.57
       665.20000  3.59650e-11      1875.21
       665.30000  3.59650e-11      1874.49
       665.40000  3.59650e-11      1873.77
       665.50000  2.65010e-11      1380.17
       665.60000  2.65010e-11      1379.64
       665.70000  2.65010e-11      1378.85
       665.80000  2.65010e-11      1378.32
       665.90000  2.65010e-11      1377.52
       666.00000  2.65010e-11      1376.46
       666.10000  2.65010e-11      1375.67
       666.20000  2.65010e-11      1374.61
       666.30000  2.64344e-11      1370.10
       666.40000  2.64344e-11      1369.04
       666.50000  3.41016e-11      1764.42
       666.60000  3.41016e-11      1762.71
       666.70000  3.41016e-11      1761.01
       666.80000  3.41016e-11      1759.30
       666.90000  3.41016e-11      1757.60
       667.00000  3.41016e-11      1755.55
       667.10000  3.41016e-11      1757.60
       667.20000  3.41016e-11      1759.30
       667.30000  3.41016e-11      1761.01
       667.40000  3.41016e-11      1762.71
       667.50000  1.25803e-11      650.905
       667.60000  1.25803e-11      651.408
       667.70000  1.25803e-11      651.911
       667.80000  1.25803e-11      652.289
       667.90000  1.25803e-11      652.666
       668.00000  1.25803e-11      653.043
       668.10000  1.25803e-11      653.421
       668.20000  1.25803e-11      653.672
       668.30000  1.25803e-11      653.924
       668.40000  1.25803e-11      654.050
       668.50000  4.31989e-11      2246.34
       668.60000  4.31989e-11      2246.77
       668.70000  4.31989e-11      2246.77
       668.80000  4.31282e-11      2243.10
       668.90000  4.31282e-11      2243.10
       669.00000  4.31282e-11      2242.67
       669.10000  4.31282e-11      2239.65
       669.20000  4.31282e-11      2236.63
       669.30000  4.31282e-11      2234.04
       669.40000  4.31282e-11      2231.45
       669.50000  4.52732e-11      2339.72
       669.60000  4.52732e-11      2337.00
       669.70000  4.52732e-11      2334.74
       669.80000  4.52732e-11      2332.47
       669.90000  4.52732e-11      2330.21
       670.00000  4.52732e-11      2328.40
       670.10000  4.52732e-11      2326.59
       670.20000  4.52732e-11      2324.78
       670.30000  4.52732e-11      2322.97
       670.40000  4.52732e-11      2321.61
       670.50000  5.23135e-11      2681.07
       670.60000  5.23135e-11      2679.50
       670.70000  5.23135e-11      2678.45
       670.80000  5.23135e-11      2677.41
       670.90000  5.23135e-11      2676.36
       671.00000  5.23135e-11      2675.84
       671.10000  5.23135e-11      2674.79
       671.20000  5.23135e-11      2674.79
       671.30000  5.23155e-11      2674.37
       671.40000  5.23155e-11      2674.37
       671.50000  3.67505e-11      1878.69
       671.60000  3.67505e-11      1878.69
       671.70000  3.67505e-11      1878.69
       671.80000  3.67505e-11      1879.05
       671.90000  3.67505e-11      1879.42
       672.00000  3.67505e-11      1880.16
       672.10000  3.67505e-11      1880.89
       672.20000  3.67505e-11      1881.63
       672.30000  3.67505e-11      1882.36
       672.40000  3.67505e-11      1883.46
       672.50000  5.59410e-11      2868.66
       672.60000  5.59410e-11      2870.33
       672.70000  5.59410e-11      2872.01
       672.80000  5.59410e-11      2874.25
       672.90000  5.59410e-11      2876.49
       673.00000  5.59410e-11      2879.28
       673.10000  5.59410e-11      2878.17
       673.20000  5.59410e-11      2877.05
       673.30000  5.59410e-11      2875.93
       673.40000  5.59410e-11      2875.37
       673.50000  3.06112e-11      1572.80
       673.60000  3.06112e-11      1572.50
       673.70000  3.06112e-11      1572.19
       673.80000  3.06234e-11      1572.21
       673.90000  3.06234e-11      1571.90
       674.00000  3.06234e-11      1571.59
       674.10000  3.06234e-11      1571.29
       674.20000  3.06234e-11      1570.98
       674.30000  3.06234e-11      1570.67
       674.40000  3.06234e-11      1570.37
       674.50000  1.65234e-11      847.155
       674.60000  1.65234e-11      847.155
       674.70000  1.65234e-11      846.990
       674.80000  1.65234e-11      846.990
       674.90000  1.65234e-11      846.825
       675.00000  1.65234e-11      846.825
       675.10000  1.65234e-11      846.990
       675.20000  1.65234e-11      847.155
       675.30000  1.65234e-11      847.320
       675.40000  1.65234e-11      847.485
       675.50000  2.79106e-11      1431.53
       675.60000  2.79106e-11      1431.81
       675.70000  2.79106e-11      1432.09
       675.80000  2.79106e-11      1432.09
       675.90000  2.79106e-11      1432.37
       676.00000  2.79106e-11      1432.37
       676.10000  2.79106e-11      1432.65
       676.20000  2.79106e-11      1432.65
       676.30000  2.78821e-11      1431.19
       676.40000  2.78821e-11      1431.19
       676.50000  2.71798e-11      1395.41
       676.60000  2.71798e-11      1395.41
       676.70000  2.71798e-11      1395.41
       676.80000  2.71798e-11      1395.14
       676.90000  2.71798e-11      1395.14
       677.00000  2.71798e-11      1395.14
       677.10000  2.71798e-11      1395.14
       677.20000  2.71798e-11      1394.87
       677.30000  2.71798e-11      1394.87
       677.40000  2.71798e-11      1394.59
       677.50000  6.84066e-12      350.994
       677.60000  6.84066e-12      350.926
       677.70000  6.84066e-12      350.926
       677.80000  6.84066e-12      350.857
       677.90000  6.84066e-12      350.789
       678.00000  6.84066e-12      350.720
       678.10000  6.84066e-12      350.652
       678.20000  6.84066e-12      350.584
       678.30000  6.84066e-12      350.515
       678.40000  6.84066e-12      350.447
       678.50000  4.89602e-11      2507.25
       678.60000  4.89602e-11      2506.76
       678.70000  4.89602e-11      2506.27
       678.80000  4.89565e-11      2505.10
       678.90000  4.89565e-11      2504.61
       679.00000  4.89565e-11      2503.63
       679.10000  4.89565e-11      2503.63
       679.20000  4.89565e-11      2504.12
       679.30000  4.89565e-11      2504.12
       679.40000  4.89565e-11      2504.12
       679.50000  4.70665e-11      2407.45
       679.60000  4.70665e-11      2407.45
       679.70000  4.70665e-11      2407.45
       679.80000  4.70665e-11      2407.45
       679.90000  4.70665e-11      2407.45
       680.00000  4.70665e-11      2406.98
       680.10000  4.70665e-11      2406.98
       680.20000  4.70665e-11      2406.98
       680.30000  4.70665e-11      2406.51
       680.40000  4.70665e-11      2406.51
       680.50000  1.44047e-11      736.370
       680.60000  1.44047e-11      736.370
       680.70000  1.44047e-11      736.226
       680.80000  1.44047e-11      736.082
       680.90000  1.44047e-11      735.938
       681.00000  1.44047e-11      735.938
       681.10000  1.44047e-11      735.794
       681.20000  1.44047e-11      735.650
       681.30000  1.44034e-11      735.581
       681.40000  1.44034e-11      735.437
       681.50000  1.98692e-11      1014.32
       681.60000  1.98692e-11      1014.12
       681.70000  1.98692e-11      1013.92
       681.80000  1.98692e-11      1013.53
       681.90000  1.98692e-11      1013.33
       682.00000  1.98692e-11      1013.13
       682.10000  1.98692e-11      1012.73
       682.20000  1.98692e-11      1012.33
       682.30000  1.98692e-11      1012.14
       682.40000  1.98692e-11      1011.74
       682.50000  4.28658e-11      2181.87
       682.60000  4.28658e-11      2181.01
       682.70000  4.28658e-11      2180.16
       682.80000  4.28658e-11      2179.30
       682.90000  4.28658e-11      2178.01
       683.00000  4.28658e-11      2177.15
       683.10000  4.28658e-11      2176.30
       683.20000  4.28658e-11      2175.01
       683.30000  4.28658e-11      2173.73
       683.40000  4.28658e-11      2172.44
       683.50000  2.00855e-11      1017.53
       683.60000  2.00855e-11      1016.93
       683.70000  2.00855e-11      1016.33
       683.80000  2.00701e-11      1014.75
       683.90000  2.00701e-11      1014.14
       684.00000  2.00701e-11      1013.54
       684.10000  2.00701e-11      1012.74
       684.20000  2.00701e-11      1012.14
       684.30000  2.00701e-11      1011.33
       684.40000  2.00701e-11      1010.73
       684.50000  3.41407e-11      1717.96
       684.60000  3.41407e-11      1716.59
       684.70000  3.41407e-11      1715.23
       684.80000  3.41407e-11      1713.86
       684.90000  3.41407e-11      1712.15
       685.00000  3.41407e-11      1710.79
       685.10000  3.41407e-11      1712.15
       685.20000  3.41407e-11      1713.86
       685.30000  3.41407e-11      1715.23
       685.40000  3.41407e-11      1716.25
       685.50000  3.88582e-11      1954.95
       685.60000  3.88582e-11      1956.51
       685.70000  3.88582e-11      1957.67
       685.80000  3.88582e-11      1958.84
       685.90000  3.88582e-11      1960.01
       686.00000  3.88582e-11      1961.17
       686.10000  3.88582e-11      1962.34
       686.20000  3.88582e-11      1963.12
       686.30000  3.88174e-11      1962.22
       686.40000  3.88174e-11      1962.99
       686.50000  5.32799e-11      2695.43
       686.60000  5.32799e-11      2696.50
       686.70000  5.32799e-11      2697.56
       686.80000  5.32799e-11      2698.10
       686.90000  5.32799e-11      2699.16
       687.00000  5.32799e-11      2699.69
       687.10000  5.32799e-11      2700.23
       687.20000  5.32799e-11      2700.23
       687.30000  5.32799e-11      2700.23
       687.40000  5.32799e-11      2700.23
       687.50000  4.20296e-11      2130.06
       687.60000  4.20296e-11      2130.06
       687.70000  4.20296e-11      2130.06
       687.80000  4.20296e-11      2130.06
       687.90000  4.20296e-11      2130.06
       688.00000  4.20296e-11      2129.64
       688.10000  4.20296e-11      2129.64
       688.20000  4.20296e-11      2129.64
       688.30000  4.20296e-11      2129.22
       688.40000  4.20296e-11      2129.22
       688.50000  2.37552e-11      1203.20
       688.60000  2.37552e-11      1202.96
       688.70000  2.37552e-11      1202.96
       688.80000  2.37249e-11      1201.19
       688.90000  2.37249e-11      1200.96
       689.00000  2.37249e-11      1200.72
       689.10000  2.37249e-11      1200.48
       689.20000  2.37249e-11      1200.24
       689.30000  2.37249e-11      1200.01
       689.40000  2.37249e-11      1199.77
       689.50000  6.27262e-12      317.144
       689.60000  6.27262e-12      317.081
       689.70000  6.27262e-12      316.955
       689.80000  6.27262e-12      316.893
       689.90000  6.27262e-12      316.830
       690.00000  6.27262e-12      316.704
       690.10000  6.27262e-12      316.579
       690.20000  6.27262e-12      316.516
       690.30000  6.27262e-12      316.391
       690.40000  6.27262e-12      316.265
       690.50000  3.07788e-11      1551.56
       690.60000  3.07788e-11      1550.94
       690.70000  3.07788e-11      1550.33
       690.80000  3.07788e-11      1549.71
       690.90000  3.07788e-11      1549.10
       691.00000  3.07788e-11      1548.48
       691.10000  3.07788e-11      1549.10
       691.20000  3.07788e-11      1549.40
       691.30000  3.07494e-11      1548.54
       691.40000  3.07494e-11      1548.85
       691.50000  3.01006e-11      1516.47
       691.60000  3.01006e-11      1517.07
       691.70000  3.01006e-11      1517.37
       691.80000  3.01006e-11      1517.67
       691.90000  3.01006e-11      1517.97
       692.00000  3.01006e-11      1517.97
       692.10000  3.01006e-11      1518.27
       692.20000  3.01006e-11      1518.57
       692.30000  3.01006e-11      1518.57
       692.40000  3.01006e-11      1518.57
       692.50000  2.95394e-11      1490.56
       692.60000  2.95394e-11      1490.56
       692.70000  2.95394e-11      1490.56
       692.80000  2.95394e-11      1490.56
       692.90000  2.95394e-11      1490.56
       693.00000  2.95394e-11      1490.26
       693.10000  2.95394e-11      1490.26
       693.20000  2.95394e-11      1489.96
       693.30000  2.95394e-11      1489.67
       693.40000  2.95394e-11      1489.37
       693.50000  2.96513e-11      1494.72
       693.60000  2.96513e-11      1494.43
       693.70000  2.96513e-11      1494.13
       693.80000  2.95337e-11      1487.91
       693.90000  2.95337e-11      1487.32
       694.00000  2.95337e-11      1487.02
       694.10000  2.95337e-11      1486.73
       694.20000  2.95337e-11      1486.14
       694.30000  2.95337e-11      1485.84
       694.40000  2.95337e-11      1485.25
       694.50000  2.47419e-11      1243.78
       694.60000  2.47419e-11      1243.53
       694.70000  2.47419e-11      1243.04
       694.80000  2.47419e-11      1242.54
       694.90000  2.47419e-11      1242.05
       695.00000  2.47419e-11      1241.55
       695.10000  2.47419e-11      1241.06
       695.20000  2.47419e-11      1240.56
       695.30000  2.47419e-11      1239.82
       695.40000  2.47419e-11      1239.32
       695.50000  3.78479e-11      1895.04
       695.60000  3.78479e-11      1893.91
       695.70000  3.78479e-11      1893.15
       695.80000  3.78479e-11      1892.02
       695.90000  3.78479e-11      1890.88
       696.00000  3.78479e-11      1890.12
       696.10000  3.78479e-11      1888.99
       696.20000  3.78479e-11      1887.85
       696.30000  3.78107e-11      1884.87
       696.40000  3.78107e-11      1883.73
       696.50000  3.20465e-12      159.560
       696.60000  3.20465e-12      159.464
       696.70000  3.20465e-12      159.335
       696.80000  3.20465e-12      159.239
       696.90000  3.20465e-12      159.143
       697.00000  3.20465e-12      159.015
       697.10000  3.20465e-12      159.239
       697.20000  3.20465e-12      159.399
       697.30000  3.20465e-12      159.592
       697.40000  3.20465e-12      159.752
       697.50000  2.72595e-11      1360.25
       697.60000  2.72595e-11      1361.34
       697.70000  2.72595e-11      1362.43
       697.80000  2.72595e-11      1363.25
       697.90000  2.72595e-11      1364.07
       698.00000  2.72595e-11      1364.61
       698.10000  2.72595e-11      1365.16
       698.20000  2.72595e-11      1365.70
       698.30000  2.72595e-11      1365.98
       698.40000  2.72595e-11      1366.25
       698.50000  1.61235e-11      808.270
       698.60000  1.61235e-11      808.270
       698.70000  1.61235e-11      808.109
       698.80000  1.60960e-11      806.568
       698.90000  1.60960e-11      806.407
       699.00000  1.60960e-11      806.085
       699.10000  1.60960e-11      804.637
       699.20000  1.60960e-11      803.027
       699.30000  1.60960e-11      801.740
       699.40000  1.60960e-11      800.291
       699.50000  1.59713e-11      792.816
       699.60000  1.59713e-11      791.538
       699.70000  1.59713e-11      790.420
       699.80000  1.59713e-11      789.302
       699.90000  1.59713e-11      788.184
       700.00000  1.59713e-11      787.226
       700.10000  1.59713e-11      786.268
       700.20000  1.59713e-11      785.310
       700.30000  1.59713e-11      784.511
       700.40000  1.59713e-11      783.712
       700.50000  8.96545e-12      439.486
       700.60000  8.96545e-12      439.128
       700.70000  8.96545e-12      438.769
       700.80000  8.96545e-12      438.500
       700.90000  8.96545e-12      438.231
       701.00000  8.96545e-12      437.962
       701.10000  8.96545e-12      437.872
       701.20000  8.96545e-12      437.783
       701.30000  8.95933e-12      437.395
       701.40000  8.95933e-12      437.395
       701.50000  1.77067e-11      864.442
       701.60000  1.77067e-11      864.442
       701.70000  1.77067e-11      864.442
       701.80000  1.77067e-11      864.619
       701.90000  1.77067e-11      864.619
       702.00000  1.77067e-11      864.796
       702.10000  1.77067e-11      865.150
       702.20000  1.77067e-11      865.327
       702.30000  1.77067e-11      865.681
       702.40000  1.77067e-11      865.858
       702.50000  2.57961e-11      1261.95
       702.60000  2.57961e-11      1262.72
       702.70000  2.57961e-11      1263.24
       702.80000  2.57961e-11      1264.01
       702.90000  2.57961e-11      1264.78
       703.00000  2.57961e-11      1265.56
       703.10000  2.57961e-11      1267.88
       703.20000  2.57961e-11      1270.20
       703.30000  2.57961e-11      1272.27
       703.40000  2.57961e-11      1274.33
       703.50000  1.38316e-11      684.247
       703.60000  1.38316e-11      685.354
       703.70000  1.38316e-11      686.184
       703.80000  1.37943e-11      685.303
       703.90000  1.37943e-11      686.130
       704.00000  1.37943e-11      686.820
       704.10000  1.37943e-11      687.648
       704.20000  1.37943e-11      688.338
       704.30000  1.37943e-11      688.889
       704.40000  1.37943e-11      689.441
       704.50000  1.55965e-11      780.139
       704.60000  1.55965e-11      780.763
       704.70000  1.55965e-11      781.231
       704.80000  1.55965e-11      781.543
       704.90000  1.55965e-11      782.011
       705.00000  1.55965e-11      782.323
       705.10000  1.55965e-11      782.479
       705.20000  1.55965e-11      782.635
       705.30000  1.55965e-11      782.791
       705.40000  1.55965e-11      782.947
       705.50000  2.00579e-11      1006.91
       705.60000  2.00579e-11      1006.91
       705.70000  2.00579e-11      1006.71
       705.80000  2.00579e-11      1006.51
       705.90000  2.00579e-11      1006.30
       706.00000  2.00579e-11      1005.90
       706.10000  2.00579e-11      1005.50
       706.20000  2.00579e-11      1004.90
       706.30000  2.00730e-11      1005.05
       706.40000  2.00730e-11      1004.45
       706.50000  7.37193e-13      36.8596
       706.60000  7.37193e-13      36.8302
       706.70000  7.37193e-13      36.8007
       706.80000  7.37193e-13      36.7638
       706.90000  7.37193e-13      36.7269
       707.00000  7.37193e-13      36.6901
       707.10000  7.37193e-13      36.6606
       707.20000  7.37193e-13      36.6385
       707.30000  7.37193e-13      36.6090
       707.40000  7.37193e-13      36.5869
       707.50000  6.67527e-12      331.094
       707.60000  6.67527e-12      330.893
       707.70000  6.67527e-12      330.760
       707.80000  6.67527e-12      330.560
       707.90000  6.67527e-12      330.426
       708.00000  6.67527e-12      330.293
       708.10000  6.67527e-12      330.159
       708.20000  6.67527e-12      330.026
       708.30000  6.67527e-12      329.892
       708.40000  6.67527e-12      329.759
       708.50000  1.66590e-11      822.790
       708.60000  1.66590e-11      822.456
       708.70000  1.66590e-11      822.290
       708.80000  1.66023e-11      819.324
       708.90000  1.66023e-11      819.158
       709.00000  1.66023e-11      819.158
       709.10000  1.66023e-11      819.490
       709.20000  1.66023e-11      819.822
       709.30000  1.66023e-11      819.988
       709.40000  1.66023e-11      820.320
       709.50000  2.66444e-11      1316.77
       709.60000  2.66444e-11      1317.30
       709.70000  2.66444e-11      1317.57
       709.80000  2.66444e-11      1317.83
       709.90000  2.66444e-11      1318.10
       710.00000  2.66444e-11      1318.36
       710.10000  2.66444e-11      1318.63
       710.20000  2.66444e-11      1318.90
       710.30000  2.66444e-11      1318.90
       710.40000  2.66444e-11      1319.16
       710.50000  9.24673e-12      457.806
       710.60000  9.24673e-12      457.806
       710.70000  9.24673e-12      457.806
       710.80000  9.24673e-12      457.806
       710.90000  9.24673e-12      457.806
       711.00000  9.24673e-12      457.806
       711.10000  9.24673e-12      457.806
       711.20000  9.24673e-12      457.713
       711.30000  9.24873e-12      457.812
       711.40000  9.24873e-12      457.720
       711.50000  1.27921e-11      632.951
       711.60000  1.27921e-11      632.823
       711.70000  1.27921e-11      632.695
       711.80000  1.27921e-11      632.567
       711.90000  1.27921e-11      632.439
       712.00000  1.27921e-11      632.183
       712.10000  1.27921e-11      632.055
       712.20000  1.27921e-11      631.800
       712.30000  1.27921e-11      631.672
       712.40000  1.27921e-11      631.416
       712.50000  1.98446e-11      979.132
       712.60000  1.98446e-11      978.735
       712.70000  1.98446e-11      978.140
       712.80000  1.98446e-11      977.743
       712.90000  1.98446e-11      977.346
       713.00000  1.98446e-11      976.750
       713.10000  1.98446e-11      976.750
       713.20000  1.98446e-11      976.750
       713.30000  1.98446e-11      976.750
       713.40000  1.98446e-11      976.552
       713.50000  2.98697e-12      146.989
       713.60000  2.98697e-12      146.989
       713.70000  2.98697e-12      146.959
       713.80000  2.98627e-12      146.924
       713.90000  2.98627e-12      146.895
       714.00000  2.98627e-12      146.895
       714.10000  2.98627e-12      146.865
       714.20000  2.98627e-12      146.835
       714.30000  2.98627e-12      146.835
       714.40000  2.98627e-12      146.805
       714.50000  1.08478e-11      533.168
       714.60000  1.08478e-11      533.059
       714.70000  1.08478e-11      533.059
       714.80000  1.08478e-11      532.951
       714.90000  1.08478e-11      532.842
       715.00000  1.08478e-11      532.734
       715.10000  1.08478e-11      532.625
       715.20000  1.08478e-11      532.625
       715.30000  1.08478e-11      532.625
       715.40000  1.08478e-11      532.517
       715.50000  1.67009e-11      819.679
       715.60000  1.67009e-11      819.512
       715.70000  1.67009e-11      819.345
       715.80000  1.67009e-11      819.178
       715.90000  1.67009e-11      819.011
       716.00000  1.67009e-11      818.677
       716.10000  1.67009e-11      818.510
       716.20000  1.67009e-11      818.176
       716.30000  1.66768e-11      816.663
       716.40000  1.66768e-11      816.330
       716.50000  1.24447e-11      608.918
       716.60000  1.24447e-11      608.669
       716.70000  1.24447e-11      608.420
       716.80000  1.24447e-11      608.047
       716.90000  1.24447e-11      607.798
       717.00000  1.24447e-11      607.425
       717.10000  1.24447e-11      607.051
       717.20000  1.24447e-11      606.678
       717.30000  1.24447e-11      606.305
       717.40000  1.24447e-11      605.931
       717.50000  7.21649e-12      351.155
       717.60000  7.21649e-12      350.866
       717.70000  7.21649e-12      350.649
       717.80000  7.21649e-12      350.361
       717.90000  7.21649e-12      350.072
       718.00000  7.21649e-12      349.783
       718.10000  7.21649e-12      349.495
       718.20000  7.21649e-12      349.206
       718.30000  7.21649e-12      348.917
       718.40000  7.21649e-12      348.557
       718.50000  9.32014e-12      449.790
       718.60000  9.32014e-12      449.324
       718.70000  9.32014e-12      448.858
       718.80000  9.28186e-12      446.550
       718.90000  9.28186e-12      446.086
       719.00000  9.28186e-12      445.622
       719.10000  9.28186e-12      445.622
       719.20000  9.28186e-12      445.622
       719.30000  9.28186e-12      445.622
       719.40000  9.28186e-12      445.715
       719.50000  1.25237e-11      601.389
       719.60000  1.25237e-11      601.514
       719.70000  1.25237e-11      601.514
       719.80000  1.25237e-11      601.640
       719.90000  1.25237e-11      601.765
       720.00000  1.25237e-11      602.015
       720.10000  1.25237e-11      602.141
       720.20000  1.25237e-11      602.266
       720.30000  1.25237e-11      602.516
       720.40000  1.25237e-11      602.642
       720.50000  7.02623e-12      338.243
       720.60000  7.02623e-12      338.383
       720.70000  7.02623e-12      338.524
       720.80000  7.02623e-12      338.664
       720.90000  7.02623e-12      338.875
       721.00000  7.02623e-12      339.016
       721.10000  7.02623e-12      339.367
       721.20000  7.02623e-12      339.718
       721.30000  7.01193e-12      339.377
       721.40000  7.01193e-12      339.658
       721.50000  1.28181e-11      621.549
       721.60000  1.28181e-11      622.061
       721.70000  1.28181e-11      622.574
       721.80000  1.28181e-11      623.215
       721.90000  1.28181e-11      623.728
       722.00000  1.28181e-11      624.112
       722.10000  1.28181e-11      624.625
       722.20000  1.28181e-11      625.138
       722.30000  1.28181e-11      625.522
       722.40000  1.28181e-11      625.907
       722.50000  5.28663e-12      258.305
       722.60000  5.28663e-12      258.516
       722.70000  5.28663e-12      258.622
       722.80000  5.28663e-12      258.780
       722.90000  5.28663e-12      258.939
       723.00000  5.28663e-12      259.045
       723.10000  5.28663e-12      259.203
       723.20000  5.28663e-12      259.309
       723.30000  5.28663e-12      259.415
       723.40000  5.28663e-12      259.521
       723.50000  4.51943e-12      221.949
       723.60000  4.51943e-12      221.994
       723.70000  4.51943e-12      222.085
       723.80000  4.50556e-12      221.448
       723.90000  4.50556e-12      221.494
       724.00000  4.50556e-12      221.539
       724.10000  4.50556e-12      221.584
       724.20000  4.50556e-12      221.629
       724.30000  4.50556e-12      221.674
       724.40000  4.50556e-12      221.719
       724.50000  4.81996e-12      237.190
       724.60000  4.81996e-12      237.190
       724.70000  4.81996e-12      237.190
       724.80000  4.81996e-12      237.190
       724.90000  4.81996e-12      237.190
       725.00000  4.81996e-12      237.190
       725.10000  4.81996e-12      237.287
       725.20000  4.81996e-12      237.383
       725.30000  4.81996e-12      237.431
       725.40000  4.81996e-12      237.528
       725.50000  1.36830e-12      67.4437
       725.60000  1.36830e-12      67.4574
       725.70000  1.36830e-12      67.4574
       725.80000  1.36830e-12      67.4710
       725.90000  1.36830e-12      67.4710
       726.00000  1.36830e-12      67.4710
       726.10000  1.36830e-12      67.4710
       726.20000  1.36830e-12      67.4710
       726.30000  1.36474e-12      67.2818
       726.40000  1.36474e-12      67.2682
       726.50000  4.35942e-12      214.832
       726.60000  4.35942e-12      214.789
       726.70000  4.35942e-12      214.745
       726.80000  4.35942e-12      214.658
       726.90000  4.35942e-12      214.571
       727.00000  4.35942e-12      214.484
       727.10000  4.35942e-12      214.178
       727.20000  4.35942e-12      213.873
       727.30000  4.35942e-12      213.568
       727.40000  4.35942e-12      213.307
       727.50000  9.13963e-12      446.654
       727.60000  9.13963e-12      446.105
       727.70000  9.13963e-12      445.648
       727.80000  9.13963e-12      445.191
       727.90000  9.13963e-12      444.735
       728.00000  9.13963e-12      444.369
       728.10000  9.13963e-12      444.003
       728.20000  9.13963e-12      443.638
       728.30000  9.13963e-12      443.272
       728.40000  9.13963e-12      442.998
       728.50000  6.84631e-13      33.1635
       728.60000  6.84631e-13      33.1498
       728.70000  6.84631e-13      33.1293
       728.80000  6.84775e-13      33.1294
       728.90000  6.84775e-13      33.1157
       729.00000  6.84775e-13      33.1089
       729.10000  6.84775e-13      33.1020
       729.20000  6.84775e-13      33.0952
       729.30000  6.84775e-13      33.0952
       729.40000  6.84775e-13      33.0883
       729.50000  4.77124e-12      230.594
       729.60000  4.77124e-12      230.594
       729.70000  4.77124e-12      230.642
       729.80000  4.77124e-12      230.689
       729.90000  4.77124e-12      230.785
       730.00000  4.77124e-12      230.880
       730.10000  4.77124e-12      230.976
       730.20000  4.77124e-12      231.071
       730.30000  4.77124e-12      231.214
       730.40000  4.77124e-12      231.357
       730.50000  4.07326e-12      197.635
       730.60000  4.07326e-12      197.798
       730.70000  4.07326e-12      197.961
       730.80000  4.07326e-12      198.124
       730.90000  4.07326e-12      198.327
       731.00000  4.07326e-12      198.531
       731.10000  4.07326e-12      198.490
       731.20000  4.07326e-12      198.449
       731.30000  4.07027e-12      198.263
       731.40000  4.07027e-12      198.263
       731.50000  4.37919e-12      213.267
       731.60000  4.37919e-12      213.223
       731.70000  4.37919e-12      213.179
       731.80000  4.37919e-12      213.179
       731.90000  4.37919e-12      213.135
       732.00000  4.37919e-12      213.092
       732.10000  4.37919e-12      213.048
       732.20000  4.37919e-12      213.004
       732.30000  4.37919e-12      213.004
       732.40000  4.37919e-12      212.960
       732.50000  6.99727e-12      340.207
       732.60000  6.99727e-12      340.137
       732.70000  6.99727e-12      340.067
       732.80000  6.99727e-12      339.997
       732.90000  6.99727e-12      339.927
       733.00000  6.99727e-12      339.857
       733.10000  6.99727e-12      339.787
       733.20000  6.99727e-12      339.647
       733.30000  6.99727e-12      339.577
       733.40000  6.99727e-12      339.437
       733.50000  7.58626e-12      367.934
       733.60000  7.58626e-12      367.858
       733.70000  7.58626e-12      367.706
       733.80000  7.57373e-12      367.023
       733.90000  7.57373e-12      366.947
       734.00000  7.57373e-12      366.872
       734.10000  7.57373e-12      366.796
       734.20000  7.57373e-12      366.720
       734.30000  7.57373e-12      366.644
       734.40000  7.57373e-12      366.644
       734.50000  2.82553e-13      13.6756
       734.60000  2.82553e-13      13.6728
       734.70000  2.82553e-13      13.6728
       734.80000  2.82553e-13      13.6699
       734.90000  2.82553e-13      13.6699
       735.00000  2.82553e-13      13.6671
       735.10000  2.82553e-13      13.6671
       735.20000  2.82553e-13      13.6671
       735.30000  2.82553e-13      13.6671
       735.40000  2.82553e-13      13.6643
       735.50000  2.88879e-13      13.9702
       735.60000  2.88879e-13      13.9702
       735.70000  2.88879e-13      13.9702
       735.80000  2.88879e-13      13.9731
       735.90000  2.88879e-13      13.9731
       736.00000  2.88879e-13      13.9731
       736.10000  2.88879e-13      13.9731
       736.20000  2.88879e-13      13.9760
       736.30000  2.88327e-13      13.9493
       736.40000  2.88327e-13      13.9521
       736.50000  6.44252e-12      311.753
       736.60000  6.44252e-12      311.818
       736.70000  6.44252e-12      311.882
       736.80000  6.44252e-12      311.882
       736.90000  6.44252e-12      311.947
       737.00000  6.44252e-12      312.011
       737.10000  6.44252e-12      311.689
       737.20000  6.44252e-12      311.302
       737.30000  6.44252e-12      310.980
       737.40000  6.44252e-12      310.658
       737.50000  3.33245e-12      160.491
       737.60000  3.33245e-12      160.324
       737.70000  3.33245e-12      160.158
       737.80000  3.33245e-12      159.991
       737.90000  3.33245e-12      159.858
       738.00000  3.33245e-12      159.691
       738.10000  3.33245e-12      159.524
       738.20000  3.33245e-12      159.358
       738.30000  3.33245e-12      159.225
       738.40000  3.33245e-12      159.091
       738.50000  4.81262e-12      229.514
       738.60000  4.81262e-12      229.321
       738.70000  4.81262e-12      229.129
       738.80000  4.79241e-12      227.975
       738.90000  4.79241e-12      227.783
       739.00000  4.79241e-12      227.591
       739.10000  4.79241e-12      227.208
       739.20000  4.79241e-12      226.873
       739.30000  4.79241e-12      226.585
       739.40000  4.79241e-12      226.297
       739.50000  2.57456e-13      12.1416
       739.60000  2.57456e-13      12.1288
       739.70000  2.57456e-13      12.1185
       739.80000  2.57456e-13      12.1056
       739.90000  2.57456e-13      12.0979
       740.00000  2.57456e-13      12.0876
       740.10000  2.57456e-13      12.0824
       740.20000  2.57456e-13      12.0747
       740.30000  2.57456e-13      12.0696
       740.40000  2.57456e-13      12.0670
       740.50000  2.49209e-13      11.6779
       740.60000  2.49209e-13      11.6754
       740.70000  2.49209e-13      11.6754
       740.80000  2.49209e-13      11.6754
       740.90000  2.49209e-13      11.6779
       741.00000  2.49209e-13      11.6804
       741.10000  2.49209e-13      11.6854
       741.20000  2.49209e-13      11.6904
       741.30000  2.49040e-13      11.6874
       741.40000  2.49040e-13      11.6949
       741.50000  6.42697e-13      30.2003
       741.60000  6.42697e-13      30.2260
       741.70000  6.42697e-13      30.2582
       741.80000  6.42697e-13      30.2839
       741.90000  6.42697e-13      30.3224
       742.00000  6.42697e-13      30.3546
       742.10000  6.42697e-13      30.3931
       742.20000  6.42697e-13      30.4381
       742.30000  6.42697e-13      30.4831
       742.40000  6.42697e-13      30.5281
       742.50000  1.19677e-12      56.9425
       742.60000  1.19677e-12      57.0382
       742.70000  1.19677e-12      57.1459
       742.80000  1.19677e-12      57.2536
       742.90000  1.19677e-12      57.3733
       743.00000  1.19677e-12      57.4930
       743.10000  1.19677e-12      57.4691
       743.20000  1.19677e-12      57.4571
       743.30000  1.19677e-12      57.4451
       743.40000  1.19677e-12      57.4212
       743.50000  3.72512e-12      178.694
       743.60000  3.72512e-12      178.657
       743.70000  3.72512e-12      178.620
       743.80000  3.72346e-12      178.503
       743.90000  3.72346e-12      178.465
       744.00000  3.72346e-12      178.428
       744.10000  3.72346e-12      178.428
       744.20000  3.72346e-12      178.391
       744.30000  3.72346e-12      178.391
       744.40000  3.72346e-12      178.391
       744.50000  1.54462e-12      73.9871
       744.60000  1.54462e-12      73.9871
       744.70000  1.54462e-12      73.9871
       744.80000  1.54462e-12      73.9871
       744.90000  1.54462e-12      74.0026
       745.00000  1.54462e-12      74.0026
       745.10000  1.54462e-12      74.0489
       745.20000  1.54462e-12      74.0952
       745.30000  1.54462e-12      74.1261
       745.40000  1.54462e-12      74.1725
       745.50000  5.69689e-12      273.679
       745.60000  5.69689e-12      273.793
       745.70000  5.69689e-12      273.907
       745.80000  5.69689e-12      274.021
       745.90000  5.69689e-12      274.078
       746.00000  5.69689e-12      274.191
       746.10000  5.69689e-12      274.248
       746.20000  5.69689e-12      274.305
       746.30000  5.67091e-12      273.111
       746.40000  5.67091e-12      273.168
       746.50000  3.16160e-12      152.326
       746.60000  3.16160e-12      152.326
       746.70000  3.16160e-12      152.358
       746.80000  3.16160e-12      152.358
       746.90000  3.16160e-12      152.358
       747.00000  3.16160e-12      152.358
       747.10000  3.16160e-12      152.263
       747.20000  3.16160e-12      152.200
       747.30000  3.16160e-12      152.136
       747.40000  3.16160e-12      152.073
       747.50000  1.35470e-12      65.1338
       747.60000  1.35470e-12      65.1067
       747.70000  1.35470e-12      65.0796
       747.80000  1.35470e-12      65.0525
       747.90000  1.35470e-12      65.0255
       748.00000  1.35470e-12      64.9984
       748.10000  1.35470e-12      64.9848
       748.20000  1.35470e-12      64.9577
       748.30000  1.35470e-12      64.9306
       748.40000  1.35470e-12      64.9171
       748.50000  5.51956e-12      264.387
       748.60000  5.51956e-12      264.276
       748.70000  5.51956e-12      264.221
       748.80000  5.50010e-12      263.180
       748.90000  5.50010e-12      263.125
       749.00000  5.50010e-12      263.070
       749.10000  5.50010e-12      262.960
       749.20000  5.50010e-12      262.905
       749.30000  5.50010e-12      262.850
       749.40000  5.50010e-12      262.795
       749.50000  4.03386e-12      192.697
       749.60000  4.03386e-12      192.657
       749.70000  4.03386e-12      192.576
       749.80000  4.03386e-12      192.536
       749.90000  4.03386e-12      192.536
       750.00000  4.03386e-12      192.496
       750.10000  4.03386e-12      192.455
       750.20000  4.03386e-12      192.415
       750.30000  4.03386e-12      192.375
       750.40000  4.03386e-12      192.375
       750.50000  6.84092e-13      32.6175
       750.60000  6.84092e-13      32.6107
       750.70000  6.84092e-13      32.6107
       750.80000  6.84092e-13      32.6038
       750.90000  6.84092e-13      32.6038
       751.00000  6.84092e-13      32.5970
       751.10000  6.84092e-13      32.5970
       751.20000  6.84092e-13      32.5970
       751.30000  6.82561e-13      32.5172
       751.40000  6.82561e-13      32.5172
       751.50000  2.65493e-13      12.6481
       751.60000  2.65493e-13      12.6481
       751.70000  2.65493e-13      12.6481
       751.80000  2.65493e-13      12.6481
       751.90000  2.65493e-13      12.6481
       752.00000  2.65493e-13      12.6481
       752.10000  2.65493e-13      12.6481
       752.20000  2.65493e-13      12.6481
       752.30000  2.65493e-13      12.6481
       752.40000  2.65493e-13      12.6481
       752.50000  2.38314e-12      113.557
       752.60000  2.38314e-12      113.557
       752.70000  2.38314e-12      113.557
       752.80000  2.38314e-12      113.581
       752.90000  2.38314e-12      113.581
       753.00000  2.38314e-12      113.604
       753.10000  2.38314e-12      113.604
       753.20000  2.38314e-12      113.604
       753.30000  2.38314e-12      113.604
       753.40000  2.38314e-12      113.604
       753.50000  9.97075e-13      47.5306
       753.60000  9.97075e-13      47.5306
       753.70000  9.97075e-13      47.5306
       753.80000  9.96572e-13      47.5066
       753.90000  9.96572e-13      47.5066
       754.00000  9.96572e-13      47.5066
       754.10000  9.96572e-13      47.5066
       754.20000  9.96572e-13      47.4966
       754.30000  9.96572e-13      47.4966
       754.40000  9.96572e-13      47.4966
       754.50000  2.51278e-12      119.759
       754.60000  2.51278e-12      119.759
       754.70000  2.51278e-12      119.734
       754.80000  2.51278e-12      119.734
       754.90000  2.51278e-12      119.709
       755.00000  2.51278e-12      119.709
       755.10000  2.51278e-12      119.684
       755.20000  2.51278e-12      119.684
       755.30000  2.51278e-12      119.659
       755.40000  2.51278e-12      119.659
       755.50000  1.15116e-12      54.8067
       755.60000  1.15116e-12      54.7952
       755.70000  1.15116e-12      54.7952
       755.80000  1.15116e-12      54.7837
       755.90000  1.15116e-12      54.7722
       756.00000  1.15116e-12      54.7722
       756.10000  1.15116e-12      54.7607
       756.20000  1.15116e-12      54.7492
       756.30000  1.14933e-12      54.6504
       756.40000  1.14933e-12      54.6504
       756.50000  6.67038e-12      317.110
       756.60000  6.67038e-12      317.043
       756.70000  6.67038e-12      316.976
       756.80000  6.67038e-12      316.976
       756.90000  6.67038e-12      316.910
       757.00000  6.67038e-12      316.843
       757.10000  6.67038e-12      316.776
       757.20000  6.67038e-12      316.710
       757.30000  6.67038e-12      316.710
       757.40000  6.67038e-12      316.643
       757.50000  5.31716e-12      252.352
       757.60000  5.31716e-12      252.299
       757.70000  5.31716e-12      252.246
       757.80000  5.31716e-12      252.193
       757.90000  5.31716e-12      252.140
       758.00000  5.31716e-12      252.140
       758.10000  5.31716e-12      252.087
       758.20000  5.31716e-12      252.033
       758.30000  5.31716e-12      251.980
       758.40000  5.31716e-12      251.927
       758.50000  2.98947e-12      141.611
       758.60000  2.98947e-12      141.581
       758.70000  2.98947e-12      141.551
       758.80000  2.98140e-12      141.140
       758.90000  2.98140e-12      141.110
       759.00000  2.98140e-12      141.080
       759.10000  2.98140e-12      141.080
       759.20000  2.98140e-12      141.050
       759.30000  2.98140e-12      141.050
       759.40000  2.98140e-12      141.020
       759.50000  1.59419e-12      75.4054
       759.60000  1.59419e-12      75.4054
       759.70000  1.59419e-12      75.3895
       759.80000  1.59419e-12      75.3895
       759.90000  1.59419e-12      75.3895
       760.00000  1.59419e-12      75.3895
       760.10000  1.59419e-12      75.3895
       760.20000  1.59419e-12      75.3895
       760.30000  1.59419e-12      75.4054
       760.40000  1.59419e-12      75.4054
       760.50000  1.55274e-13      7.34444
       760.60000  1.55274e-13      7.34600
       760.70000  1.55274e-13      7.34600
       760.80000  1.55274e-13      7.34755
       760.90000  1.55274e-13      7.34755
       761.00000  1.55274e-13      7.34910
       761.10000  1.55274e-13      7.35531
       761.20000  1.55274e-13      7.35997
       761.30000  1.54951e-13      7.34932
       761.40000  1.54951e-13      7.35397
       761.50000  5.29322e-13      25.1375
       761.60000  5.29322e-13      25.1481
       761.70000  5.29322e-13      25.1587
       761.80000  5.29322e-13      25.1693
       761.90000  5.29322e-13      25.1799
       762.00000  5.29322e-13      25.1852
       762.10000  5.29322e-13      25.1957
       762.20000  5.29322e-13      25.2010
       762.30000  5.29322e-13      25.2063
       762.40000  5.29322e-13      25.2063
       762.50000  2.83033e-13      13.4780
       762.60000  2.83033e-13      13.4809
       762.70000  2.83033e-13      13.4809
       762.80000  2.83033e-13      13.4780
       762.90000  2.83033e-13      13.4780
       763.00000  2.83033e-13      13.4752
       763.10000  2.83033e-13      13.4724
       763.20000  2.83033e-13      13.4696
       763.30000  2.83033e-13      13.4639
       763.40000  2.83033e-13      13.4582
       763.50000  2.56320e-13      12.1829
       763.60000  2.56320e-13      12.1778
       763.70000  2.56320e-13      12.1726
       763.80000  2.55664e-13      12.1338
       763.90000  2.55664e-13      12.1261
       764.00000  2.55664e-13      12.1185
       764.10000  2.55664e-13      12.1108
       764.20000  2.55664e-13      12.1006
       764.30000  2.55664e-13      12.0904
       764.40000  2.55664e-13      12.0801
       764.50000  5.76925e-13      27.2366
       764.60000  5.76925e-13      27.2135
       764.70000  5.76925e-13      27.1847
       764.80000  5.76925e-13      27.1558
       764.90000  5.76925e-13      27.1270
       765.00000  5.76925e-13      27.0924
       765.10000  5.76925e-13      27.0289
       765.20000  5.76925e-13      26.9655
       765.30000  5.76925e-13      26.9078
       765.40000  5.76925e-13      26.8501
       765.50000  2.75642e-12      128.036
       765.60000  2.75642e-12      127.815
       765.70000  2.75642e-12      127.567
       765.80000  2.75642e-12      127.374
       765.90000  2.75642e-12      127.181
       766.00000  2.75642e-12      126.988
       766.10000  2.75642e-12      126.823
       766.20000  2.75642e-12      126.657
       766.30000  2.75635e-12      126.516
       766.40000  2.75635e-12      126.406
       766.50000  1.17093e-12      53.6520
       766.60000  1.17093e-12      53.6051
       766.70000  1.17093e-12      53.5817
       766.80000  1.17093e-12      53.5466
       766.90000  1.17093e-12      53.5232
       767.00000  1.17093e-12      53.5115
       767.10000  1.17093e-12      53.5700
       767.20000  1.17093e-12      53.6403
       767.30000  1.17093e-12      53.6988
       767.40000  1.17093e-12      53.7574
       767.50000  1.32886e-12      61.0742
       767.60000  1.32886e-12      61.1407
       767.70000  1.32886e-12      61.2071
       767.80000  1.32886e-12      61.2603
       767.90000  1.32886e-12      61.3267
       768.00000  1.32886e-12      61.3799
       768.10000  1.32886e-12      61.4330
       768.20000  1.32886e-12      61.4862
       768.30000  1.32886e-12      61.5260
       768.40000  1.32886e-12      61.5792
       768.50000  1.01084e-12      46.8729
       768.60000  1.01084e-12      46.9032
       768.70000  1.01084e-12      46.9335
       768.80000  1.01031e-12      46.9389
       768.90000  1.01031e-12      46.9692
       769.00000  1.01031e-12      46.9894
       769.10000  1.01031e-12      47.0197
       769.20000  1.01031e-12      47.0399
       769.30000  1.01031e-12      47.0601
       769.40000  1.01031e-12      47.0804
       769.50000  2.09769e-12      97.7734
       769.60000  2.09769e-12      97.8153
       769.70000  2.09769e-12      97.8363
       769.80000  2.09769e-12      97.8783
       769.90000  2.09769e-12      97.8993
       770.00000  2.09769e-12      97.8993
       770.10000  2.09769e-12      97.9202
       770.20000  2.09769e-12      97.9412
       770.30000  2.09769e-12      97.9412
       770.40000  2.09769e-12      97.9412
       770.50000  1.82858e-12      85.3765
       770.60000  1.82858e-12      85.3765
       770.70000  1.82858e-12      85.3765
       770.80000  1.82858e-12      85.3765
       770.90000  1.82858e-12      85.3582
       771.00000  1.82858e-12      85.3399
       771.10000  1.82858e-12      85.4131
       771.20000  1.82858e-12      85.4679
       771.30000  1.82299e-12      85.2611
       771.40000  1.82299e-12      85.3158
       771.50000  4.69111e-12      219.685
       771.60000  4.69111e-12      219.779
       771.70000  4.69111e-12      219.919
       771.80000  4.69111e-12      220.013
       771.90000  4.69111e-12      220.060
       772.00000  4.69111e-12      220.154
       772.10000  4.69111e-12      220.201
       772.20000  4.69111e-12      220.248
       772.30000  4.69111e-12      220.295
       772.40000  4.69111e-12      220.342
       772.50000  3.73157e-12      175.272
       772.60000  3.73157e-12      175.272
       772.70000  3.73157e-12      175.272
       772.80000  3.73157e-12      175.235
       772.90000  3.73157e-12      175.235
       773.00000  3.73157e-12      175.197
       773.10000  3.73157e-12      174.973
       773.20000  3.73157e-12      174.787
       773.30000  3.73157e-12      174.563
       773.40000  3.73157e-12      174.376
       773.50000  3.02122e-12      141.030
       773.60000  3.02122e-12      140.910
       773.70000  3.02122e-12      140.789
       773.80000  3.00926e-12      140.111
       773.90000  3.00926e-12      139.991
       774.00000  3.00926e-12      139.871
       774.10000  3.00926e-12      139.780
       774.20000  3.00926e-12      139.690
       774.30000  3.00926e-12      139.630
       774.40000  3.00926e-12      139.540
       774.50000  1.69886e-13      7.87421
       774.60000  1.69886e-13      7.87251
       774.70000  1.69886e-13      7.86912
       774.80000  1.69886e-13      7.86742
       774.90000  1.69886e-13      7.86572
       775.00000  1.69886e-13      7.86402
       775.10000  1.69886e-13      7.86402
       775.20000  1.69886e-13      7.86402
       775.30000  1.69886e-13      7.86402
       775.40000  1.69886e-13      7.86402
       775.50000  2.80515e-12      129.878
       775.60000  2.80515e-12      129.906
       775.70000  2.80515e-12      129.935
       775.80000  2.80515e-12      129.963
       775.90000  2.80515e-12      130.019
       776.00000  2.80515e-12      130.075
       776.10000  2.80515e-12      130.131
       776.20000  2.80515e-12      130.215
       776.30000  2.79804e-12      129.969
       776.40000  2.79804e-12      130.053
       776.50000  1.04458e-12      48.5836
       776.60000  1.04458e-12      48.6254
       776.70000  1.04458e-12      48.6672
       776.80000  1.04458e-12      48.7090
       776.90000  1.04458e-12      48.7612
       777.00000  1.04458e-12      48.8030
       777.10000  1.04458e-12      48.7821
       777.20000  1.04458e-12      48.7717
       777.30000  1.04458e-12      48.7508
       777.40000  1.04458e-12      48.7299
       777.50000  2.37451e-12      110.723
       777.60000  2.37451e-12      110.700
       777.70000  2.37451e-12      110.652
       777.80000  2.37451e-12      110.628
       777.90000  2.37451e-12      110.605
       778.00000  2.37451e-12      110.557
       778.10000  2.37451e-12      110.533
       778.20000  2.37451e-12      110.510
       778.30000  2.37451e-12      110.486
       778.40000  2.37451e-12      110.462
       778.50000  5.63114e-13      26.1960
       778.60000  5.63114e-13      26.1904
       778.70000  5.63114e-13      26.1848
       778.80000  5.61687e-13      26.1185
       778.90000  5.61687e-13      26.1185
       779.00000  5.61687e-13      26.1128
       779.10000  5.61687e-13      26.1241
       779.20000  5.61687e-13      26.1297
       779.30000  5.61687e-13      26.1409
       779.40000  5.61687e-13      26.1465
       779.50000  2.19916e-12      102.393
       779.60000  2.19916e-12      102.415
       779.70000  2.19916e-12      102.437
       779.80000  2.19916e-12      102.459
       779.90000  2.19916e-12      102.481
       780.00000  2.19916e-12      102.503
       780.10000  2.19916e-12      102.503
       780.20000  2.19916e-12      102.525
       780.30000  2.19916e-12      102.525
       780.40000  2.19916e-12      102.525
       780.50000  1.85580e-12      86.5172
       780.60000  1.85580e-12      86.5172
       780.70000  1.85580e-12      86.5172
       780.80000  1.85580e-12      86.5172
       780.90000  1.85580e-12      86.5172
       781.00000  1.85580e-12      86.4986
       781.10000  1.85580e-12      86.4986
       781.20000  1.85580e-12      86.4801
       781.30000  1.84548e-12      85.9808
       781.40000  1.84548e-12      85.9624
       781.50000  5.11474e-12      238.193
       781.60000  5.11474e-12      238.142
       781.70000  5.11474e-12      238.091
       781.80000  5.11474e-12      238.040
       781.90000  5.11474e-12      237.938
       782.00000  5.11474e-12      237.886
       782.10000  5.11474e-12      237.784
       782.20000  5.11474e-12      237.682
       782.30000  5.11474e-12      237.631
       782.40000  5.11474e-12      237.528
       782.50000  5.29780e-13      24.5924
       782.60000  5.29780e-13      24.5765
       782.70000  5.29780e-13      24.5659
       782.80000  5.29780e-13      24.5553
       782.90000  5.29780e-13      24.5394
       783.00000  5.29780e-13      24.5288
       783.10000  5.29780e-13      24.5394
       783.20000  5.29780e-13      24.5500
       783.30000  5.29780e-13      24.5606
       783.40000  5.29780e-13      24.5659
       783.50000  6.23729e-12      289.348
       783.60000  6.23729e-12      289.472
       783.70000  6.23729e-12      289.535
       783.80000  6.20549e-12      288.183
       783.90000  6.20549e-12      288.307
       784.00000  6.20549e-12      288.369
       784.10000  6.20549e-12      288.431
       784.20000  6.20549e-12      288.555
       784.30000  6.20549e-12      288.617
       784.40000  6.20549e-12      288.679
       784.50000  1.81764e-14     0.845747
       784.60000  1.81764e-14     0.845929
       784.70000  1.81764e-14     0.846111
       784.80000  1.81764e-14     0.846293
       784.90000  1.81764e-14     0.846474
       785.00000  1.81764e-14     0.846474
       785.10000  1.81764e-14     0.846474
       785.20000  1.81764e-14     0.846474
       785.30000  1.81764e-14     0.846474
       785.40000  1.81764e-14     0.846474
       785.50000  4.36955e-12      203.490
       785.60000  4.36955e-12      203.490
       785.70000  4.36955e-12      203.490
       785.80000  4.36955e-12      203.490
       785.90000  4.36955e-12      203.490
       786.00000  4.36955e-12      203.490
       786.10000  4.36955e-12      203.490
       786.20000  4.36955e-12      203.490
       786.30000  4.36223e-12      203.149
       786.40000  4.36223e-12      203.149
       786.50000  8.99571e-12      418.930
       786.60000  8.99571e-12      418.930
       786.70000  8.99571e-12      418.930
       786.80000  8.99571e-12      418.930
       786.90000  8.99571e-12      418.930
       787.00000  8.99571e-12      418.930
       787.10000  8.99571e-12      418.930
       787.20000  8.99571e-12      418.930
       787.30000  8.99571e-12      418.930
       787.40000  8.99571e-12      418.930
       787.50000  4.62491e-12      215.382
       787.60000  4.62491e-12      215.382
       787.70000  4.62491e-12      215.382
       787.80000  4.62491e-12      215.382
       787.90000  4.62491e-12      215.382
       788.00000  4.62491e-12      215.382
       788.10000  4.62491e-12      215.382
       788.20000  4.62491e-12      215.382
       788.30000  4.62491e-12      215.382
       788.40000  4.62491e-12      215.382
       788.50000  8.92019e-13      41.5413
       788.60000  8.92019e-13      41.5413
       788.70000  8.92019e-13      41.5413
       788.80000  8.92175e-13      41.5486
       788.90000  8.92175e-13      41.5486
       789.00000  8.92175e-13      41.5486
       789.10000  8.92175e-13      41.5307
       789.20000  8.92175e-13      41.5040
       789.30000  8.92175e-13      41.4772
       789.40000  8.92175e-13      41.4594
       789.50000  5.19667e-12      241.333
       789.60000  5.19667e-12      241.177
       789.70000  5.19667e-12      241.074
       789.80000  5.19667e-12      240.918
       789.90000  5.19667e-12      240.762
       790.00000  5.19667e-12      240.658
       790.10000  5.19667e-12      240.502
       790.20000  5.19667e-12      240.398
       790.30000  5.19667e-12      240.242
       790.40000  5.19667e-12      240.138
       790.50000  1.76858e-12      81.6730
       790.60000  1.76858e-12      81.6199
       790.70000  1.76858e-12      81.5845
       790.80000  1.76858e-12      81.5315
       790.90000  1.76858e-12      81.4961
       791.00000  1.76858e-12      81.4430
       791.10000  1.76858e-12      81.3900
       791.20000  1.76858e-12      81.3546
       791.30000  1.76342e-12      81.0646
       791.40000  1.76342e-12      81.0117
       791.50000  2.90908e-12      133.556
       791.60000  2.90908e-12      133.469
       791.70000  2.90908e-12      133.411
       791.80000  2.90908e-12      133.323
       791.90000  2.90908e-12      133.265
       792.00000  2.90908e-12      133.178
       792.10000  2.90908e-12      133.120
       792.20000  2.90908e-12      133.061
       792.30000  2.90908e-12      132.974
       792.40000  2.90908e-12      132.916
       792.50000  8.88115e-13      40.5602
       792.60000  8.88115e-13      40.5425
       792.70000  8.88115e-13      40.5247
       792.80000  8.88115e-13      40.5069
       792.90000  8.88115e-13      40.4892
       793.00000  8.88115e-13      40.4714
       793.10000  8.88115e-13      40.4448
       793.20000  8.88115e-13      40.4092
       793.30000  8.88115e-13      40.3826
       793.40000  8.88115e-13      40.3560
       793.50000  1.99618e-12      90.6464
       793.60000  1.99618e-12      90.6064
       793.70000  1.99618e-12      90.5466
       793.80000  1.99048e-12      90.2683
       793.90000  1.99048e-12      90.2285
       794.00000  1.99048e-12      90.2086
       794.10000  1.99048e-12      90.1688
       794.20000  1.99048e-12      90.1688
       794.30000  1.99048e-12      90.1489
       794.40000  1.99048e-12      90.1489
       794.50000  4.53406e-12      205.347
       794.60000  4.53406e-12      205.347
       794.70000  4.53406e-12      205.393
       794.80000  4.53406e-12      205.393
       794.90000  4.53406e-12      205.438
       795.00000  4.53406e-12      205.529
       795.10000  4.53406e-12      205.846
       795.20000  4.53406e-12      206.163
       795.30000  4.53406e-12      206.481
       795.40000  4.53406e-12      206.798
       795.50000  3.60182e-12      164.495
       795.60000  3.60182e-12      164.711
       795.70000  3.60182e-12      164.891
       795.80000  3.60182e-12      165.071
       795.90000  3.60182e-12      165.251
       796.00000  3.60182e-12      165.395
       796.10000  3.60182e-12      165.540
       796.20000  3.60182e-12      165.684
       796.30000  3.59702e-12      165.571
       796.40000  3.59702e-12      165.679
       796.50000  2.60158e-12      119.907
       796.60000  2.60158e-12      119.959
       796.70000  2.60158e-12      120.011
       796.80000  2.60158e-12      120.037
       796.90000  2.60158e-12      120.063
       797.00000  2.60158e-12      120.089
       797.10000  2.60158e-12      120.115
       797.20000  2.60158e-12      120.115
       797.30000  2.60158e-12      120.115
       797.40000  2.60158e-12      120.089
       797.50000  1.81608e-12      83.8123
       797.60000  1.81608e-12      83.7941
       797.70000  1.81608e-12      83.7578
       797.80000  1.81608e-12      83.7215
       797.90000  1.81608e-12      83.6851
       798.00000  1.81608e-12      83.6307
       798.10000  1.81608e-12      83.5762
       798.20000  1.81608e-12      83.5217
       798.30000  1.81608e-12      83.4491
       798.40000  1.81608e-12      83.3764
       798.50000  4.83606e-12      221.830
       798.60000  4.83606e-12      221.588
       798.70000  4.83606e-12      221.346
       798.80000  4.82500e-12      220.599
       798.90000  4.82500e-12      220.310
       799.00000  4.82500e-12      220.020
       799.10000  4.82500e-12      220.165
       799.20000  4.82500e-12      220.358
       799.30000  4.82500e-12      220.551
       799.40000  4.82500e-12      220.696
       799.50000  8.30227e-12      379.995
       799.60000  8.30227e-12      380.244
       799.70000  8.30227e-12      380.493
       799.80000  8.30227e-12      380.659
       799.90000  8.30227e-12      380.825
       800.00000  8.30227e-12      380.991
       800.10000  8.30227e-12      381.157
       800.20000  8.30227e-12      381.323
       800.30000  8.30227e-12      381.489
       800.40000  8.30227e-12      381.572
       800.50000  2.07078e-12      95.1939
       800.60000  2.07078e-12      95.2146
       800.70000  2.07078e-12      95.2146
       800.80000  2.07078e-12      95.2353
       800.90000  2.07078e-12      95.2353
       801.00000  2.07078e-12      95.2353
       801.10000  2.07078e-12      95.1939
       801.20000  2.07078e-12      95.1524
       801.30000  2.06470e-12      94.8318
       801.40000  2.06470e-12      94.7905
       801.50000  3.14458e-12      144.305
       801.60000  3.14458e-12      144.242
       801.70000  3.14458e-12      144.179
       801.80000  3.14458e-12      144.116
       801.90000  3.14458e-12      144.053
       802.00000  3.14458e-12      143.990
       802.10000  3.14458e-12      143.927
       802.20000  3.14458e-12      143.865
       802.30000  3.14458e-12      143.802
       802.40000  3.14458e-12      143.739
       802.50000  3.17283e-12      144.967
       802.60000  3.17283e-12      144.903
       802.70000  3.17283e-12      144.840
       802.80000  3.17283e-12      144.745
       802.90000  3.17283e-12      144.681
       803.00000  3.17283e-12      144.618
       803.10000  3.17283e-12      144.554
       803.20000  3.17283e-12      144.491
       803.30000  3.17283e-12      144.427
       803.40000  3.17283e-12      144.332
       803.50000  3.21694e-12      146.274
       803.60000  3.21694e-12      146.210
       803.70000  3.21694e-12      146.145
       803.80000  3.20694e-12      145.627
       803.90000  3.20694e-12      145.531
       804.00000  3.20694e-12      145.467
       804.10000  3.20694e-12      145.403
       804.20000  3.20694e-12      145.339
       804.30000  3.20694e-12      145.242
       804.40000  3.20694e-12      145.178
       804.50000  4.29146e-12      194.188
       804.60000  4.29146e-12      194.060
       804.70000  4.29146e-12      193.974
       804.80000  4.29146e-12      193.888
       804.90000  4.29146e-12      193.759
       805.00000  4.29146e-12      193.673
       805.10000  4.29146e-12      193.845
       805.20000  4.29146e-12      194.060
       805.30000  4.29146e-12      194.188
       805.40000  4.29146e-12      194.360
       805.50000  2.43610e-12      110.404
       805.60000  2.43610e-12      110.477
       805.70000  2.43610e-12      110.550
       805.80000  2.43610e-12      110.599
       805.90000  2.43610e-12      110.648
       806.00000  2.43610e-12      110.696
       806.10000  2.43610e-12      110.721
       806.20000  2.43610e-12      110.745
       806.30000  2.43133e-12      110.553
       806.40000  2.43133e-12      110.577
       806.50000  2.71531e-12      123.492
       806.60000  2.71531e-12      123.492
       806.70000  2.71531e-12      123.465
       806.80000  2.71531e-12      123.465
       806.90000  2.71531e-12      123.438
       807.00000  2.71531e-12      123.384
       807.10000  2.71531e-12      123.166
       807.20000  2.71531e-12      122.922
       807.30000  2.71531e-12      122.705
       807.40000  2.71531e-12      122.515
       807.50000  6.95249e-13      31.3210
       807.60000  6.95249e-13      31.2723
       807.70000  6.95249e-13      31.2306
       807.80000  6.95249e-13      31.1958
       807.90000  6.95249e-13      31.1611
       808.00000  6.95249e-13      31.1263
       808.10000  6.95249e-13      31.0985
       808.20000  6.95249e-13      31.0707
       808.30000  6.95249e-13      31.0429
       808.40000  6.95249e-13      31.0220
       808.50000  2.61694e-12      116.715
       808.60000  2.61694e-12      116.663
       808.70000  2.61694e-12      116.611
       808.80000  2.61446e-12      116.474
       808.90000  2.61446e-12      116.448
       809.00000  2.61446e-12      116.448
       809.10000  2.61446e-12      116.448
       809.20000  2.61446e-12      116.474
       809.30000  2.61446e-12      116.501
       809.40000  2.61446e-12      116.527
       809.50000  4.69539e-13      20.9368
       809.60000  4.69539e-13      20.9508
       809.70000  4.69539e-13      20.9649
       809.80000  4.69539e-13      20.9790
       809.90000  4.69539e-13      20.9978
       810.00000  4.69539e-13      21.0166
       810.10000  4.69539e-13      21.0401
       810.20000  4.69539e-13      21.0635
       810.30000  4.69539e-13      21.0870
       810.40000  4.69539e-13      21.1152
       810.50000  4.66095e-12      209.929
       810.60000  4.66095e-12      210.209
       810.70000  4.66095e-12      210.582
       810.80000  4.66095e-12      210.955
       810.90000  4.66095e-12      211.327
       811.00000  4.66095e-12      211.747
       811.10000  4.66095e-12      211.794
       811.20000  4.66095e-12      211.887
       811.30000  4.65788e-12      211.794
       811.40000  4.65788e-12      211.887
       811.50000  2.69948e-12      122.826
       811.60000  2.69948e-12      122.853
       811.70000  2.69948e-12      122.880
       811.80000  2.69948e-12      122.907
       811.90000  2.69948e-12      122.934
       812.00000  2.69948e-12      122.961
       812.10000  2.69948e-12      122.961
       812.20000  2.69948e-12      122.988
       812.30000  2.69948e-12      123.015
       812.40000  2.69948e-12      123.015
       812.50000  9.93618e-13      45.2792
       812.60000  9.93618e-13      45.2891
       812.70000  9.93618e-13      45.2891
       812.80000  9.93618e-13      45.2891
       812.90000  9.93618e-13      45.2891
       813.00000  9.93618e-13      45.2891
       813.10000  9.93618e-13      45.2692
       813.20000  9.93618e-13      45.2593
       813.30000  9.93618e-13      45.2394
       813.40000  9.93618e-13      45.2295
       813.50000  3.39139e-12      154.308
       813.60000  3.39139e-12      154.274
       813.70000  3.39139e-12      154.241
       813.80000  3.39102e-12      154.190
       813.90000  3.39102e-12      154.156
       814.00000  3.39102e-12      154.088
       814.10000  3.39102e-12      154.054
       814.20000  3.39102e-12      154.020
       814.30000  3.39102e-12      153.986
       814.40000  3.39102e-12      153.986
       814.50000  3.13992e-12      142.553
       814.60000  3.13992e-12      142.521
       814.70000  3.13992e-12      142.490
       814.80000  3.13992e-12      142.458
       814.90000  3.13992e-12      142.458
       815.00000  3.13992e-12      142.427
       815.10000  3.13992e-12      142.553
       815.20000  3.13992e-12      142.647
       815.30000  3.13992e-12      142.741
       815.40000  3.13992e-12      142.804
       815.50000  2.33788e-12      106.397
       815.60000  2.33788e-12      106.420
       815.70000  2.33788e-12      106.467
       815.80000  2.33788e-12      106.467
       815.90000  2.33788e-12      106.491
       816.00000  2.33788e-12      106.491
       816.10000  2.33788e-12      106.491
       816.20000  2.33788e-12      106.467
       816.30000  2.33782e-12      106.441
       816.40000  2.33782e-12      106.418
       816.50000  2.34751e-12      106.812
       816.60000  2.34751e-12      106.765
       816.70000  2.34751e-12      106.694
       816.80000  2.34751e-12      106.624
       816.90000  2.34751e-12      106.554
       817.00000  2.34751e-12      106.460
       817.10000  2.34751e-12      106.131
       817.20000  2.34751e-12      105.826
       817.30000  2.34751e-12      105.544
       817.40000  2.34751e-12      105.262
       817.50000  1.89882e-13      8.49340
       817.60000  1.89882e-13      8.47441
       817.70000  1.89882e-13      8.45543
       817.80000  1.89882e-13      8.43644
       817.90000  1.89882e-13      8.42125
       818.00000  1.89882e-13      8.40416
       818.10000  1.89882e-13      8.39087
       818.20000  1.89882e-13      8.37757
       818.30000  1.89882e-13      8.36428
       818.40000  1.89882e-13      8.35479
       818.50000  2.71661e-12      119.368
       818.60000  2.71661e-12      119.259
       818.70000  2.71661e-12      119.150
       818.80000  2.71620e-12      119.024
       818.90000  2.71620e-12      118.969
       819.00000  2.71620e-12      118.888
       819.10000  2.71620e-12      118.861
       819.20000  2.71620e-12      118.834
       819.30000  2.71620e-12      118.806
       819.40000  2.71620e-12      118.806
       819.50000  7.84128e-13      34.3056
       819.60000  7.84128e-13      34.3134
       819.70000  7.84128e-13      34.3291
       819.80000  7.84128e-13      34.3526
       819.90000  7.84128e-13      34.3762
       820.00000  7.84128e-13      34.4075
       820.10000  7.84128e-13      34.4389
       820.20000  7.84128e-13      34.4781
       820.30000  7.84128e-13      34.5252
       820.40000  7.84128e-13      34.5722
       820.50000  7.37713e-14      3.25774
       820.60000  7.37713e-14      3.26290
       820.70000  7.37713e-14      3.26881
       820.80000  7.37713e-14      3.27471
       820.90000  7.37713e-14      3.28135
       821.00000  7.37713e-14      3.28872
       821.10000  7.37713e-14      3.28725
       821.20000  7.37713e-14      3.28651
       821.30000  7.39828e-14      3.29445
       821.40000  7.39828e-14      3.29371
       821.50000  2.92480e-12      130.154
       821.60000  2.92480e-12      130.124
       821.70000  2.92480e-12      130.095
       821.80000  2.92480e-12      130.037
       821.90000  2.92480e-12      130.007
       822.00000  2.92480e-12      129.978
       822.10000  2.92480e-12      129.978
       822.20000  2.92480e-12      129.949
       822.30000  2.92480e-12      129.920
       822.40000  2.92480e-12      129.920
       822.50000  1.63829e-12      72.7565
       822.60000  1.63829e-12      72.7565
       822.70000  1.63829e-12      72.7401
       822.80000  1.63829e-12      72.7401
       822.90000  1.63829e-12      72.7401
       823.00000  1.63829e-12      72.7401
       823.10000  1.63829e-12      72.7401
       823.20000  1.63829e-12      72.7401
       823.30000  1.63829e-12      72.7401
       823.40000  1.63829e-12      72.7401
       823.50000  3.33630e-12      148.165
       823.60000  3.33630e-12      148.165
       823.70000  3.33630e-12      148.198
       823.80000  3.34540e-12      148.603
       823.90000  3.34540e-12      148.636
       824.00000  3.34540e-12      148.670
       824.10000  3.34540e-12      148.703
       824.20000  3.34540e-12      148.737
       824.30000  3.34540e-12      148.770
       824.40000  3.34540e-12      148.837
       824.50000  1.86433e-12      82.9627
       824.60000  1.86433e-12      83.0000
       824.70000  1.86433e-12      83.0186
       824.80000  1.86433e-12      83.0559
       824.90000  1.86433e-12      83.0932
       825.00000  1.86433e-12      83.1305
       825.10000  1.86433e-12      83.1678
       825.20000  1.86433e-12      83.2051
       825.30000  1.86433e-12      83.2610
       825.40000  1.86433e-12      83.2983
       825.50000  1.58206e-12      70.7341
       825.60000  1.58206e-12      70.7657
       825.70000  1.58206e-12      70.8132
       825.80000  1.58206e-12      70.8607
       825.90000  1.58206e-12      70.9081
       826.00000  1.58206e-12      70.9556
       826.10000  1.58206e-12      71.0030
       826.20000  1.58206e-12      71.0347
       826.30000  1.58312e-12      71.1294
       826.40000  1.58312e-12      71.1610
       826.50000  4.22869e-13      19.0122
       826.60000  4.22869e-13      19.0207
       826.70000  4.22869e-13      19.0291
       826.80000  4.22869e-13      19.0333
       826.90000  4.22869e-13      19.0376
       827.00000  4.22869e-13      19.0418
       827.10000  4.22869e-13      19.0418
       827.20000  4.22869e-13      19.0460
       827.30000  4.22869e-13      19.0460
       827.40000  4.22869e-13      19.0460
       827.50000  2.86927e-12      129.232
       827.60000  2.86927e-12      129.232
       827.70000  2.86927e-12      129.203
       827.80000  2.86927e-12      129.174
       827.90000  2.86927e-12      129.146
       828.00000  2.86927e-12      129.117
       828.10000  2.86927e-12      129.031
       828.20000  2.86927e-12      128.916
       828.30000  2.86927e-12      128.801
       828.40000  2.86927e-12      128.687
       828.50000  7.16410e-13      32.1095
       828.60000  7.16410e-13      32.0808
       828.70000  7.16410e-13      32.0593
       828.80000  7.15829e-13      32.0119
       828.90000  7.15829e-13      31.9832
       829.00000  7.15829e-13      31.9618
       829.10000  7.15829e-13      31.9403
       829.20000  7.15829e-13      31.9188
       829.30000  7.15829e-13      31.8973
       829.40000  7.15829e-13      31.8759
       829.50000  1.88884e-12      84.0532
       829.60000  1.88884e-12      83.9966
       829.70000  1.88884e-12      83.9399
       829.80000  1.88884e-12      83.8832
       829.90000  1.88884e-12      83.8455
       830.00000  1.88884e-12      83.7888
       830.10000  1.88884e-12      83.7510
       830.20000  1.88884e-12      83.6943
       830.30000  1.88884e-12      83.6566
       830.40000  1.88884e-12      83.5999
       830.50000  8.35953e-13      36.9825
       830.60000  8.35953e-13      36.9658
       830.70000  8.35953e-13      36.9407
       830.80000  8.35953e-13      36.9240
       830.90000  8.35953e-13      36.9073
       831.00000  8.35953e-13      36.8906
       831.10000  8.35953e-13      36.8739
       831.20000  8.35953e-13      36.8572
       831.30000  8.38219e-13      36.9487
       831.40000  8.38219e-13      36.9319
       831.50000  1.32317e-12      58.2724
       831.60000  1.32317e-12      58.2592
       831.70000  1.32317e-12      58.2327
       831.80000  1.32317e-12      58.2063
       831.90000  1.32317e-12      58.1930
       832.00000  1.32317e-12      58.1798
       832.10000  1.32317e-12      58.1269
       832.20000  1.32317e-12      58.0740
       832.30000  1.32317e-12      58.0343
       832.40000  1.32317e-12      57.9946
       832.50000  1.02133e-12      44.7342
       832.60000  1.02133e-12      44.7138
       832.70000  1.02133e-12      44.6933
       832.80000  1.02133e-12      44.6627
       832.90000  1.02133e-12      44.6525
       833.00000  1.02133e-12      44.6321
       833.10000  1.02133e-12      44.6116
       833.20000  1.02133e-12      44.6014
       833.30000  1.02133e-12      44.5912
       833.40000  1.02133e-12      44.5810
       833.50000  6.65254e-13      29.0383
       833.60000  6.65254e-13      29.0317
       833.70000  6.65254e-13      29.0317
       833.80000  6.65949e-13      29.0620
       833.90000  6.65949e-13      29.0687
       834.00000  6.65949e-13      29.0687
       834.10000  6.65949e-13      29.1020
       834.20000  6.65949e-13      29.1286
       834.30000  6.65949e-13      29.1619
       834.40000  6.65949e-13      29.1885
       834.50000  1.10919e-12      48.6600
       834.60000  1.10919e-12      48.7043
       834.70000  1.10919e-12      48.7376
       834.80000  1.10919e-12      48.7709
       834.90000  1.10919e-12      48.8152
       835.00000  1.10919e-12      48.8485
       835.10000  1.10919e-12      48.8707
       835.20000  1.10919e-12      48.9040
       835.30000  1.10919e-12      48.9262
       835.40000  1.10919e-12      48.9483
       835.50000  5.17165e-13      22.8328
       835.60000  5.17165e-13      22.8432
       835.70000  5.17165e-13      22.8483
       835.80000  5.17165e-13      22.8587
       835.90000  5.17165e-13      22.8638
       836.00000  5.17165e-13      22.8690
       836.10000  5.17165e-13      22.8587
       836.20000  5.17165e-13      22.8535
       836.30000  5.16930e-13      22.8328
       836.40000  5.16930e-13      22.8276
       836.50000  2.79521e-13      12.3408
       836.60000  2.79521e-13      12.3352
       836.70000  2.79521e-13      12.3324
       836.80000  2.79521e-13      12.3297
       836.90000  2.79521e-13      12.3241
       837.00000  2.79521e-13      12.3213
       837.10000  2.79521e-13      12.3185
       837.20000  2.79521e-13      12.3157
       837.30000  2.79521e-13      12.3129
       837.40000  2.79521e-13      12.3101
       837.50000  4.22474e-12      186.015
       837.60000  4.22474e-12      185.973
       837.70000  4.22474e-12      185.931
       837.80000  4.22474e-12      185.889
       837.90000  4.22474e-12      185.889
       838.00000  4.22474e-12      185.846
       838.10000  4.22474e-12      185.804
       838.20000  4.22474e-12      185.804
       838.30000  4.22474e-12      185.804
       838.40000  4.22474e-12      185.804
       838.50000  6.42665e-14      2.82580
       838.60000  6.42665e-14      2.82580
       838.70000  6.42665e-14      2.82580
       838.80000  6.40722e-14      2.81661
       838.90000  6.40722e-14      2.81661
       839.00000  6.40722e-14      2.81661
       839.10000  6.40722e-14      2.81597
       839.20000  6.40722e-14      2.81597
       839.30000  6.40722e-14      2.81597
       839.40000  6.40722e-14      2.81533
       839.50000  5.17730e-13      22.7491
       839.60000  5.17730e-13      22.7491
       839.70000  5.17730e-13      22.7439
       839.80000  5.17730e-13      22.7439
       839.90000  5.17730e-13      22.7439
       840.00000  5.17730e-13      22.7387
       840.10000  5.17730e-13      22.7387
       840.20000  5.17730e-13      22.7387
       840.30000  5.17730e-13      22.7335
       840.40000  5.17730e-13      22.7335
       840.50000  8.76337e-13      38.4800
       840.60000  8.76337e-13      38.4712
       840.70000  8.76337e-13      38.4712
       840.80000  8.76337e-13      38.4712
       840.90000  8.76337e-13      38.4624
       841.00000  8.76337e-13      38.4624
       841.10000  8.76337e-13      38.4624
       841.20000  8.76337e-13      38.4624
       841.30000  8.76290e-13      38.4516
       841.40000  8.76290e-13      38.4516
       841.50000  2.46674e-12      108.241
       841.60000  2.46674e-12      108.216
       841.70000  2.46674e-12      108.216
       841.80000  2.46674e-12      108.216
       841.90000  2.46674e-12      108.191
       842.00000  2.46674e-12      108.191
       842.10000  2.46674e-12      108.093
       842.20000  2.46674e-12      108.019
       842.30000  2.46674e-12      107.945
       842.40000  2.46674e-12      107.846
       842.50000  1.16304e-12      50.8134
       842.60000  1.16304e-12      50.7901
       842.70000  1.16304e-12      50.7552
       842.80000  1.16304e-12      50.7320
       842.90000  1.16304e-12      50.6971
       843.00000  1.16304e-12      50.6738
       843.10000  1.16304e-12      50.6506
       843.20000  1.16304e-12      50.6273
       843.30000  1.16304e-12      50.6157
       843.40000  1.16304e-12      50.5924
       843.50000  1.74792e-12      76.0171
       843.60000  1.74792e-12      75.9997
       843.70000  1.74792e-12      75.9822
       843.80000  1.75044e-12      76.0742
       843.90000  1.75044e-12      76.0742
       844.00000  1.75044e-12      76.0567
       844.10000  1.75044e-12      76.1092
       844.20000  1.75044e-12      76.1442
       844.30000  1.75044e-12      76.1793
       844.40000  1.75044e-12      76.2143
       844.50000  8.71658e-13      37.9694
       844.60000  8.71658e-13      37.9869
       844.70000  8.71658e-13      37.9956
       844.80000  8.71658e-13      38.0130
       844.90000  8.71658e-13      38.0217
       845.00000  8.71658e-13      38.0392
       845.10000  8.71658e-13      38.0479
       845.20000  8.71658e-13      38.0566
       845.30000  8.71658e-13      38.0740
       845.40000  8.71658e-13      38.0828
       845.50000  7.96686e-13      34.8072
       845.60000  7.96686e-13      34.8152
       845.70000  7.96686e-13      34.8232
       845.80000  7.96686e-13      34.8311
       845.90000  7.96686e-13      34.8311
       846.00000  7.96686e-13      34.8391
       846.10000  7.96686e-13      34.8391
       846.20000  7.96686e-13      34.8391
       846.30000  7.98783e-13      34.9308
       846.40000  7.98783e-13      34.9388
       846.50000  3.38297e-13      14.7971
       846.60000  3.38297e-13      14.7937
       846.70000  3.38297e-13      14.7937
       846.80000  3.38297e-13      14.7937
       846.90000  3.38297e-13      14.7903
       847.00000  3.38297e-13      14.7903
       847.10000  3.38297e-13      14.7869
       847.20000  3.38297e-13      14.7869
       847.30000  3.38297e-13      14.7836
       847.40000  3.38297e-13      14.7802
       847.50000  9.55542e-13      41.7381
       847.60000  9.55542e-13      41.7285
       847.70000  9.55542e-13      41.7190
       847.80000  9.55542e-13      41.7094
       847.90000  9.55542e-13      41.6903
       848.00000  9.55542e-13      41.6807
       848.10000  9.55542e-13      41.4801
       848.20000  9.55542e-13      41.2985
       848.30000  9.55542e-13      41.1170
       848.40000  9.55542e-13      40.9450
       848.50000  7.45113e-13      31.8014
       848.60000  7.45113e-13      31.6897
       848.70000  7.45113e-13      31.5779
       848.80000  7.47957e-13      31.5937
       848.90000  7.47957e-13      31.4965
       849.00000  7.47957e-13      31.4067
       849.10000  7.47957e-13      31.3170
       849.20000  7.47957e-13      31.2422
       849.30000  7.47957e-13      31.1749
       849.40000  7.47957e-13      31.1075
       849.50000  7.08063e-11      2939.88
       849.60000  7.08063e-11      2934.92
       849.70000  7.08063e-11      2931.38
       849.80000  7.08063e-11      2927.84
       849.90000  7.08063e-11      2925.01
       850.00000  7.08063e-11      2922.88
       850.10000  7.08063e-11      2938.46
       850.20000  7.08063e-11      2953.33
       850.30000  7.08063e-11      2966.78
       850.40000  7.08063e-11      2978.82
       850.50000  4.15442e-11      1754.41
       850.60000  4.15442e-11      1760.23
       850.70000  4.15442e-11      1765.21
       850.80000  4.15442e-11      1769.78
       850.90000  4.15442e-11      1773.52
       851.00000  4.15442e-11      1776.85
       851.10000  4.15442e-11      1779.34
       851.20000  4.15442e-11      1781.42
       851.30000  4.15882e-11      1784.55
       851.40000  4.15882e-11      1784.97
       851.50000  3.21649e-11      1380.52
       851.60000  3.21649e-11      1379.87
       851.70000  3.21649e-11      1378.91
       851.80000  3.21649e-11      1377.30
       851.90000  3.21649e-11      1375.05
       852.00000  3.21649e-11      1372.48
       852.10000  3.21649e-11      1369.26
       852.20000  3.21649e-11      1365.72
       852.30000  3.21649e-11      1361.54
       852.40000  3.21649e-11      1357.04
       852.50000  2.55359e-11      1073.02
       852.60000  2.55359e-11      1068.68
       852.70000  2.55359e-11      1063.57
       852.80000  2.55359e-11      1058.46
       852.90000  2.55359e-11      1052.59
       853.00000  2.55359e-11      1046.46
       853.10000  2.55359e-11      1039.82
       853.20000  2.55359e-11      1032.93
       853.30000  2.55359e-11      1025.52
       853.40000  2.55359e-11      1017.86
       853.50000  3.03355e-11      1199.47
       853.60000  3.03355e-11      1189.15
       853.70000  3.03355e-11      1178.53
       853.80000  3.03760e-11      1168.87
       853.90000  3.03760e-11      1157.33
       854.00000  3.03760e-11      1145.18
       854.10000  3.03760e-11      1153.68
       854.20000  3.03760e-11      1162.19
       854.30000  3.03760e-11      1170.39
       854.40000  3.03760e-11      1178.29
       854.50000  3.39905e-11      1326.99
       854.60000  3.39905e-11      1335.49
       854.70000  3.39905e-11      1343.64
       854.80000  3.39905e-11      1351.46
       854.90000  3.39905e-11      1359.28
       855.00000  3.39905e-11      1366.76
       855.10000  3.39905e-11      1373.90
       855.20000  3.39905e-11      1380.69
       855.30000  3.39905e-11      1387.49
       855.40000  3.39905e-11      1393.61
       855.50000  2.60266e-11      1072.04
       855.60000  2.60266e-11      1076.46
       855.70000  2.60266e-11      1080.88
       855.80000  2.60266e-11      1085.05
       855.90000  2.60266e-11      1088.95
       856.00000  2.60266e-11      1092.60
       856.10000  2.60266e-11      1095.46
       856.20000  2.60266e-11      1098.06
       856.30000  2.60558e-11      1101.90
       856.40000  2.60558e-11      1104.51
       856.50000  3.84215e-11      1632.14
       856.60000  3.84215e-11      1635.60
       856.70000  3.84215e-11      1638.68
       856.80000  3.84215e-11      1641.75
       856.90000  3.84215e-11      1644.44
       857.00000  3.84215e-11      1647.13
       857.10000  3.84215e-11      1649.82
       857.20000  3.84215e-11      1652.12
       857.30000  3.84215e-11      1654.43
       857.40000  3.84215e-11      1656.35
       857.50000  2.09256e-11      903.150
       857.60000  2.09256e-11      904.196
       857.70000  2.09256e-11      905.033
       857.80000  2.09256e-11      905.870
       857.90000  2.09256e-11      906.498
       858.00000  2.09256e-11      907.335
       858.10000  2.09256e-11      907.753
       858.20000  2.09256e-11      908.172
       858.30000  2.09256e-11      908.591
       858.40000  2.09256e-11      908.800
       858.50000  6.83826e-11      2970.54
       858.60000  6.83826e-11      2971.22
       858.70000  6.83826e-11      2971.22
       858.80000  6.85895e-11      2980.21
       858.90000  6.85895e-11      2979.53
       859.00000  6.85895e-11      2978.84
       859.10000  6.85895e-11      2978.16
       859.20000  6.85895e-11      2976.78
       859.30000  6.85895e-11      2975.41
       859.40000  6.85895e-11      2973.35
       859.50000  1.43648e-11      622.283
       859.60000  1.43648e-11      621.852
       859.70000  1.43648e-11      621.277
       859.80000  1.43648e-11      620.559
       859.90000  1.43648e-11      619.984
       860.00000  1.43648e-11      619.266
       860.10000  1.43648e-11      619.122
       860.20000  1.43648e-11      618.979
       860.30000  1.43648e-11      618.979
       860.40000  1.43648e-11      618.979
       860.50000  3.24022e-11      1395.89
       860.60000  3.24022e-11      1395.89
       860.70000  3.24022e-11      1395.89
       860.80000  3.24022e-11      1395.89
       860.90000  3.24022e-11      1395.89
       861.00000  3.24022e-11      1395.89
       861.10000  3.24022e-11      1395.89
       861.20000  3.24022e-11      1395.89
       861.30000  3.25087e-11      1400.48
       861.40000  3.25087e-11      1400.80
       861.50000  4.31724e-11      1860.30
       861.60000  4.31724e-11      1860.30
       861.70000  4.31724e-11      1860.73
       861.80000  4.31724e-11      1861.16
       861.90000  4.31724e-11      1861.16
       862.00000  4.31724e-11      1861.59
       862.10000  4.31724e-11      1867.64
       862.20000  4.31724e-11      1872.82
       862.30000  4.31724e-11      1877.57
       862.40000  4.31724e-11      1881.88
       862.50000  4.16293e-11      1817.95
       862.60000  4.16293e-11      1820.86
       862.70000  4.16293e-11      1823.36
       862.80000  4.16293e-11      1825.44
       862.90000  4.16293e-11      1826.69
       863.00000  4.16293e-11      1827.53
       863.10000  4.16293e-11      1827.94
       863.20000  4.16293e-11      1827.94
       863.30000  4.16293e-11      1827.11
       863.40000  4.16293e-11      1825.86
       863.50000  3.42051e-11      1498.87
       863.60000  3.42051e-11      1496.82
       863.70000  3.42051e-11      1494.42
       863.80000  3.43008e-11      1495.86
       863.90000  3.43008e-11      1492.77
       864.00000  3.43008e-11      1489.00
       864.10000  3.43008e-11      1484.88
       864.20000  3.43008e-11      1480.42
       864.30000  3.43008e-11      1475.28
       864.40000  3.43008e-11      1470.13
       864.50000  1.68479e-11      719.068
       864.60000  1.68479e-11      716.036
       864.70000  1.68479e-11      712.666
       864.80000  1.68479e-11      709.297
       864.90000  1.68479e-11      705.422
       865.00000  1.68479e-11      701.547
       865.10000  1.68479e-11      697.335
       865.20000  1.68479e-11      692.954
       865.30000  1.68479e-11      688.405
       865.40000  1.68479e-11      683.519
       865.50000  2.79123e-11      1124.03
       865.60000  2.79123e-11      1115.38
       865.70000  2.79123e-11      1106.44
       865.80000  2.79123e-11      1096.95
       865.90000  2.79123e-11      1087.18
       866.00000  2.79123e-11      1077.14
       866.10000  2.79123e-11      1081.04
       866.20000  2.79123e-11      1084.67
       866.30000  2.79948e-11      1091.80
       866.40000  2.79948e-11      1095.44
       866.50000  2.31300e-11      908.086
       866.60000  2.31300e-11      911.092
       866.70000  2.31300e-11      914.099
       866.80000  2.31300e-11      917.106
       866.90000  2.31300e-11      919.882
       867.00000  2.31300e-11      922.657
       867.10000  2.31300e-11      925.433
       867.20000  2.31300e-11      928.209
       867.30000  2.31300e-11      930.984
       867.40000  2.31300e-11      933.529
       867.50000  3.64289e-11      1474.28
       867.60000  3.64289e-11      1478.28
       867.70000  3.64289e-11      1482.29
       867.80000  3.64289e-11      1486.30
       867.90000  3.64289e-11      1489.94
       868.00000  3.64289e-11      1493.58
       868.10000  3.64289e-11      1497.59
       868.20000  3.64289e-11      1501.60
       868.30000  3.64289e-11      1505.24
       868.40000  3.64289e-11      1508.88
       868.50000  9.22629e-12      383.076
       868.60000  9.22629e-12      383.906
       868.70000  9.22629e-12      384.829
       868.80000  9.24941e-12      386.533
       868.90000  9.24941e-12      387.365
       869.00000  9.24941e-12      388.105
       869.10000  9.24941e-12      388.845
       869.20000  9.24941e-12      389.585
       869.30000  9.24941e-12      390.325
       869.40000  9.24941e-12      390.972
       869.50000  1.48173e-11      627.365
       869.60000  1.48173e-11      628.254
       869.70000  1.48173e-11      629.143
       869.80000  1.48173e-11      630.032
       869.90000  1.48173e-11      630.921
       870.00000  1.48173e-11      631.810
       870.10000  1.48173e-11      632.551
       870.20000  1.48173e-11      633.292
       870.30000  1.48173e-11      633.885
       870.40000  1.48173e-11      634.477
       870.50000  2.94910e-12      126.398
       870.60000  2.94910e-12      126.516
       870.70000  2.94910e-12      126.605
       870.80000  2.94910e-12      126.723
       870.90000  2.94910e-12      126.782
       871.00000  2.94910e-12      126.870
       871.10000  2.94910e-12      126.929
       871.20000  2.94910e-12      126.988
       871.30000  2.96625e-12      127.786
       871.40000  2.96625e-12      127.816
       871.50000  2.28239e-11      983.711
       871.60000  2.28239e-11      983.939
       871.70000  2.28239e-11      983.939
       871.80000  2.28239e-11      984.167
       871.90000  2.28239e-11      983.939
       872.00000  2.28239e-11      983.939
       872.10000  2.28239e-11      983.254
       872.20000  2.28239e-11      982.798
       872.30000  2.28239e-11      982.113
       872.40000  2.28239e-11      981.656
       872.50000  7.00655e-12      301.141
       872.60000  7.00655e-12      301.001
       872.70000  7.00655e-12      300.861
       872.80000  7.00655e-12      300.721
       872.90000  7.00655e-12      300.511
       873.00000  7.00655e-12      300.371
       873.10000  7.00655e-12      300.231
       873.20000  7.00655e-12      300.090
       873.30000  7.00655e-12      299.950
       873.40000  7.00655e-12      299.810
       873.50000  1.67995e-12      71.8514
       873.60000  1.67995e-12      71.8178
       873.70000  1.67995e-12      71.7842
       873.80000  1.68882e-12      72.1465
       873.90000  1.68882e-12      72.1127
       874.00000  1.68882e-12      72.0789
       877.00000  3.10406e-11      1323.88
       877.10000  3.10406e-11      1324.81
       877.20000  3.10406e-11      1325.74
       877.30000  3.10406e-11      1326.67
       877.40000  3.10406e-11      1327.92
       877.50000  7.68466e-11      3290.57
       877.60000  7.68466e-11      3293.64
       877.70000  7.68466e-11      3296.72
       877.80000  7.68466e-11      3299.79
       877.90000  7.68466e-11      3303.63
       878.00000  7.68466e-11      3307.48
       878.10000  7.68466e-11      3302.87
       878.20000  7.68466e-11      3299.02
       878.30000  7.68466e-11      3295.18
       878.40000  7.68466e-11      3291.34
       878.50000  1.73292e-11      741.343
       878.60000  1.73292e-11      740.650
       878.70000  1.73292e-11      739.784
       878.80000  1.74070e-11      742.407
       878.90000  1.74070e-11      741.711
       879.00000  1.74070e-11      741.015
       883.00000  1.47745e-11      628.213
       883.10000  1.47745e-11      628.509
       883.20000  1.47745e-11      628.804
       883.30000  1.47745e-11      628.952
       883.40000  1.47745e-11      629.100
       883.50000  3.74173e-11      1593.60
       883.60000  3.74173e-11      1593.60
       883.70000  3.74173e-11      1593.60
       883.80000  3.75536e-11      1599.41
       883.90000  3.75536e-11      1599.03
       884.00000  3.75536e-11      1598.66
       886.00000  8.92495e-11      3730.63
       888.00000  7.28152e-11      3069.89
       890.00000  7.24042e-11      3087.32
       890.10000  7.24042e-11      3085.14
       890.20000  7.24042e-11      3082.97
       890.30000  7.24042e-11      3080.80
       890.40000  7.24042e-11      3078.63
       890.50000  1.09916e-10      4670.33
       890.60000  1.09916e-10      4667.04
       890.70000  1.09916e-10      4663.74
       890.80000  1.09916e-10      4660.44
       890.90000  1.09916e-10      4657.14
       891.00000  1.09916e-10      4654.95
       893.00000  3.00182e-11      1260.76
       899.00000  2.85113e-11      1194.05
       899.10000  2.85113e-11      1192.91
       899.20000  2.85113e-11      1191.77
       899.30000  2.85113e-11      1190.63
       899.40000  2.85113e-11      1189.49
       899.50000  2.88829e-10      12038.4
       899.60000  2.88829e-10      12023.9
       899.70000  2.88829e-10      12012.4
       899.80000  2.88829e-10      11997.9
       899.90000  2.88829e-10      11983.5
       900.00000  2.88829e-10      11969.1
       900.10000  2.88829e-10      11934.4
       900.20000  2.88829e-10      11905.5
       900.30000  2.88829e-10      11873.8
       900.40000  2.88829e-10      11847.8
       900.50000  2.33958e-10      9575.92
       900.60000  2.33958e-10      9557.20
       900.70000  2.33958e-10      9538.48
       900.80000  2.33958e-10      9524.45
       900.90000  2.33958e-10      9510.41
       901.00000  2.33958e-10      9496.37
       901.10000  2.33958e-10      9487.01
       901.20000  2.33958e-10      9477.65
       901.30000  2.34911e-10      9506.86
       901.40000  2.34911e-10      9502.16
       901.50000  2.79301e-10      11292.1
       901.60000  2.79301e-10      11289.3
       901.70000  2.79301e-10      11286.5
       901.80000  2.79301e-10      11286.5
       901.90000  2.79301e-10      11289.3
       902.00000  2.79301e-10      11294.9
       902.10000  2.79301e-10      11334.0
       902.20000  2.79301e-10      11370.3
       902.30000  2.79301e-10      11406.6
       902.40000  2.79301e-10      11440.2
       902.50000  2.27943e-10      9363.92
       902.60000  2.27943e-10      9388.99
       902.70000  2.27943e-10      9414.07
       902.80000  2.27943e-10      9436.86
       902.90000  2.27943e-10      9459.65
       903.00000  2.27943e-10      9480.17
       903.10000  2.27943e-10      9500.68
       903.20000  2.27943e-10      9518.92
       903.30000  2.27943e-10      9534.88
       903.40000  2.27943e-10      9550.83
       903.50000  2.27838e-10      9560.08
       903.60000  2.27838e-10      9573.75
       903.70000  2.27838e-10      9587.42
       903.80000  2.29045e-10      9647.37
       903.90000  2.29045e-10      9658.82
       904.00000  2.29045e-10      9665.69
       904.10000  2.29045e-10      9672.56
       904.20000  2.29045e-10      9679.43
       904.30000  2.29045e-10      9684.01
       904.40000  2.29045e-10      9686.30
       904.50000  1.47490e-10      6238.85
       904.60000  1.47490e-10      6240.32
       904.70000  1.47490e-10      6240.32
       904.80000  1.47490e-10      6238.85
       904.90000  1.47490e-10      6237.37
       905.00000  1.47490e-10      6234.42
       905.10000  1.47490e-10      6231.47
       905.20000  1.47490e-10      6227.05
       905.30000  1.47490e-10      6222.62
       905.40000  1.47490e-10      6216.72
       905.50000  1.65429e-10      6964.56
       905.60000  1.65429e-10      6956.29
       905.70000  1.65429e-10      6948.02
       905.80000  1.65429e-10      6938.09
       905.90000  1.65429e-10      6926.51
       906.00000  1.65429e-10      6914.93
       906.10000  1.65429e-10      6908.32
       906.20000  1.65429e-10      6903.35
       906.30000  1.66192e-10      6930.22
       906.40000  1.66192e-10      6923.58
       906.50000  2.57178e-10      10706.3
       906.60000  2.57178e-10      10698.6
       906.70000  2.57178e-10      10690.9
       906.80000  2.57178e-10      10683.2
       906.90000  2.57178e-10      10675.4
       907.00000  2.57178e-10      10667.7
       907.10000  2.57178e-10      10660.0
       907.20000  2.57178e-10      10652.3
       907.30000  2.57178e-10      10644.6
       907.40000  2.57178e-10      10636.9
       907.50000  1.15893e-10      4789.86
       907.60000  1.15893e-10      4787.55
       907.70000  1.15893e-10      4784.07
       907.80000  1.15893e-10      4780.59
       907.90000  1.15893e-10      4778.27
       908.00000  1.15893e-10      4774.80
       908.10000  1.15893e-10      4770.16
       908.20000  1.15893e-10      4766.68
       908.30000  1.15893e-10      4762.05
       908.40000  1.15893e-10      4758.57
       908.50000  1.89265e-10      7765.55
       908.60000  1.89265e-10      7759.87
       908.70000  1.89265e-10      7756.08
       908.80000  1.89916e-10      7777.06
       908.90000  1.89916e-10      7773.26
       909.00000  1.89916e-10      7769.46
       909.10000  1.89916e-10      7765.66
       909.20000  1.89916e-10      7761.86
       909.30000  1.89916e-10      7758.07
       909.40000  1.89916e-10      7756.17
       909.50000  1.30834e-10      5341.95
       909.60000  1.30834e-10      5340.64
       909.70000  1.30834e-10      5339.33
       909.80000  1.30834e-10      5338.02
       909.90000  1.30834e-10      5338.02
       910.00000  1.30834e-10      5336.71
       910.10000  1.30834e-10      5336.71
       910.20000  1.30834e-10      5336.71
       910.30000  1.30834e-10      5338.02
       910.40000  1.30834e-10      5338.02
       910.50000  1.44739e-10      5906.81
       910.60000  1.44739e-10      5906.81
       910.70000  1.44739e-10      5908.26
       910.80000  1.44739e-10      5911.16
       910.90000  1.44739e-10      5912.60
       911.00000  1.44739e-10      5914.05
       911.10000  1.44739e-10      5916.95
       911.20000  1.44739e-10      5919.84
       911.30000  1.44873e-10      5928.22
       911.40000  1.44873e-10      5931.12
       911.50000  1.69573e-10      6947.41
       911.60000  1.69573e-10      6950.80
       911.70000  1.69573e-10      6955.89
       911.80000  1.69573e-10      6960.98
       911.90000  1.69573e-10      6966.06
       912.00000  1.69573e-10      6972.85
       912.10000  1.69573e-10      6981.32
       912.20000  1.69573e-10      6988.11
       912.30000  1.69573e-10      6994.89
       912.40000  1.69573e-10      7001.67
       912.50000  1.38122e-10      5708.57
       912.60000  1.38122e-10      5714.09
       912.70000  1.38122e-10      5719.62
       912.80000  1.38122e-10      5723.76
       912.90000  1.38122e-10      5727.90
       913.00000  1.38122e-10      5732.05
       913.10000  1.38122e-10      5736.19
       913.20000  1.38122e-10      5738.95
       913.30000  1.38122e-10      5743.10
       913.40000  1.38122e-10      5745.86
       913.50000  1.93004e-10      8032.83
       913.60000  1.93004e-10      8036.69
       913.70000  1.93004e-10      8038.62
       913.80000  1.94034e-10      8083.44
       913.90000  1.94034e-10      8087.32
       914.00000  1.94034e-10      8089.26
       914.10000  1.94034e-10      8085.38
       914.20000  1.94034e-10      8083.44
       914.30000  1.94034e-10      8081.50
       914.40000  1.94034e-10      8079.56
       914.50000  2.08199e-10      8667.31
       914.60000  2.08199e-10      8663.15
       914.70000  2.08199e-10      8661.06
       914.80000  2.08199e-10      8658.98
       914.90000  2.08199e-10      8656.90
       915.00000  2.08199e-10      8654.82
       915.10000  2.08199e-10      8652.74
       915.20000  2.08199e-10      8650.65
       915.30000  2.08199e-10      8648.57
       915.40000  2.08199e-10      8646.49
       915.50000  1.32700e-10      5509.70
       915.60000  1.32700e-10      5508.37
       915.70000  1.32700e-10      5507.04
       915.80000  1.32700e-10      5505.72
       915.90000  1.32700e-10      5504.39
       916.00000  1.32700e-10      5503.06
       916.10000  1.32700e-10      5501.74
       916.20000  1.32700e-10      5500.41
       916.30000  1.33647e-10      5538.31
       916.40000  1.33647e-10      5536.98
       916.50000  1.03385e-10      4282.19
       916.60000  1.03385e-10      4282.19
       916.70000  1.03385e-10      4281.15
       916.80000  1.03385e-10      4280.12
       916.90000  1.03385e-10      4279.09
       917.00000  1.03385e-10      4278.05
       917.10000  1.03385e-10      4278.05
       917.20000  1.03385e-10      4277.02
       917.30000  1.03385e-10      4275.98
       917.40000  1.03385e-10      4274.95
       917.50000  8.95985e-11      3704.90
       917.60000  8.95985e-11      3704.00
       917.70000  8.95985e-11      3703.11
       917.80000  8.95985e-11      3703.11
       917.90000  8.95985e-11      3702.21
       918.00000  8.95985e-11      3701.31
       918.10000  8.95985e-11      3703.11
       918.20000  8.95985e-11      3704.90
       918.30000  8.95985e-11      3706.69
       918.40000  8.95985e-11      3707.59
       918.50000  1.21287e-10      5020.05
       918.60000  1.21287e-10      5021.26
       918.70000  1.21287e-10      5021.26
       918.80000  1.22415e-10      5067.99
       918.90000  1.22415e-10      5067.99
       919.00000  1.22415e-10      5067.99
       919.10000  1.22415e-10      5066.76
       919.20000  1.22415e-10      5065.54
       919.30000  1.22415e-10      5064.31
       919.40000  1.22415e-10      5061.87
       919.50000  8.17468e-11      3378.59
       919.60000  8.17468e-11      3376.96
       919.70000  8.17468e-11      3375.32
       919.80000  8.17468e-11      3372.87
       919.90000  8.17468e-11      3371.24
       920.00000  8.17468e-11      3368.78
       920.10000  8.17468e-11      3361.43
       920.20000  8.17468e-11      3354.89
       920.30000  8.17468e-11      3348.35
       920.40000  8.17468e-11      3341.81
       920.50000  1.14165e-10      4657.94
       920.60000  1.14165e-10      4649.95
       920.70000  1.14165e-10      4641.96
       920.80000  1.14165e-10      4635.11
       920.90000  1.14165e-10      4627.11
       921.00000  1.14165e-10      4620.26
       921.10000  1.14165e-10      4613.42
       921.20000  1.14165e-10      4607.71
       921.30000  1.14637e-10      4619.88
       921.40000  1.14637e-10      4614.15
       921.50000  1.01478e-10      4079.44
       921.60000  1.01478e-10      4075.38
       921.70000  1.01478e-10      4071.32
       921.80000  1.01478e-10      4067.26
       921.90000  1.01478e-10      4063.20
       922.00000  1.01478e-10      4060.15
       922.10000  1.01478e-10      4056.10
       922.20000  1.01478e-10      4054.07
       922.30000  1.01478e-10      4051.02
       922.40000  1.01478e-10      4048.99
       922.50000  1.46906e-10      5857.14
       922.60000  1.46906e-10      5855.68
       922.70000  1.46906e-10      5852.74
       922.80000  1.46906e-10      5851.27
       922.90000  1.46906e-10      5849.80
       923.00000  1.46906e-10      5848.33
       923.10000  1.46906e-10      5848.33
       923.20000  1.46906e-10      5846.86
       923.30000  1.46906e-10      5846.86
       923.40000  1.46906e-10      5848.33
       923.50000  1.24724e-10      4965.27
       923.60000  1.24724e-10      4966.51
       923.70000  1.24724e-10      4967.76
       923.80000  1.25007e-10      4981.52
       923.90000  1.25007e-10      4982.77
       924.00000  1.25007e-10      4985.27
       924.10000  1.25007e-10      4985.27
       924.20000  1.25007e-10      4985.27
       924.30000  1.25007e-10      4985.27
       924.40000  1.25007e-10      4985.27
       924.50000  1.11930e-10      4463.76
       924.60000  1.11930e-10      4463.76
       924.70000  1.11930e-10      4464.88
       924.80000  1.11930e-10      4466.00
       924.90000  1.11930e-10      4466.00
       925.00000  1.11930e-10      4467.12
       925.10000  1.11930e-10      4469.35
       925.20000  1.11930e-10      4470.47
       925.30000  1.11930e-10      4471.59
       925.40000  1.11930e-10      4473.83
       925.50000  1.14524e-10      4579.81
       925.60000  1.14524e-10      4582.11
       925.70000  1.14524e-10      4584.40
       925.80000  1.14524e-10      4586.69
       925.90000  1.14524e-10      4588.98
       926.00000  1.14524e-10      4592.41
       926.10000  1.14524e-10      4599.28
       926.20000  1.14524e-10      4607.30
       926.30000  1.14999e-10      4633.31
       926.40000  1.14999e-10      4640.21
       926.50000  1.24828e-10      5044.32
       926.60000  1.24828e-10      5050.56
       926.70000  1.24828e-10      5056.80
       926.80000  1.24828e-10      5063.04
       926.90000  1.24828e-10      5069.28
       927.00000  1.24828e-10      5074.28
       927.10000  1.24828e-10      5079.27
       927.20000  1.24828e-10      5084.26
       927.30000  1.24828e-10      5088.01
       927.40000  1.24828e-10      5091.75
       927.50000  1.41899e-10      5792.33
       927.60000  1.41899e-10      5795.17
       927.70000  1.41899e-10      5799.43
       927.80000  1.41899e-10      5802.27
       927.90000  1.41899e-10      5803.69
       928.00000  1.41899e-10      5805.10
       928.10000  1.41899e-10      5802.27
       928.20000  1.41899e-10      5799.43
       928.30000  1.41899e-10      5795.17
       928.40000  1.41899e-10      5792.33
       928.50000  1.04065e-10      4245.84
       928.60000  1.04065e-10      4243.75
       928.70000  1.04065e-10      4241.67
       928.80000  1.04548e-10      4259.29
       928.90000  1.04548e-10      4257.20
       929.00000  1.04548e-10      4256.16
       929.10000  1.04548e-10      4254.07
       929.20000  1.04548e-10      4251.97
       929.30000  1.04548e-10      4250.93
       929.40000  1.04548e-10      4248.84
       929.50000  9.95119e-11      4043.17
       929.60000  9.95119e-11      4042.17
       929.70000  9.95119e-11      4040.18
       929.80000  9.95119e-11      4039.19
       929.90000  9.95119e-11      4038.19
       930.00000  9.95119e-11      4037.20
       930.10000  9.95119e-11      4037.20
       930.20000  9.95119e-11      4037.20
       930.30000  9.95119e-11      4036.20
       930.40000  9.95119e-11      4036.20
       930.50000  9.17375e-11      3720.87
       930.60000  9.17375e-11      3720.87
       930.70000  9.17375e-11      3719.95
       930.80000  9.17375e-11      3719.95
       930.90000  9.17375e-11      3719.95
       931.00000  9.17375e-11      3719.95
       931.10000  9.17375e-11      3719.95
       931.20000  9.17375e-11      3719.04
       931.30000  9.21509e-11      3735.80
       931.40000  9.21509e-11      3735.80
       931.50000  8.51417e-11      3451.64
       931.60000  8.51417e-11      3451.64
       931.70000  8.51417e-11      3451.64
       931.80000  8.51417e-11      3451.64
       931.90000  8.51417e-11      3451.64
       932.00000  8.51417e-11      3451.64
       932.10000  8.51417e-11      3451.64
       932.20000  8.51417e-11      3451.64
       932.30000  8.51417e-11      3451.64
       932.40000  8.51417e-11      3451.64
       932.50000  9.90931e-11      4017.23
       932.60000  9.90931e-11      4017.23
       932.70000  9.90931e-11      4017.23
       932.80000  9.90931e-11      4018.22
       932.90000  9.90931e-11      4018.22
       933.00000  9.90931e-11      4018.22
       933.10000  9.90931e-11      4018.22
       933.20000  9.90931e-11      4018.22
       933.30000  9.90931e-11      4019.22
       933.40000  9.90931e-11      4019.22
       933.50000  8.07538e-11      3275.37
       933.60000  8.07538e-11      3276.18
       933.70000  8.07538e-11      3276.18
       933.80000  8.10583e-11      3288.53
       933.90000  8.10583e-11      3289.34
       934.00000  8.10583e-11      3289.34
       934.10000  8.10583e-11      3286.91
       934.20000  8.10583e-11      3284.48
       934.30000  8.10583e-11      3282.05
       934.40000  8.10583e-11      3279.62
       934.50000  9.12707e-11      3690.07
       934.60000  9.12707e-11      3688.25
       934.70000  9.12707e-11      3686.42
       934.80000  9.12707e-11      3683.68
       934.90000  9.12707e-11      3681.86
       935.00000  9.12707e-11      3680.95
       935.10000  9.12707e-11      3679.12
       935.20000  9.12707e-11      3677.30
       935.30000  9.12707e-11      3676.38
       935.40000  9.12707e-11      3675.47
       935.50000  1.17118e-10      4715.17
       935.60000  1.17118e-10      4714.00
       935.70000  1.17118e-10      4712.83
       935.80000  1.17118e-10      4711.66
       935.90000  1.17118e-10      4711.66
       936.00000  1.17118e-10      4710.49
       936.10000  1.17118e-10      4714.00
       936.20000  1.17118e-10      4717.51
       936.30000  1.17526e-10      4737.45
       936.40000  1.17526e-10      4740.98
       936.50000  8.13042e-11      3281.44
       936.60000  8.13042e-11      3283.06
       936.70000  8.13042e-11      3284.69
       936.80000  8.13042e-11      3286.31
       936.90000  8.13042e-11      3287.13
       937.00000  8.13042e-11      3288.75
       937.10000  8.13042e-11      3289.57
       937.20000  8.13042e-11      3290.38
       937.30000  8.13042e-11      3290.38
       937.40000  8.13042e-11      3291.19
       937.50000  8.47218e-11      3429.54
       937.60000  8.47218e-11      3429.54
       937.70000  8.47218e-11      3429.54
       937.80000  8.47218e-11      3429.54
       937.90000  8.47218e-11      3428.69
       938.00000  8.47218e-11      3428.69
       938.10000  8.47218e-11      3427.84
       938.20000  8.47218e-11      3426.15
       938.30000  8.47218e-11      3425.30
       938.40000  8.47218e-11      3423.61
       938.50000  1.08830e-10      4396.72
       938.60000  1.08830e-10      4394.54
       938.70000  1.08830e-10      4391.28
       938.80000  1.09135e-10      4401.42
       938.90000  1.09135e-10      4398.14
       939.00000  1.09135e-10      4395.96
       939.10000  1.09135e-10      4392.69
       939.20000  1.09135e-10      4388.32
       939.30000  1.09135e-10      4385.05
       939.40000  1.09135e-10      4380.68
       939.50000  7.81161e-11      3132.45
       939.60000  7.81161e-11      3129.33
       939.70000  7.81161e-11      3126.21
       939.80000  7.81161e-11      3123.08
       939.90000  7.81161e-11      3119.17
       940.00000  7.81161e-11      3115.27
       940.10000  7.81161e-11      3109.80
       940.20000  7.81161e-11      3104.33
       940.30000  7.81161e-11      3099.65
       940.40000  7.81161e-11      3094.96
       940.50000  7.79852e-11      3085.09
       940.60000  7.79852e-11      3081.19
       940.70000  7.79852e-11      3077.30
       940.80000  7.79852e-11      3073.40
       940.90000  7.79852e-11      3069.50
       941.00000  7.79852e-11      3066.38
       941.10000  7.79852e-11      3063.26
       941.20000  7.79852e-11      3060.92
       941.30000  7.80856e-11      3062.52
       941.40000  7.80856e-11      3060.17
       941.50000  7.91979e-11      3101.39
       941.60000  7.91979e-11      3099.81
       941.70000  7.91979e-11      3098.22
       941.80000  7.91979e-11      3096.64
       941.90000  7.91979e-11      3095.05
       942.00000  7.91979e-11      3094.26
       942.10000  7.91979e-11      3096.64
       942.20000  7.91979e-11      3098.22
       942.30000  7.91979e-11      3100.60
       942.40000  7.91979e-11      3102.18
       942.50000  9.96353e-11      3904.71
       942.60000  9.96353e-11      3907.70
       942.70000  9.96353e-11      3909.69
       942.80000  9.96353e-11      3911.68
       942.90000  9.96353e-11      3913.67
       943.00000  9.96353e-11      3915.67
       943.10000  9.96353e-11      3918.65
       943.20000  9.96353e-11      3920.65
       943.30000  9.96353e-11      3922.64
       943.40000  9.96353e-11      3924.63
       943.50000  5.84117e-11      2302.01
       943.60000  5.84117e-11      2303.17
       943.70000  5.84117e-11      2304.34
       943.80000  5.84027e-11      2305.15
       943.90000  5.84027e-11      2306.32
       944.00000  5.84027e-11      2307.49
       944.10000  5.84027e-11      2308.66
       944.20000  5.84027e-11      2309.83
       944.30000  5.84027e-11      2310.41
       944.40000  5.84027e-11      2311.58
       944.50000  6.65246e-11      2634.37
       944.60000  6.65246e-11      2635.70
       944.70000  6.65246e-11      2636.37
       944.80000  6.65246e-11      2637.70
       944.90000  6.65246e-11      2639.03
       945.00000  6.65246e-11      2639.69
       945.10000  6.65246e-11      2641.02
       945.20000  6.65246e-11      2642.36
       945.30000  6.65246e-11      2643.02
       945.40000  6.65246e-11      2644.35
       945.50000  6.68726e-11      2658.85
       945.60000  6.68726e-11      2660.19
       945.70000  6.68726e-11      2660.86
       945.80000  6.68726e-11      2662.20
       945.90000  6.68726e-11      2662.87
       946.00000  6.68726e-11      2663.53
       946.10000  6.68726e-11      2664.87
       946.20000  6.68726e-11      2666.21
       946.30000  6.68925e-11      2668.34
       946.40000  6.68925e-11      2669.68
       946.50000  4.81145e-11      1921.21
       946.60000  4.81145e-11      1921.69
       946.70000  4.81145e-11      1922.65
       946.80000  4.81145e-11      1923.14
       946.90000  4.81145e-11      1923.62
       947.00000  4.81145e-11      1924.58
       947.10000  4.81145e-11      1925.06
       947.20000  4.81145e-11      1925.54
       947.30000  4.81145e-11      1926.02
       947.40000  4.81145e-11      1926.50
       947.50000  1.05957e-10      4242.51
       947.60000  1.05957e-10      4243.57
       947.70000  1.05957e-10      4244.63
       947.80000  1.05957e-10      4244.63
       947.90000  1.05957e-10      4245.69
       948.00000  1.05957e-10      4245.69
       948.10000  1.05957e-10      4245.69
       948.20000  1.05957e-10      4245.69
       948.30000  1.05957e-10      4244.63
       948.40000  1.05957e-10      4244.63
       948.50000  8.35730e-11      3347.10
       948.60000  8.35730e-11      3347.10
       948.70000  8.35730e-11      3347.10
       948.80000  8.38324e-11      3356.65
       948.90000  8.38324e-11      3356.65
       949.00000  8.38324e-11      3355.81
       949.10000  8.38324e-11      3355.81
       949.20000  8.38324e-11      3354.97
       949.30000  8.38324e-11      3354.97
       949.40000  8.38324e-11      3354.13
       949.50000  7.32604e-11      2931.15
       949.60000  7.32604e-11      2930.42
       949.70000  7.32604e-11      2929.69
       949.80000  7.32604e-11      2929.69
       949.90000  7.32604e-11      2928.95
       950.00000  7.32604e-11      2928.22
       950.10000  7.32604e-11      2928.22
       950.20000  7.32604e-11      2927.49
       950.30000  7.32604e-11      2926.75
       950.40000  7.32604e-11      2926.75
       950.50000  6.51258e-11      2601.13
       950.60000  6.51258e-11      2600.47
       950.70000  6.51258e-11      2599.82
       950.80000  6.51258e-11      2599.82
       950.90000  6.51258e-11      2599.17
       951.00000  6.51258e-11      2598.52
       951.10000  6.51258e-11      2597.87
       951.20000  6.51258e-11      2597.22
       951.30000  6.50637e-11      2594.74
       951.40000  6.50637e-11      2594.09
       951.50000  3.82317e-11      1523.92
       951.60000  3.82317e-11      1523.53
       951.70000  3.82317e-11      1523.15
       951.80000  3.82317e-11      1522.77
       951.90000  3.82317e-11      1522.39
       952.00000  3.82317e-11      1522.00
       952.10000  3.82317e-11      1518.95
       952.20000  3.82317e-11      1515.89
       952.30000  3.82317e-11      1513.21
       952.40000  3.82317e-11      1510.53
       952.50000  7.90777e-11      3118.83
       952.60000  7.90777e-11      3113.29
       952.70000  7.90777e-11      3108.55
       952.80000  7.90777e-11      3103.80
       952.90000  7.90777e-11      3099.06
       953.00000  7.90777e-11      3095.10
       953.10000  7.90777e-11      3091.15
       953.20000  7.90777e-11      3087.19
       953.30000  7.90777e-11      3084.03
       953.40000  7.90777e-11      3080.08
       953.50000  7.02886e-11      2734.93
       953.60000  7.02886e-11      2732.82
       953.70000  7.02886e-11      2730.01
       953.80000  7.04386e-11      2733.72
       953.90000  7.04386e-11      2731.61
       954.00000  7.04386e-11      2730.20
       954.10000  7.04386e-11      2729.49
       954.20000  7.04386e-11      2728.79
       954.30000  7.04386e-11      2728.79
       954.40000  7.04386e-11      2728.79
       954.50000  4.81353e-11      1864.28
       954.60000  4.81353e-11      1864.28
       954.70000  4.81353e-11      1864.28
       954.80000  4.81353e-11      1864.28
       954.90000  4.81353e-11      1864.76
       955.00000  4.81353e-11      1864.76
       955.10000  4.81353e-11      1865.24
       955.20000  4.81353e-11      1865.24
       955.30000  4.81353e-11      1865.72
       955.40000  4.81353e-11      1866.21
       955.50000  3.89333e-11      1509.83
       955.60000  3.89333e-11      1510.22
       955.70000  3.89333e-11      1510.61
       955.80000  3.89333e-11      1511.39
       955.90000  3.89333e-11      1511.78
       956.00000  3.89333e-11      1512.56
       956.10000  3.89333e-11      1513.34
       956.20000  3.89333e-11      1513.73
       956.30000  3.90655e-11      1519.65
       956.40000  3.90655e-11      1520.82
       956.50000  4.39055e-11      1710.12
       956.60000  4.39055e-11      1711.00
       956.70000  4.39055e-11      1712.31
       956.80000  4.39055e-11      1713.19
       956.90000  4.39055e-11      1714.51
       957.00000  4.39055e-11      1715.83
       957.10000  4.39055e-11      1717.14
       957.20000  4.39055e-11      1718.46
       957.30000  4.39055e-11      1720.22
       957.40000  4.39055e-11      1721.53
       957.50000  4.92458e-11      1932.41
       957.60000  4.92458e-11      1934.38
       957.70000  4.92458e-11      1936.35
       957.80000  4.92458e-11      1938.32
       957.90000  4.92458e-11      1940.29
       958.00000  4.92458e-11      1942.26
       958.10000  4.92458e-11      1942.26
       958.20000  4.92458e-11      1941.76
       958.30000  4.92458e-11      1941.76
       958.40000  4.92458e-11      1941.76
       958.50000  4.36121e-11      1719.62
       958.60000  4.36121e-11      1719.19
       958.70000  4.36121e-11      1719.19
       958.80000  4.36571e-11      1720.96
       958.90000  4.36571e-11      1720.53
       959.00000  4.36571e-11      1720.53
       959.10000  4.36571e-11      1720.09
       959.20000  4.36571e-11      1720.09
       959.30000  4.36571e-11      1719.65
       959.40000  4.36571e-11      1719.22
       959.50000  3.30452e-11      1301.32
       959.60000  3.30452e-11      1300.99
       959.70000  3.30452e-11      1300.99
       959.80000  3.30452e-11      1300.66
       959.90000  3.30452e-11      1300.33
       960.00000  3.30452e-11      1300.00
       960.10000  3.30452e-11      1299.67
       960.20000  3.30452e-11      1299.34
       960.30000  3.30452e-11      1299.01
       960.40000  3.30452e-11      1298.68
       960.50000  6.68936e-11      2628.25
       960.60000  6.68936e-11      2627.58
       960.70000  6.68936e-11      2626.91
       960.80000  6.68936e-11      2626.24
       960.90000  6.68936e-11      2625.57
       961.00000  6.68936e-11      2624.90
       961.10000  6.68936e-11      2624.23
       961.20000  6.68936e-11      2623.57
       961.30000  6.70248e-11      2628.04
       961.40000  6.70248e-11      2627.37
       961.50000  5.74426e-11      2251.18
       961.60000  5.74426e-11      2250.03
       961.70000  5.74426e-11      2249.45
       961.80000  5.74426e-11      2248.88
       961.90000  5.74426e-11      2248.30
       962.00000  5.74426e-11      2247.73
       962.10000  5.74426e-11      2246.58
       962.20000  5.74426e-11      2246.01
       962.30000  5.74426e-11      2245.43
       962.40000  5.74426e-11      2244.28
       962.50000  5.48369e-11      2141.93
       962.60000  5.48369e-11      2141.38
       962.70000  5.48369e-11      2140.28
       962.80000  5.48369e-11      2139.74
       962.90000  5.48369e-11      2138.64
       963.00000  5.48369e-11      2138.09
       963.10000  5.48369e-11      2137.54
       963.20000  5.48369e-11      2136.44
       963.30000  5.48369e-11      2135.90
       963.40000  5.48369e-11      2134.80
       963.50000  4.81288e-11      1873.17
       963.60000  4.81288e-11      1872.21
       963.70000  4.81288e-11      1871.73
       963.80000  4.82304e-11      1874.72
       963.90000  4.82304e-11      1873.75
       964.00000  4.82304e-11      1873.27
       964.10000  4.82304e-11      1872.31
       964.20000  4.82304e-11      1870.86
       964.30000  4.82304e-11      1869.89
       964.40000  4.82304e-11      1869.41
       964.50000  6.47175e-11      2507.16
       964.60000  6.47175e-11      2505.86
       964.70000  6.47175e-11      2505.22
       964.80000  6.47175e-11      2503.92
       964.90000  6.47175e-11      2503.27
       965.00000  6.47175e-11      2501.98
       965.10000  6.47175e-11      2501.33
       965.20000  6.47175e-11      2500.69
       965.30000  6.47175e-11      2500.04
       965.40000  6.47175e-11      2500.04
       965.50000  4.96305e-11      1916.73
       965.60000  4.96305e-11      1916.23
       965.70000  4.96305e-11      1916.23
       965.80000  4.96305e-11      1915.74
       965.90000  4.96305e-11      1915.74
       966.00000  4.96305e-11      1915.74
       966.10000  4.96305e-11      1916.23
       966.20000  4.96305e-11      1916.73
       966.30000  4.97932e-11      1924.01
       966.40000  4.97932e-11      1924.51
       966.50000  4.69254e-11      1814.13
       966.60000  4.69254e-11      1814.60
       966.70000  4.69254e-11      1815.07
       966.80000  4.69254e-11      1815.54
       966.90000  4.69254e-11      1816.01
       967.00000  4.69254e-11      1816.48
       967.10000  4.69254e-11      1816.95
       967.20000  4.69254e-11      1817.42
       967.30000  4.69254e-11      1817.89
       967.40000  4.69254e-11      1818.36
       967.50000  4.15463e-11      1609.92
       967.60000  4.15463e-11      1610.34
       967.70000  4.15463e-11      1610.75
       967.80000  4.15463e-11      1610.75
       967.90000  4.15463e-11      1611.17
       968.00000  4.15463e-11      1611.58
       968.10000  4.15463e-11      1611.58
       968.20000  4.15463e-11      1612.00
       968.30000  4.15463e-11      1612.00
       968.40000  4.15463e-11      1612.00
       968.50000  4.36447e-11      1693.85
       968.60000  4.36447e-11      1693.85
       968.70000  4.36447e-11      1693.85
       968.80000  4.37478e-11      1698.29
       968.90000  4.37478e-11      1698.29
       969.00000  4.37478e-11      1698.29
       969.10000  4.37478e-11      1698.29
       969.20000  4.37478e-11      1698.29
       969.30000  4.37478e-11      1698.29
       969.40000  4.37478e-11      1698.29
       969.50000  4.33508e-11      1682.88
       969.60000  4.33508e-11      1682.88
       969.70000  4.33508e-11      1682.88
       969.80000  4.33508e-11      1682.88
       969.90000  4.33508e-11      1682.88
       970.00000  4.33508e-11      1682.88
       970.10000  4.33508e-11      1683.31
       970.20000  4.33508e-11      1683.74
       970.30000  4.33508e-11      1683.74
       970.40000  4.33508e-11      1684.18
       970.50000  4.29214e-11      1667.50
       970.60000  4.29214e-11      1667.93
       970.70000  4.29214e-11      1667.93
       970.80000  4.29214e-11      1667.93
       970.90000  4.29214e-11      1667.93
       971.00000  4.29214e-11      1667.93
       971.10000  4.29214e-11      1667.93
       971.20000  4.29214e-11      1667.50
       971.30000  4.29910e-11      1670.20
       971.40000  4.29910e-11      1669.77
       971.50000  4.93189e-11      1915.54
       971.60000  4.93189e-11      1915.05
       971.70000  4.93189e-11      1914.56
       971.80000  4.93189e-11      1914.06
       971.90000  4.93189e-11      1913.57
       972.00000  4.93189e-11      1912.59
       972.10000  4.93189e-11      1910.61
       972.20000  4.93189e-11      1908.64
       972.30000  4.93189e-11      1907.16
       972.40000  4.93189e-11      1905.19
       972.50000  3.52513e-11      1360.70
       972.60000  3.52513e-11      1359.29
       972.70000  3.52513e-11      1358.23
       972.80000  3.52513e-11      1357.18
       972.90000  3.52513e-11      1356.12
       973.00000  3.52513e-11      1355.41
       973.10000  3.52513e-11      1354.36
       973.20000  3.52513e-11      1353.65
       973.30000  3.52513e-11      1352.95
       973.40000  3.52513e-11      1352.24
       973.50000  3.84773e-11      1475.22
       973.60000  3.84773e-11      1474.45
       973.70000  3.84773e-11      1474.07
       973.80000  3.84982e-11      1474.09
       973.90000  3.84982e-11      1473.71
       974.00000  3.84982e-11      1473.32
       974.10000  3.84982e-11      1473.71
       974.20000  3.84982e-11      1474.48
       974.30000  3.84982e-11      1474.86
       974.40000  3.84982e-11      1475.25
       974.50000  5.12028e-11      1962.60
       974.60000  5.12028e-11      1963.11
       974.70000  5.12028e-11      1963.63
       974.80000  5.12028e-11      1964.14
       974.90000  5.12028e-11      1964.14
       975.00000  5.12028e-11      1964.65
       975.10000  5.12028e-11      1965.16
       975.20000  5.12028e-11      1965.16
       975.30000  5.12028e-11      1965.68
       975.40000  5.12028e-11      1965.68
       975.50000  4.34815e-11      1669.25
       975.60000  4.34815e-11      1669.69
       975.70000  4.34815e-11      1669.69
       975.80000  4.34815e-11      1669.69
       975.90000  4.34815e-11      1669.69
       976.00000  4.34815e-11      1669.69
       976.10000  4.34815e-11      1669.25
       976.20000  4.34815e-11      1668.82
       976.30000  4.34522e-11      1667.26
       976.40000  4.34522e-11      1666.83
       976.50000  3.39208e-11      1301.20
       976.60000  3.39208e-11      1300.86
       976.70000  3.39208e-11      1300.52
       976.80000  3.39208e-11      1300.18
       976.90000  3.39208e-11      1300.18
       977.00000  3.39208e-11      1299.84
       977.10000  3.39208e-11      1299.51
       977.20000  3.39208e-11      1299.17
       977.30000  3.39208e-11      1299.17
       977.40000  3.39208e-11      1298.83
       977.50000  5.67160e-11      2171.09
       977.60000  5.67160e-11      2171.09
       977.70000  5.67160e-11      2170.52
       977.80000  5.67160e-11      2169.95
       977.90000  5.67160e-11      2169.95
       978.00000  5.67160e-11      2169.39
       978.10000  5.67160e-11      2169.39
       978.20000  5.67160e-11      2168.82
       978.30000  5.67160e-11      2168.82
       978.40000  5.67160e-11      2168.25
       978.50000  4.19742e-11      1604.26
       978.60000  4.19742e-11      1604.26
       978.70000  4.19742e-11      1604.26
       978.80000  4.19673e-11      1603.57
       978.90000  4.19673e-11      1603.57
       979.00000  4.19673e-11      1603.15
       979.10000  4.19673e-11      1603.15
       979.20000  4.19673e-11      1602.73
       979.30000  4.19673e-11      1602.73
       979.40000  4.19673e-11      1602.73
       979.50000  2.87087e-11      1096.10
       979.60000  2.87087e-11      1096.10
       979.70000  2.87087e-11      1096.10
       979.80000  2.87087e-11      1095.81
       979.90000  2.87087e-11      1095.81
       980.00000  2.87087e-11      1095.81
       980.10000  2.87087e-11      1096.38
       980.20000  2.87087e-11      1096.67
       980.30000  2.87087e-11      1097.25
       980.40000  2.87087e-11      1097.53
       980.50000  3.42218e-11      1308.98
       980.60000  3.42218e-11      1309.33
       980.70000  3.42218e-11      1309.67
       980.80000  3.42218e-11      1310.01
       980.90000  3.42218e-11      1310.35
       981.00000  3.42218e-11      1310.70
       981.10000  3.42218e-11      1311.04
       981.20000  3.42218e-11      1311.38
       981.30000  3.44054e-11      1318.42
       981.40000  3.44054e-11      1318.76
       981.50000  3.81735e-11      1463.19
       981.60000  3.81735e-11      1463.19
       981.70000  3.81735e-11      1463.57
       981.80000  3.81735e-11      1463.57
       981.90000  3.81735e-11      1463.57
       982.00000  3.81735e-11      1463.19
       982.10000  3.81735e-11      1462.81
       982.20000  3.81735e-11      1462.04
       982.30000  3.81735e-11      1461.66
       982.40000  3.81735e-11      1460.90
       982.50000  3.46683e-11      1326.41
       982.60000  3.46683e-11      1325.71
       982.70000  3.46683e-11      1325.37
       982.80000  3.46683e-11      1325.02
       982.90000  3.46683e-11      1324.33
       983.00000  3.46683e-11      1323.98
       983.10000  3.46683e-11      1323.63
       983.20000  3.46683e-11      1323.29
       983.30000  3.46683e-11      1322.94
       983.40000  3.46683e-11      1322.25
       983.50000  2.73144e-11      1041.50
       983.60000  2.73144e-11      1041.22
       983.70000  2.73144e-11      1040.95
       983.80000  2.73357e-11      1041.49
       983.90000  2.73357e-11      1041.22
       984.00000  2.73357e-11      1040.94
       984.10000  2.73357e-11      1040.94
       984.20000  2.73357e-11      1040.67
       984.30000  2.73357e-11      1040.40
       984.40000  2.73357e-11      1040.12
       984.50000  3.35905e-11      1278.12
       984.60000  3.35905e-11      1277.78
       984.70000  3.35905e-11      1277.45
       984.80000  3.35905e-11      1277.45
       984.90000  3.35905e-11      1277.11
       985.00000  3.35905e-11      1276.77
       985.10000  3.35905e-11      1276.77
       985.20000  3.35905e-11      1276.44
       985.30000  3.35905e-11      1276.44
       985.40000  3.35905e-11      1276.44
       985.50000  3.65931e-11      1390.17
       985.60000  3.65931e-11      1390.17
       985.70000  3.65931e-11      1390.17
       985.80000  3.65931e-11      1389.80
       985.90000  3.65931e-11      1389.80
       986.00000  3.65931e-11      1389.80
       986.10000  3.65931e-11      1389.44
       986.20000  3.65931e-11      1389.44
       986.30000  3.63834e-11      1381.48
       986.40000  3.63834e-11      1381.11
       986.50000  2.34570e-11      890.192
       986.60000  2.34570e-11      890.192
       986.70000  2.34570e-11      889.958
       986.80000  2.34570e-11      889.958
       986.90000  2.34570e-11      889.723
       987.00000  2.34570e-11      889.489
       987.10000  2.34570e-11      889.254
       987.20000  2.34570e-11      889.254
       987.30000  2.34570e-11      889.019
       987.40000  2.34570e-11      888.785
       987.50000  1.94154e-11      735.456
       987.60000  1.94154e-11      735.262
       987.70000  1.94154e-11      735.067
       987.80000  1.94154e-11      734.873
       987.90000  1.94154e-11      734.679
       988.00000  1.94154e-11      734.485
       988.10000  1.94154e-11      733.903
       988.20000  1.94154e-11      733.514
       988.30000  1.94154e-11      732.932
       988.40000  1.94154e-11      732.544
       988.50000  3.33248e-11      1256.68
       988.60000  3.33248e-11      1256.01
       988.70000  3.33248e-11      1255.35
       988.80000  3.34168e-11      1258.14
       988.90000  3.34168e-11      1257.47
       989.00000  3.34168e-11      1257.14
       989.10000  3.34168e-11      1256.81
       989.20000  3.34168e-11      1256.14
       989.30000  3.34168e-11      1255.80
       989.40000  3.34168e-11      1255.47
       989.50000  3.12922e-11      1175.34
       989.60000  3.12922e-11      1175.02
       989.70000  3.12922e-11      1175.02
       989.80000  3.12922e-11      1174.71
       989.90000  3.12922e-11      1174.71
       990.00000  3.12922e-11      1174.71
       990.10000  3.12922e-11      1174.40
       990.20000  3.12922e-11      1174.40
       990.30000  3.12922e-11      1174.71
       990.40000  3.12922e-11      1174.71
       990.50000  2.51154e-11      942.833
       990.60000  2.51154e-11      943.085
       990.70000  2.51154e-11      943.085
       990.80000  2.51154e-11      943.336
       990.90000  2.51154e-11      943.587
       991.00000  2.51154e-11      943.838
       991.10000  2.51154e-11      944.089
       991.20000  2.51154e-11      944.340
       991.30000  2.51687e-11      946.593
       991.40000  2.51687e-11      947.097
       991.50000  3.25629e-11      1225.67
       991.60000  3.25629e-11      1226.32
       991.70000  3.25629e-11      1226.97
       991.80000  3.25629e-11      1227.62
       991.90000  3.25629e-11      1228.27
       992.00000  3.25629e-11      1228.92
       992.10000  3.25629e-11      1229.25
       992.20000  3.25629e-11      1229.25
       992.30000  3.25629e-11      1229.25
       992.40000  3.25629e-11      1229.25
       992.50000  1.16162e-11      438.629
       992.60000  1.16162e-11      438.629
       992.70000  1.16162e-11      438.629
       992.80000  1.16162e-11      438.629
       992.90000  1.16162e-11      438.629
       993.00000  1.16162e-11      438.745
       993.10000  1.16162e-11      438.745
       993.20000  1.16162e-11      438.745
       993.30000  1.16162e-11      438.745
       993.40000  1.16162e-11      438.745
       993.50000  2.01791e-11      762.166
       993.60000  2.01791e-11      762.166
       993.70000  2.01791e-11      762.166
       993.80000  2.01904e-11      762.592
       993.90000  2.01904e-11      762.390
       994.00000  2.01904e-11      762.390
       994.10000  2.01904e-11      762.390
       994.20000  2.01904e-11      762.188
       994.30000  2.01904e-11      762.188
       994.40000  2.01904e-11      761.986
       994.50000  2.88927e-11      1090.41
       994.60000  2.88927e-11      1090.12
       994.70000  2.88927e-11      1090.12
       994.80000  2.88927e-11      1089.83
       994.90000  2.88927e-11      1089.83
       995.00000  2.88927e-11      1089.55
       995.10000  2.88927e-11      1089.55
       995.20000  2.88927e-11      1089.55
       995.30000  2.88927e-11      1089.26
       995.40000  2.88927e-11      1089.26
       995.50000  2.31838e-11      874.031
       995.60000  2.31838e-11      873.799
       995.70000  2.31838e-11      873.799
       995.80000  2.31838e-11      873.799
       995.90000  2.31838e-11      873.799
       996.00000  2.31838e-11      873.567
       996.10000  2.31838e-11      873.799
       996.20000  2.31838e-11      873.799
       996.30000  2.32109e-11      874.819
       996.40000  2.32109e-11      874.819
       996.50000  2.58773e-11      975.317
       996.60000  2.58773e-11      975.317
       996.70000  2.58773e-11      975.317
       996.80000  2.58773e-11      975.317
       996.90000  2.58773e-11      975.317
       997.00000  2.58773e-11      975.317
       997.10000  2.58773e-11      975.317
       997.20000  2.58773e-11      975.317
       997.30000  2.58773e-11      975.317
       997.40000  2.58773e-11      975.317
       997.50000  2.25714e-11      850.718
       997.60000  2.25714e-11      850.718
       997.70000  2.25714e-11      850.718
       997.80000  2.25714e-11      850.718
       997.90000  2.25714e-11      850.718
       998.00000  2.25714e-11      850.492
       998.10000  2.25714e-11      850.492
       998.20000  2.25714e-11      850.266
       998.30000  2.25714e-11      850.266
       998.40000  2.25714e-11      850.041
       998.50000  1.74282e-11      656.171
       998.60000  1.74282e-11      656.171
       998.70000  1.74282e-11      655.997
       998.80000  1.75711e-11      661.378
       998.90000  1.75711e-11      661.378
       999.00000  1.75711e-11      661.202
       999.10000  1.75711e-11      661.202
       999.20000  1.75711e-11      661.027
       999.30000  1.75711e-11      661.027
       999.40000  1.75711e-11      661.027
       999.50000  1.96551e-11      739.227
       999.60000  1.96551e-11      739.227
       999.70000  1.96551e-11      739.227
       999.80000  1.96551e-11      739.227
       999.90000  1.96551e-11      739.227
       1000.0000  1.96551e-11      739.031
       1000.1000  1.96551e-11      739.031
       1000.2000  1.96551e-11      739.031
       1000.3000  1.96551e-11      739.031
       1000.4000  1.96551e-11      739.031
       1000.5000  1.46353e-11      550.287
       1000.6000  1.46353e-11      550.287
       1000.7000  1.46353e-11      550.287
       1000.8000  1.46353e-11      550.287
       1000.9000  1.46353e-11      550.287
       1001.0000  1.46353e-11      550.287
       1001.1000  1.46353e-11      550.287
       1001.2000  1.46353e-11      550.433
       1001.3000  1.44638e-11      543.982
       1001.4000  1.44638e-11      543.982
       1001.5000  1.84537e-11      694.043
       1001.6000  1.84537e-11      694.043
       1001.7000  1.84537e-11      694.227
       1001.8000  1.84537e-11      694.227
       1001.9000  1.84537e-11      694.227
       1002.0000  1.84537e-11      694.412
       1002.1000  1.84537e-11      693.304
       1002.2000  1.84537e-11      692.197
       1002.3000  1.84537e-11      691.274
       1002.4000  1.84537e-11      690.167
       1002.5000  2.06562e-11      771.511
       1002.6000  2.06562e-11      770.271
       1002.7000  2.06562e-11      769.239
       1002.8000  2.06562e-11      768.206
       1002.9000  2.06562e-11      767.173
       1003.0000  2.06562e-11      766.140
       1003.1000  2.06562e-11      765.107
       1003.2000  2.06562e-11      764.075
       1003.3000  2.06562e-11      763.248
       1003.4000  2.06562e-11      762.216
       1003.5000  1.80631e-11      665.805
       1003.6000  1.80631e-11      665.082
       1003.7000  1.80631e-11      664.179
       1003.8000  1.80583e-11      663.280
       1003.9000  1.80583e-11      662.557
       1004.0000  1.80583e-11      661.835
       1004.1000  1.80583e-11      660.751
       1004.2000  1.80583e-11      659.487
       1004.3000  1.80583e-11      658.584
       1004.4000  1.80583e-11      657.501
       1004.5000  1.75852e-11      639.396
       1004.6000  1.75852e-11      638.517
       1004.7000  1.75852e-11      637.814
       1004.8000  1.75852e-11      637.110
       1004.9000  1.75852e-11      636.583
       1005.0000  1.75852e-11      636.055
       1005.1000  1.75852e-11      635.528
       1005.2000  1.75852e-11      635.176
       1005.3000  1.75852e-11      634.824
       1005.4000  1.75852e-11      634.648
       1005.5000  1.90403e-11      686.973
       1005.6000  1.90403e-11      686.783
       1005.7000  1.90403e-11      686.783
       1005.8000  1.90403e-11      686.973
       1005.9000  1.90403e-11      686.973
       1006.0000  1.90403e-11      687.164
       1006.1000  1.90403e-11      687.544
       1006.2000  1.90403e-11      687.925
       1006.3000  1.90007e-11      686.876
       1006.4000  1.90007e-11      687.446
       1006.5000  1.34768e-11      487.994
       1006.6000  1.34768e-11      488.533
       1006.7000  1.34768e-11      489.073
       1006.8000  1.34768e-11      489.612
       1006.9000  1.34768e-11      490.285
       1007.0000  1.34768e-11      490.959
       1007.1000  1.34768e-11      491.768
       1007.2000  1.34768e-11      492.576
       1007.3000  1.34768e-11      493.385
       1007.4000  1.34768e-11      494.328
       1007.5000  1.37445e-11      505.110
       1007.6000  1.37445e-11      506.209
       1007.7000  1.37445e-11      507.309
       1007.8000  1.37445e-11      508.409
       1007.9000  1.37445e-11      509.646
       1008.0000  1.37445e-11      510.883
       1008.1000  1.37445e-11      511.020
       1008.2000  1.37445e-11      511.020
       1008.3000  1.37445e-11      511.020
       1008.4000  1.37445e-11      511.020
       1008.5000  1.40277e-11      521.550
       1008.6000  1.40277e-11      521.550
       1008.7000  1.40277e-11      521.550
       1008.8000  1.39983e-11      520.456
       1008.9000  1.39983e-11      520.456
       1009.0000  1.39983e-11      520.316
       1009.1000  1.39983e-11      520.316
       1009.2000  1.39983e-11      520.316
       1009.3000  1.39983e-11      520.316
       1009.4000  1.39983e-11      520.176
       1009.5000  1.93838e-11      720.301
       1009.6000  1.93838e-11      720.301
       1009.7000  1.93838e-11      720.107
       1009.8000  1.93838e-11      720.107
       1009.9000  1.93838e-11      719.914
       1010.0000  1.93838e-11      719.914
       1010.1000  1.93838e-11      719.720
       1010.2000  1.93838e-11      719.526
       1010.3000  1.93838e-11      719.332
       1010.4000  1.93838e-11      719.138
       1010.5000  1.68015e-11      623.166
       1010.6000  1.68015e-11      622.998
       1010.7000  1.68015e-11      622.830
       1010.8000  1.68015e-11      622.662
       1010.9000  1.68015e-11      622.494
       1011.0000  1.68015e-11      622.326
       1011.1000  1.68015e-11      622.326
       1011.2000  1.68015e-11      622.158
       1011.3000  1.67565e-11      620.325
       1011.4000  1.67565e-11      620.157
       1011.5000  1.63500e-11      604.949
       1011.6000  1.63500e-11      604.785
       1011.7000  1.63500e-11      604.622
       1011.8000  1.63500e-11      604.458
       1011.9000  1.63500e-11      604.295
       1012.0000  1.63500e-11      604.131
       1012.1000  1.63500e-11      603.968
       1012.2000  1.63500e-11      603.804
       1012.3000  1.63500e-11      603.641
       1012.4000  1.63500e-11      603.477
       1012.5000  2.56234e-11      945.505
       1012.6000  2.56234e-11      945.249
       1012.7000  2.56234e-11      944.993
       1012.8000  2.56234e-11      944.737
       1012.9000  2.56234e-11      944.737
       1013.0000  2.56234e-11      944.480
       1013.1000  2.56234e-11      944.224
       1013.2000  2.56234e-11      943.968
       1013.3000  2.56234e-11      943.712
       1013.4000  2.56234e-11      943.455
       1013.5000  1.23327e-11      453.966
       1013.6000  1.23327e-11      453.842
       1013.7000  1.23327e-11      453.719
       1013.8000  1.23231e-11      453.243
       1013.9000  1.23231e-11      453.120
       1014.0000  1.23231e-11      452.996
       1014.1000  1.23231e-11      452.750
       1014.2000  1.23231e-11      452.504
       1014.3000  1.23231e-11      452.257
       1014.4000  1.23231e-11      452.011
       1014.5000  9.62663e-12      353.008
       1014.6000  9.62663e-12      352.816
       1014.7000  9.62663e-12      352.623
       1014.8000  9.62663e-12      352.527
       1014.9000  9.62663e-12      352.335
       1015.0000  9.62663e-12      352.238
       1015.1000  9.62663e-12      352.046
       1015.2000  9.62663e-12      351.949
       1015.3000  9.62663e-12      351.853
       1015.4000  9.62663e-12      351.661
       1015.5000  1.13301e-11      413.776
       1015.6000  1.13301e-11      413.662
       1015.7000  1.13301e-11      413.549
       1015.8000  1.13301e-11      413.436
       1015.9000  1.13301e-11      413.322
       1016.0000  1.13301e-11      413.209
       1016.1000  1.13301e-11      413.209
       1016.2000  1.13301e-11      413.209
       1016.3000  1.13484e-11      413.878
       1016.4000  1.13484e-11      413.764
       1016.5000  1.17072e-11      426.844
       1016.6000  1.17072e-11      426.844
       1016.7000  1.17072e-11      426.844
       1016.8000  1.17072e-11      426.727
       1016.9000  1.17072e-11      426.727
       1017.0000  1.17072e-11      426.610
       1017.1000  1.17072e-11      426.610
       1017.2000  1.17072e-11      426.493
       1017.3000  1.17072e-11      426.493
       1017.4000  1.17072e-11      426.376
       1017.5000  1.36489e-11      497.094
       1017.6000  1.36489e-11      496.957
       1017.7000  1.36489e-11      496.821
       1017.8000  1.36489e-11      496.684
       1017.9000  1.36489e-11      496.548
       1018.0000  1.36489e-11      496.548
       1018.1000  1.36489e-11      496.275
       1018.2000  1.36489e-11      496.002
       1018.3000  1.36489e-11      495.729
       1018.4000  1.36489e-11      495.456
       1018.5000  1.22711e-11      445.317
       1018.6000  1.22711e-11      445.071
       1018.7000  1.22711e-11      444.949
       1018.8000  1.22653e-11      444.493
       1018.9000  1.22653e-11      444.371
       1019.0000  1.22653e-11      444.125
       1019.1000  1.22653e-11      444.003
       1019.2000  1.22653e-11      443.880
       1019.3000  1.22653e-11      443.757
       1019.4000  1.22653e-11      443.512
       1019.5000  9.90793e-12      358.172
       1019.6000  9.90793e-12      358.073
       1019.7000  9.90793e-12      357.974
       1019.8000  9.90793e-12      357.974
       1019.9000  9.90793e-12      357.875
       1020.0000  9.90793e-12      357.775
       1020.1000  9.90793e-12      357.676
       1020.2000  9.90793e-12      357.577
       1020.3000  9.90793e-12      357.577
       1020.4000  9.90793e-12      357.478
       1020.5000  9.17376e-12      330.989
       1020.6000  9.17376e-12      330.897
       1020.7000  9.17376e-12      330.897
       1020.8000  9.17376e-12      330.806
       1020.9000  9.17376e-12      330.806
       1021.0000  9.17376e-12      330.806
       1021.1000  9.17376e-12      330.806
       1021.2000  9.17376e-12      330.806
       1021.3000  9.15427e-12      330.103
       1021.4000  9.15427e-12      330.103
       1021.5000  8.93573e-12      322.222
       1021.6000  8.93573e-12      322.222
       1021.7000  8.93573e-12      322.222
       1021.8000  8.93573e-12      322.312
       1021.9000  8.93573e-12      322.312
       1022.0000  8.93573e-12      322.401
       1022.1000  8.93573e-12      322.401
       1022.2000  8.93573e-12      322.490
       1022.3000  8.93573e-12      322.580
       1022.4000  8.93573e-12      322.580
       1022.5000  9.15877e-12      330.723
       1022.6000  9.15877e-12      330.815
       1022.7000  9.15877e-12      330.906
       1022.8000  9.15877e-12      330.998
       1022.9000  9.15877e-12      331.090
       1023.0000  9.15877e-12      331.181
       1023.1000  9.15877e-12      331.364
       1023.2000  9.15877e-12      331.456
       1023.3000  9.15877e-12      331.548
       1023.4000  9.15877e-12      331.731
       1023.5000  1.10964e-11      402.021
       1023.6000  1.10964e-11      402.243
       1023.7000  1.10964e-11      402.354
       1023.8000  1.10639e-11      401.398
       1023.9000  1.10639e-11      401.619
       1024.0000  1.10639e-11      401.841
       1024.1000  1.10639e-11      401.841
       1024.2000  1.10639e-11      401.730
       1024.3000  1.10639e-11      401.730
       1024.4000  1.10639e-11      401.730
       1024.5000  1.12294e-11      407.740
       1024.6000  1.12294e-11      407.628
       1024.7000  1.12294e-11      407.628
       1024.8000  1.12294e-11      407.628
       1024.9000  1.12294e-11      407.515
       1025.0000  1.12294e-11      407.515
       1025.1000  1.12294e-11      407.515
       1025.2000  1.12294e-11      407.403
       1025.3000  1.12294e-11      407.403
       1025.4000  1.12294e-11      407.403
       1025.5000  9.78582e-12      354.932
       1025.6000  9.78582e-12      354.932
       1025.7000  9.78582e-12      354.834
       1025.8000  9.78582e-12      354.834
       1025.9000  9.78582e-12      354.736
       1026.0000  9.78582e-12      354.736
       1026.1000  9.78582e-12      354.736
       1026.2000  9.78582e-12      354.638
       1026.3000  9.75088e-12      353.372
       1026.4000  9.75088e-12      353.274
       1026.5000  7.25969e-12      263.019
       1026.6000  7.25969e-12      262.946
       1026.7000  7.25969e-12      262.873
       1026.8000  7.25969e-12      262.873
       1026.9000  7.25969e-12      262.801
       1027.0000  7.25969e-12      262.801
       1027.1000  7.25969e-12      262.728
       1027.2000  7.25969e-12      262.656
       1027.3000  7.25969e-12      262.656
       1027.4000  7.25969e-12      262.583
       1027.5000  7.90694e-12      285.915
       1027.6000  7.90694e-12      285.915
       1027.7000  7.90694e-12      285.836
       1027.8000  7.90694e-12      285.757
       1027.9000  7.90694e-12      285.678
       1028.0000  7.90694e-12      285.599
       1028.1000  7.90694e-12      285.599
       1028.2000  7.90694e-12      285.520
       1028.3000  7.90694e-12      285.441
       1028.4000  7.90694e-12      285.361
       1028.5000  8.19347e-12      295.620
       1028.6000  8.19347e-12      295.539
       1028.7000  8.19347e-12      295.457
       1028.8000  8.19587e-12      295.461
       1028.9000  8.19587e-12      295.379
       1029.0000  8.19587e-12      295.297
       1029.1000  8.19587e-12      295.215
       1029.2000  8.19587e-12      295.133
       1029.3000  8.19587e-12      295.051
       1029.4000  8.19587e-12      294.969
       1029.5000  8.11953e-12      292.141
       1029.6000  8.11953e-12      292.059
       1029.7000  8.11953e-12      291.978
       1029.8000  8.11953e-12      291.897
       1029.9000  8.11953e-12      291.816
       1030.0000  8.11953e-12      291.653
       1030.1000  8.11953e-12      291.735
       1030.2000  8.11953e-12      291.735
       1030.3000  8.11953e-12      291.735
       1030.4000  8.11953e-12      291.735
       1030.5000  9.22686e-12      331.521
       1030.6000  9.22686e-12      331.521
       1030.7000  9.22686e-12      331.429
       1030.8000  9.22686e-12      331.429
       1030.9000  9.22686e-12      331.429
       1031.0000  9.22686e-12      331.336
       1031.1000  9.22686e-12      331.336
       1031.2000  9.22686e-12      331.244
       1031.3000  9.22952e-12      331.340
       1031.4000  9.22952e-12      331.247
       1031.5000  7.12666e-12      255.704
       1031.6000  7.12666e-12      255.633
       1031.7000  7.12666e-12      255.562
       1031.8000  7.12666e-12      255.491
       1031.9000  7.12666e-12      255.419
       1032.0000  7.12666e-12      255.348
       1032.1000  7.12666e-12      255.134
       1032.2000  7.12666e-12      254.849
       1032.3000  7.12666e-12      254.635
       1032.4000  7.12666e-12      254.493
       1032.5000  8.93237e-12      318.707
       1032.6000  8.93237e-12      318.439
       1032.7000  8.93237e-12      318.260
       1032.8000  8.93237e-12      317.992
       1032.9000  8.93237e-12      317.814
       1033.0000  8.93237e-12      317.635
       1033.1000  8.93237e-12      317.456
       1033.2000  8.93237e-12      317.367
       1033.3000  8.93237e-12      317.188
       1033.4000  8.93237e-12      317.099
       1033.5000  8.44373e-12      299.583
       1033.6000  8.44373e-12      299.499
       1033.7000  8.44373e-12      299.415
       1033.8000  8.45589e-12      299.761
       1033.9000  8.45589e-12      299.761
       1034.0000  8.45589e-12      299.677
       1034.1000  8.45589e-12      299.677
       1034.2000  8.45589e-12      299.592
       1034.3000  8.45589e-12      299.592
       1034.4000  8.45589e-12      299.592
       1034.5000  7.61486e-12      269.795
       1034.6000  7.61486e-12      269.871
       1034.7000  7.61486e-12      269.871
       1034.8000  7.61486e-12      269.947
       1034.9000  7.61486e-12      269.947
       1035.0000  7.61486e-12      270.023
       1035.1000  7.61486e-12      270.099
       1035.2000  7.61486e-12      270.175
       1035.3000  7.61486e-12      270.328
       1035.4000  7.61486e-12      270.404
       1035.5000  6.41376e-12      227.881
       1035.6000  6.41376e-12      228.009
       1035.7000  6.41376e-12      228.073
       1035.8000  6.41376e-12      228.201
       1035.9000  6.41376e-12      228.394
       1036.0000  6.41376e-12      228.522
       1036.1000  6.41376e-12      228.394
       1036.2000  6.41376e-12      228.266
       1036.3000  6.40315e-12      227.760
       1036.4000  6.40315e-12      227.632
       1036.5000  5.52103e-12      196.162
       1036.6000  5.52103e-12      196.052
       1036.7000  5.52103e-12      195.996
       1036.8000  5.52103e-12      195.886
       1036.9000  5.52103e-12      195.776
       1037.0000  5.52103e-12      195.720
       1037.1000  5.52103e-12      195.665
       1037.2000  5.52103e-12      195.555
       1037.3000  5.52103e-12      195.499
       1037.4000  5.52103e-12      195.444
       1037.5000  6.65936e-12      235.675
       1037.6000  6.65936e-12      235.608
       1037.7000  6.65936e-12      235.542
       1037.8000  6.65936e-12      235.475
       1037.9000  6.65936e-12      235.408
       1038.0000  6.65936e-12      235.342
       1038.1000  6.65936e-12      235.342
       1038.2000  6.65936e-12      235.342
       1038.3000  6.65936e-12      235.408
       1038.4000  6.65936e-12      235.408
       1038.5000  8.70002e-12      307.546
       1038.6000  8.70002e-12      307.546
       1038.7000  8.70002e-12      307.546
       1038.8000  8.68092e-12      306.870
       1038.9000  8.68092e-12      306.870
       1039.0000  8.68092e-12      306.870
       1039.1000  8.68092e-12      306.870
       1039.2000  8.68092e-12      306.870
       1039.3000  8.68092e-12      306.870
       1039.4000  8.68092e-12      306.870
       1039.5000  5.95911e-12      210.654
       1039.6000  5.95911e-12      210.654
       1039.7000  5.95911e-12      210.654
       1039.8000  5.95911e-12      210.654
       1039.9000  5.95911e-12      210.654
       1040.0000  5.95911e-12      210.654
       1040.1000  5.95911e-12      210.654
       1040.2000  5.95911e-12      210.654
       1040.3000  5.95911e-12      210.654
       1040.4000  5.95911e-12      210.654
       1040.5000  4.28120e-12      151.340
       1040.6000  4.28120e-12      151.340
       1040.7000  4.28120e-12      151.340
       1040.8000  4.28120e-12      151.340
       1040.9000  4.28120e-12      151.340
       1041.0000  4.28120e-12      151.340
       1041.1000  4.28120e-12      151.340
       1041.2000  4.28120e-12      151.340
       1041.3000  4.27962e-12      151.285
       1041.4000  4.27962e-12      151.285
       1041.5000  4.51162e-12      159.486
       1041.6000  4.51162e-12      159.486
       1041.7000  4.51162e-12      159.486
       1041.8000  4.51162e-12      159.441
       1041.9000  4.51162e-12      159.441
       1042.0000  4.51162e-12      159.441
       1042.1000  4.51162e-12      159.486
       1042.2000  4.51162e-12      159.486
       1042.3000  4.51162e-12      159.531
       1042.4000  4.51162e-12      159.531
       1042.5000  3.15281e-12      111.483
       1042.6000  3.15281e-12      111.483
       1042.7000  3.15281e-12      111.483
       1042.8000  3.15281e-12      111.452
       1042.9000  3.15281e-12      111.452
       1043.0000  3.15281e-12      111.452
       1043.1000  3.15281e-12      111.420
       1043.2000  3.15281e-12      111.389
       1043.3000  3.15281e-12      111.389
       1043.4000  3.15281e-12      111.357
       1043.5000  5.86402e-12      207.058
       1043.6000  5.86402e-12      207.000
       1043.7000  5.86402e-12      206.941
       1043.8000  5.88228e-12      207.468
       1043.9000  5.88228e-12      207.409
       1044.0000  5.88228e-12      207.292
       1044.1000  5.88228e-12      207.056
       1044.2000  5.88228e-12      206.762
       1044.3000  5.88228e-12      206.527
       1044.4000  5.88228e-12      206.292
       1044.5000  3.59286e-12      125.858
       1044.6000  3.59286e-12      125.750
       1044.7000  3.59286e-12      125.606
       1044.8000  3.59286e-12      125.499
       1044.9000  3.59286e-12      125.391
       1045.0000  3.59286e-12      125.283
       1045.1000  3.59286e-12      125.211
       1045.2000  3.59286e-12      125.103
       1045.3000  3.59286e-12      125.032
       1045.4000  3.59286e-12      124.960
       1045.5000  3.29036e-12      114.406
       1045.6000  3.29036e-12      114.340
       1045.7000  3.29036e-12      114.307
       1045.8000  3.29036e-12      114.274
       1045.9000  3.29036e-12      114.241
       1046.0000  3.29036e-12      114.208
       1046.1000  3.29036e-12      114.208
       1046.2000  3.29036e-12      114.175
       1046.3000  3.29852e-12      114.459
       1046.4000  3.29852e-12      114.459
       1046.5000  2.90798e-12      100.936
       1046.6000  2.90798e-12      100.936
       1046.7000  2.90798e-12      100.965
       1046.8000  2.90798e-12      100.994
       1046.9000  2.90798e-12      101.023
       1047.0000  2.90798e-12      101.081
       1047.1000  2.90798e-12      101.110
       1047.2000  2.90798e-12      101.169
       1047.3000  2.90798e-12      101.227
       1047.4000  2.90798e-12      101.285
       1047.5000  2.97469e-12      103.698
       1047.6000  2.97469e-12      103.757
       1047.7000  2.97469e-12      103.847
       1047.8000  2.97469e-12      103.936
       1047.9000  2.97469e-12      104.025
       1048.0000  2.97469e-12      104.144
       1048.1000  2.97469e-12      104.144
       1048.2000  2.97469e-12      104.144
       1048.3000  2.97469e-12      104.144
       1048.4000  2.97469e-12      104.114
       1048.5000  3.57115e-12      124.990
       1048.6000  3.57115e-12      124.990
       1048.7000  3.57115e-12      124.990
       1048.8000  3.57030e-12      124.961
       1048.9000  3.57030e-12      124.961
       1049.0000  3.57030e-12      124.925
       1049.1000  3.57030e-12      124.925
       1049.2000  3.57030e-12      124.925
       1049.3000  3.57030e-12      124.889
       1049.4000  3.57030e-12      124.889
       1049.5000  2.90082e-12      101.471
       1049.6000  2.90082e-12      101.442
       1049.7000  2.90082e-12      101.442
       1049.8000  2.90082e-12      101.442
       1049.9000  2.90082e-12      101.413
       1050.0000  2.90082e-12      101.413
       1050.1000  2.90082e-12      101.384
       1050.2000  2.90082e-12      101.384
       1050.3000  2.90082e-12      101.355
       1050.4000  2.90082e-12      101.326
       1050.5000  2.21377e-12      77.3271
       1050.6000  2.21377e-12      77.3049
       1050.7000  2.21377e-12      77.3049
       1050.8000  2.21377e-12      77.2828
       1050.9000  2.21377e-12      77.2607
       1051.0000  2.21377e-12      77.2607
       1051.1000  2.21377e-12      77.2385
       1051.2000  2.21377e-12      77.2385
       1051.3000  2.20554e-12      76.9291
       1051.4000  2.20554e-12      76.9071
       1051.5000  1.44153e-12      50.2661
       1051.6000  1.44153e-12      50.2517
       1051.7000  1.44153e-12      50.2373
       1051.8000  1.44153e-12      50.2373
       1051.9000  1.44153e-12      50.2229
       1052.0000  1.44153e-12      50.2229
       1052.1000  1.44153e-12      50.2085
       1052.2000  1.44153e-12      50.1940
       1052.3000  1.44153e-12      50.1940
       1052.4000  1.44153e-12      50.1796
       1052.5000  1.36618e-12      47.5432
       1052.6000  1.36618e-12      47.5432
       1052.7000  1.36618e-12      47.5296
       1052.8000  1.36618e-12      47.5159
       1052.9000  1.36618e-12      47.5159
       1053.0000  1.36618e-12      47.5022
       1053.1000  1.36618e-12      47.5022
       1053.2000  1.36618e-12      47.4886
       1053.3000  1.36618e-12      47.4749
       1053.4000  1.36618e-12      47.4749
       1053.5000  1.15437e-12      40.1028
       1053.6000  1.15437e-12      40.0913
       1053.7000  1.15437e-12      40.0913
       1053.8000  1.14655e-12      39.8083
       1053.9000  1.14655e-12      39.7968
       1054.0000  1.14655e-12      39.7968
       1054.1000  1.14655e-12      39.8197
       1054.2000  1.14655e-12      39.8312
       1054.3000  1.14655e-12      39.8541
       1054.4000  1.14655e-12      39.8770
       1054.5000  6.36561e-13      22.1460
       1054.6000  6.36561e-13      22.1523
       1054.7000  6.36561e-13      22.1587
       1054.8000  6.36561e-13      22.1651
       1054.9000  6.36561e-13      22.1714
       1055.0000  6.36561e-13      22.1778
       1055.1000  6.36561e-13      22.1778
       1055.2000  6.36561e-13      22.1778
       1055.3000  6.36561e-13      22.1842
       1055.4000  6.36561e-13      22.1842
       1055.5000  4.79340e-13      16.7002
       1055.6000  4.79340e-13      16.7002
       1055.7000  4.79340e-13      16.7002
       1055.8000  4.79340e-13      16.6954
       1055.9000  4.79340e-13      16.6906
       1056.0000  4.79340e-13      16.6858
       1056.1000  4.79340e-13      16.6714
       1056.2000  4.79340e-13      16.6571
       1056.3000  4.74481e-13      16.4740
       1056.4000  4.74481e-13      16.4550
       1056.5000  1.20474e-13      4.17443
       1056.6000  1.20474e-13      4.17202
       1056.7000  1.20474e-13      4.16840
       1056.8000  1.20474e-13      4.16479
       1056.9000  1.20474e-13      4.16117
       1057.0000  1.20474e-13      4.15877
