PDS_VERSION_ID         = PDS3
RECORD_TYPE            = STREAM
OBJECT                 = TEXT
  PUBLICATION_DATE     = 2014-04-25
  INTERCHANGE_FORMAT   = ASCII
  NOTE                 = "System transmission vs. wavelength."
END_OBJECT             = TEXT
END
    
The systrans directory contains the non-wavelength-integrated system 
transmission values (QE*optics*filter1*filter2) for each filter combination. 
The naming convention for these files is as follows:

<camera><filter 1><filter 2>_systrans.tab

where <camera> is "issna" or "isswa," and <filter 1> and <filter 2> represent
the filter names. For polarized filter combinations, values are given for the
parallel orientation of the filter (full transmission), with values for the 
perpendicular (blocking) orientation provided in files with subscript 
"_b_systrans.tab". 

Columns in systrans files are as follows:

 1st column: Wavelength (nm)  
 2nd column: Transmitted Flux
 3rd column: Transmitted Flux * Solar Flux (phot per cm^2-s-angstrom at 1 AU)

The solar spectrum used for this calculation is provided in solarflux.tab.

\begindata
       600.00000  3.72050e-10      19815.4
       600.10000  3.72050e-10      19785.6
       600.20000  3.72050e-10      19752.1
       600.30000  3.72050e-10      19711.2
       600.40000  3.72050e-10      19662.9
       600.50000  1.17298e-10      6183.97
       600.60000  1.17298e-10      6192.19
       600.70000  1.17298e-10      6199.22
       600.80000  1.17298e-10      6206.26
       600.90000  1.17298e-10      6210.95
       601.00000  1.17298e-10      6214.47
       601.10000  1.17298e-10      6215.65
       601.20000  1.17298e-10      6216.82
       601.30000  1.17239e-10      6213.65
       601.40000  1.17239e-10      6211.30
       601.50000  7.69787e-10      40767.9
       601.60000  7.69787e-10      40590.9
       601.70000  7.69787e-10      40444.6
       601.80000  7.69787e-10      40313.7
       601.90000  7.69787e-10      40213.7
       602.00000  7.69787e-10      40136.7
       602.10000  7.69787e-10      40075.1
       602.20000  7.69787e-10      40044.3
       602.30000  7.69787e-10      40036.6
       602.40000  7.69787e-10      40052.0
       602.50000  3.32640e-10      17320.6
       602.60000  3.32640e-10      17347.2
       602.70000  3.32640e-10      17383.8
       602.80000  3.32640e-10      17430.3
       602.90000  3.32640e-10      17486.9
       603.00000  3.32640e-10      17553.4
       603.10000  3.32640e-10      17629.9
       603.20000  3.32640e-10      17716.4
       603.30000  3.32640e-10      17812.9
       603.40000  3.32640e-10      17919.3
       603.50000  6.40575e-10      34732.0
       603.60000  6.40575e-10      34719.2
       603.70000  6.40575e-10      34706.4
       603.80000  6.40904e-10      34711.3
       603.90000  6.40904e-10      34692.1
       604.00000  6.40904e-10      34679.3
       604.10000  6.40904e-10      34660.1
       604.20000  6.40904e-10      34647.3
       604.30000  6.40904e-10      34628.0
       604.40000  6.40904e-10      34615.2
       604.50000  2.63631e-10      14230.8
       604.60000  2.63631e-10      14220.3
       604.70000  2.63631e-10      14209.7
       604.80000  2.63631e-10      14199.2
       604.90000  2.63631e-10      14188.6
       605.00000  2.63631e-10      14180.7
       605.10000  2.63631e-10      14172.8
       605.20000  2.63631e-10      14167.5
       605.30000  2.63631e-10      14159.6
       605.40000  2.63631e-10      14154.4
       605.50000  4.13302e-10      22181.9
       605.60000  4.13302e-10      22177.8
       605.70000  4.13302e-10      22169.5
       605.80000  4.13302e-10      22165.4
       605.90000  4.13302e-10      22165.4
       606.00000  4.13302e-10      22161.2
       606.10000  4.13302e-10      22161.2
       606.20000  4.13302e-10      22161.2
       606.30000  4.13752e-10      22185.4
       606.40000  4.13752e-10      22189.5
       606.50000  4.27109e-10      22910.1
       606.60000  4.27109e-10      22918.7
       606.70000  4.27109e-10      22922.9
       606.80000  4.27109e-10      22931.5
       606.90000  4.27109e-10      22931.5
       607.00000  4.27109e-10      22935.8
       607.10000  4.27109e-10      22935.8
       607.20000  4.27109e-10      22935.8
       607.30000  4.27109e-10      22931.5
       607.40000  4.27109e-10      22927.2
       607.50000  4.49314e-10      24114.7
       607.60000  4.49314e-10      24087.7
       607.70000  4.49314e-10      24065.3
       607.80000  4.49314e-10      24047.3
       607.90000  4.49314e-10      24029.3
       608.00000  4.49314e-10      24011.4
       608.10000  4.49314e-10      23997.9
       608.20000  4.49314e-10      23984.4
       608.30000  4.49314e-10      23975.4
       608.40000  4.49314e-10      23966.4
       608.50000  4.78270e-10      25506.1
       608.60000  4.78270e-10      25501.4
       608.70000  4.78270e-10      25496.6
       608.80000  4.78480e-10      25507.8
       608.90000  4.78480e-10      25512.6
       609.00000  4.78480e-10      25517.4
       609.10000  4.78480e-10      25522.1
       609.20000  4.78480e-10      25531.7
       609.30000  4.78480e-10      25541.3
       609.40000  4.78480e-10      25555.6
       609.50000  1.21326e-10      6484.87
       609.60000  1.21326e-10      6455.75
       609.70000  1.21326e-10      6430.27
       609.80000  1.21326e-10      6408.43
       609.90000  1.21326e-10      6390.23
       610.00000  1.21326e-10      6374.46
       610.10000  1.21326e-10      6361.11
       610.20000  1.21326e-10      6351.41
       610.30000  1.21326e-10      6345.34
       610.40000  1.21326e-10      6342.91
       610.50000  4.21201e-10      22016.2
       610.60000  4.21201e-10      22125.7
       610.70000  4.21201e-10      22222.5
       610.80000  4.21201e-10      22311.0
       610.90000  4.21201e-10      22386.8
       611.00000  4.21201e-10      22450.0
       611.10000  4.21201e-10      22504.8
       611.20000  4.21201e-10      22546.9
       611.30000  4.21365e-10      22589.4
       611.40000  4.21365e-10      22610.4
       611.50000  3.25708e-10      17484.0
       611.60000  3.25708e-10      17484.0
       611.70000  3.25708e-10      17474.3
       611.80000  3.25708e-10      17458.0
       611.90000  3.25708e-10      17431.9
       612.00000  3.25708e-10      17399.3
       612.10000  3.25708e-10      17357.0
       612.20000  3.25708e-10      17304.9
       612.30000  3.25708e-10      17246.3
       612.40000  3.25708e-10      17177.9
       612.50000  4.03431e-10      21184.2
       612.60000  4.03431e-10      21131.7
       612.70000  4.03431e-10      21083.3
       612.80000  4.03431e-10      21043.0
       612.90000  4.03431e-10      21010.7
       613.00000  4.03431e-10      20982.5
       613.10000  4.03431e-10      20962.3
       613.20000  4.03431e-10      20946.1
       613.30000  4.03431e-10      20938.1
       613.40000  4.03431e-10      20938.1
       613.50000  3.51776e-10      18260.7
       613.60000  3.51776e-10      18313.4
       613.70000  3.51776e-10      18359.2
       613.80000  3.51702e-10      18397.5
       613.90000  3.51702e-10      18439.7
       614.00000  3.51702e-10      18478.4
       614.10000  3.51702e-10      18510.1
       614.20000  3.51702e-10      18541.7
       614.30000  3.51702e-10      18569.8
       614.40000  3.51702e-10      18594.5
       614.50000  1.64899e-10      8728.09
       614.60000  1.64899e-10      8736.33
       614.70000  1.64899e-10      8742.93
       614.80000  1.64899e-10      8747.88
       614.90000  1.64899e-10      8751.18
       615.00000  1.64899e-10      8752.82
       615.10000  1.64899e-10      8754.47
       615.20000  1.64899e-10      8752.82
       615.30000  1.64899e-10      8751.18
       615.40000  1.64899e-10      8747.88
       615.50000  6.45603e-10      34223.4
       615.60000  6.45603e-10      33842.5
       615.70000  6.45603e-10      33493.9
       615.80000  6.45603e-10      33190.5
       615.90000  6.45603e-10      32932.2
       616.00000  6.45603e-10      32706.3
       616.10000  6.45603e-10      32525.5
       616.20000  6.45603e-10      32383.5
       616.30000  6.46611e-10      32330.6
       616.40000  6.46611e-10      32272.4
       616.50000  5.15738e-10      25719.9
       616.60000  5.15738e-10      25941.6
       616.70000  5.15738e-10      26147.9
       616.80000  5.15738e-10      26338.8
       616.90000  5.15738e-10      26519.3
       617.00000  5.15738e-10      26689.5
       617.10000  5.15738e-10      26844.2
       617.20000  5.15738e-10      26983.4
       617.30000  5.15738e-10      27112.4
       617.40000  5.15738e-10      27231.0
       617.50000  6.41797e-10      34015.2
       617.60000  6.41797e-10      34124.3
       617.70000  6.41797e-10      34220.6
       617.80000  6.41797e-10      34304.0
       617.90000  6.41797e-10      34361.8
       618.00000  6.41797e-10      34413.1
       618.10000  6.41797e-10      34445.2
       618.20000  6.41797e-10      34458.1
       618.30000  6.41797e-10      34458.1
       618.40000  6.41797e-10      34438.8
       618.50000  1.09215e-10      5855.04
       618.60000  1.09215e-10      5844.12
       618.70000  1.09215e-10      5833.20
       618.80000  1.09326e-10      5831.46
       618.90000  1.09326e-10      5823.81
       619.00000  1.09326e-10      5818.34
       619.10000  1.09326e-10      5813.97
       619.20000  1.09326e-10      5811.78
       619.30000  1.09326e-10      5810.69
       619.40000  1.09326e-10      5810.69
       619.50000  1.62557e-10      8643.14
       619.60000  1.62557e-10      8674.02
       619.70000  1.62557e-10      8701.66
       619.80000  1.62557e-10      8726.04
       619.90000  1.62557e-10      8747.17
       620.00000  1.62557e-10      8763.43
       620.10000  1.62557e-10      8776.43
       620.20000  1.62557e-10      8786.19
       620.30000  1.62557e-10      8792.69
       620.40000  1.62557e-10      8794.31
       620.50000  4.46161e-10      24137.3
       620.60000  4.46161e-10      24039.1
       620.70000  4.46161e-10      23945.5
       620.80000  4.46161e-10      23865.1
       620.90000  4.46161e-10      23793.8
       621.00000  4.46161e-10      23731.3
       621.10000  4.46161e-10      23677.8
       621.20000  4.46161e-10      23637.6
       621.30000  4.46316e-10      23610.1
       621.40000  4.46316e-10      23583.4
       621.50000  2.13283e-10      11263.5
       621.60000  2.13283e-10      11301.9
       621.70000  2.13283e-10      11336.0
       621.80000  2.13283e-10      11363.7
       621.90000  2.13283e-10      11389.3
       622.00000  2.13283e-10      11408.5
       622.10000  2.13283e-10      11423.4
       622.20000  2.13283e-10      11432.0
       622.30000  2.13283e-10      11438.4
       622.40000  2.13283e-10      11438.4
       622.50000  3.09489e-10      16591.7
       622.60000  3.09489e-10      16579.3
       622.70000  3.09489e-10      16560.8
       622.80000  3.09489e-10      16536.0
       622.90000  3.09489e-10      16502.0
       623.00000  3.09489e-10      16464.8
       623.10000  3.09489e-10      16418.4
       623.20000  3.09489e-10      16362.7
       623.30000  3.09489e-10      16303.9
       623.40000  3.09489e-10      16235.8
       623.50000  2.32051e-10      12120.0
       623.60000  2.32051e-10      12117.7
       623.70000  2.32051e-10      12117.7
       623.80000  2.31941e-10      12107.3
       623.90000  2.31941e-10      12105.0
       624.00000  2.31941e-10      12100.4
       624.10000  2.31941e-10      12093.4
       624.20000  2.31941e-10      12086.4
       624.30000  2.31941e-10      12079.5
       624.40000  2.31941e-10      12070.2
       624.50000  2.78665e-10      14490.6
       624.60000  2.78665e-10      14434.8
       624.70000  2.78665e-10      14390.3
       624.80000  2.78665e-10      14351.2
       624.90000  2.78665e-10      14320.6
       625.00000  2.78665e-10      14298.3
       625.10000  2.78665e-10      14284.4
       625.20000  2.78665e-10      14276.0
       625.30000  2.78665e-10      14278.8
       625.40000  2.78665e-10      14287.2
       625.50000  2.52258e-10      12948.4
       625.60000  2.52258e-10      12968.6
       625.70000  2.52258e-10      12998.8
       625.80000  2.52258e-10      13034.1
       625.90000  2.52258e-10      13077.0
       626.00000  2.52258e-10      13127.5
       626.10000  2.52258e-10      13185.5
       626.20000  2.52258e-10      13248.6
       626.30000  2.51967e-10      13306.4
       626.40000  2.51967e-10      13384.5
       626.50000  1.22052e-10      6523.67
       626.60000  1.22052e-10      6524.89
       626.70000  1.22052e-10      6526.11
       626.80000  1.22052e-10      6527.33
       626.90000  1.22052e-10      6528.55
       627.00000  1.22052e-10      6529.77
       627.10000  1.22052e-10      6530.99
       627.20000  1.22052e-10      6530.99
       627.30000  1.22052e-10      6532.21
       627.40000  1.22052e-10      6533.43
       627.50000  2.92958e-10      15685.0
       627.60000  2.92958e-10      15696.7
       627.70000  2.92958e-10      15705.5
       627.80000  2.92958e-10      15711.3
       627.90000  2.92958e-10      15717.2
       628.00000  2.92958e-10      15720.1
       628.10000  2.92958e-10      15723.0
       628.20000  2.92958e-10      15723.0
       628.30000  2.92958e-10      15720.1
       628.40000  2.92958e-10      15717.2
       628.50000  6.38680e-11      3425.24
       628.60000  6.38680e-11      3423.32
       628.70000  6.38680e-11      3421.41
       628.80000  6.37249e-11      3411.19
       628.90000  6.37249e-11      3408.01
       629.00000  6.37249e-11      3404.82
       629.10000  6.37249e-11      3401.00
       629.20000  6.37249e-11      3397.17
       629.30000  6.37249e-11      3392.71
       629.40000  6.37249e-11      3387.61
       629.50000  1.85998e-10      9872.80
       629.60000  1.85998e-10      9852.34
       629.70000  1.85998e-10      9831.88
       629.80000  1.85998e-10      9813.28
       629.90000  1.85998e-10      9796.54
       630.00000  1.85998e-10      9779.80
       630.10000  1.85998e-10      9763.06
       630.20000  1.85998e-10      9750.04
       630.30000  1.85998e-10      9735.16
       630.40000  1.85998e-10      9724.00
       630.50000  2.15447e-10      11250.6
       630.60000  2.15447e-10      11237.7
       630.70000  2.15447e-10      11226.9
       630.80000  2.15447e-10      11218.3
       630.90000  2.15447e-10      11209.7
       631.00000  2.15447e-10      11203.2
       631.10000  2.15447e-10      11209.7
       631.20000  2.15447e-10      11216.2
       631.30000  2.14862e-10      11194.3
       631.40000  2.14862e-10      11200.8
       631.50000  2.50168e-10      13048.8
       631.60000  2.50168e-10      13056.3
       631.70000  2.50168e-10      13063.8
       631.80000  2.50168e-10      13068.8
       631.90000  2.50168e-10      13076.3
       632.00000  2.50168e-10      13083.8
       632.10000  2.50168e-10      13091.3
       632.20000  2.50168e-10      13096.3
       632.30000  2.50168e-10      13103.8
       632.40000  2.50168e-10      13111.3
       632.50000  1.91559e-10      10043.4
       632.60000  1.91559e-10      10047.2
       632.70000  1.91559e-10      10053.0
       632.80000  1.91559e-10      10056.8
       632.90000  1.91559e-10      10060.7
       633.00000  1.91559e-10      10066.4
       633.10000  1.91559e-10      10070.2
       633.20000  1.91559e-10      10074.1
       633.30000  1.91559e-10      10077.9
       633.40000  1.91559e-10      10081.7
       633.50000  1.50791e-10      7939.13
       633.60000  1.50791e-10      7942.14
       633.70000  1.50791e-10      7945.16
       633.80000  1.50387e-10      7925.39
       633.90000  1.50387e-10      7928.40
       634.00000  1.50387e-10      7931.41
       634.10000  1.50387e-10      7932.91
       634.20000  1.50387e-10      7935.92
       634.30000  1.50387e-10      7937.43
       634.40000  1.50387e-10      7940.43
       634.50000  2.93541e-10      15501.9
       634.60000  2.93541e-10      15504.8
       634.70000  2.93541e-10      15510.7
       634.80000  2.93541e-10      15513.6
       634.90000  2.93541e-10      15516.6
       635.00000  2.93541e-10      15519.5
       635.10000  2.93541e-10      15522.5
       635.20000  2.93541e-10      15522.5
       635.30000  2.93541e-10      15525.4
       635.40000  2.93541e-10      15525.4
       635.50000  1.97319e-10      10438.2
       635.60000  1.97319e-10      10440.1
       635.70000  1.97319e-10      10440.1
       635.80000  1.97319e-10      10442.1
       635.90000  1.97319e-10      10442.1
       636.00000  1.97319e-10      10444.1
       636.10000  1.97319e-10      10444.1
       636.20000  1.97319e-10      10446.1
       636.30000  1.96607e-10      10408.4
       636.40000  1.96607e-10      10410.4
       636.50000  3.08660e-10      16343.5
       636.60000  3.08660e-10      16346.6
       636.70000  3.08660e-10      16346.6
       636.80000  3.08660e-10      16349.7
       636.90000  3.08660e-10      16349.7
       637.00000  3.08660e-10      16349.7
       637.10000  3.08660e-10      16352.8
       637.20000  3.08660e-10      16352.8
       637.30000  3.08660e-10      16355.9
       637.40000  3.08660e-10      16355.9
       637.50000  2.24799e-10      11912.1
       637.60000  2.24799e-10      11914.4
       637.70000  2.24799e-10      11914.4
       637.80000  2.24799e-10      11916.6
       637.90000  2.24799e-10      11916.6
       638.00000  2.24799e-10      11916.6
       638.10000  2.24799e-10      11918.9
       638.20000  2.24799e-10      11918.9
       638.30000  2.24799e-10      11918.9
       638.40000  2.24799e-10      11921.1
       638.50000  3.31851e-11      1759.80
       638.60000  3.31851e-11      1759.80
       638.70000  3.31851e-11      1760.14
       638.80000  3.30916e-11      1755.18
       638.90000  3.30916e-11      1755.18
       639.00000  3.30916e-11      1755.18
       639.10000  3.30916e-11      1752.53
       639.20000  3.30916e-11      1749.88
       639.30000  3.30916e-11      1747.24
       639.40000  3.30916e-11      1744.92
       639.50000  2.11855e-10      11154.2
       639.60000  2.11855e-10      11141.5
       639.70000  2.11855e-10      11126.6
       639.80000  2.11855e-10      11113.9
       639.90000  2.11855e-10      11103.3
       640.00000  2.11855e-10      11090.6
       640.10000  2.11855e-10      11080.0
       640.20000  2.11855e-10      11071.5
       640.30000  2.11855e-10      11063.1
       640.40000  2.11855e-10      11054.6
       640.50000  1.90337e-10      9924.16
       640.60000  1.90337e-10      9918.45
       640.70000  1.90337e-10      9912.74
       640.80000  1.90337e-10      9908.94
       640.90000  1.90337e-10      9903.23
       641.00000  1.90337e-10      9901.32
       641.10000  1.90337e-10      9905.13
       641.20000  1.90337e-10      9908.94
       641.30000  1.89738e-10      9881.57
       641.40000  1.89738e-10      9885.36
       641.50000  2.02774e-10      10568.6
       641.60000  2.02774e-10      10572.7
       641.70000  2.02774e-10      10576.7
       641.80000  2.02774e-10      10580.8
       641.90000  2.02774e-10      10584.8
       642.00000  2.02774e-10      10588.9
       642.10000  2.02774e-10      10590.9
       642.20000  2.02774e-10      10595.0
       642.30000  2.02774e-10      10599.0
       642.40000  2.02774e-10      10603.1
       642.50000  1.57117e-10      8218.77
       642.60000  1.57117e-10      8221.92
       642.70000  1.57117e-10      8225.06
       642.80000  1.57117e-10      8228.20
       642.90000  1.57117e-10      8231.34
       643.00000  1.57117e-10      8234.49
       643.10000  1.57117e-10      8236.06
       643.20000  1.57117e-10      8239.20
       643.30000  1.57117e-10      8242.34
       643.40000  1.57117e-10      8245.48
       643.50000  1.17347e-10      6160.69
       643.60000  1.17347e-10      6163.04
       643.70000  1.17347e-10      6164.21
       643.80000  1.16908e-10      6143.50
       643.90000  1.16908e-10      6145.84
       644.00000  1.16908e-10      6148.17
       644.10000  1.16908e-10      6150.51
       644.20000  1.16908e-10      6151.68
       644.30000  1.16908e-10      6154.02
       644.40000  1.16908e-10      6156.36
       644.50000  1.88071e-10      9907.56
       644.60000  1.88071e-10      9909.44
       644.70000  1.88071e-10      9913.20
       644.80000  1.88071e-10      9916.96
       644.90000  1.88071e-10      9920.72
       645.00000  1.88071e-10      9922.60
       645.10000  1.88071e-10      9920.72
       645.20000  1.88071e-10      9916.96
       645.30000  1.88071e-10      9915.08
       645.40000  1.88071e-10      9911.32
       645.50000  9.87686e-11      5202.14
       645.60000  9.87686e-11      5200.16
       645.70000  9.87686e-11      5198.19
       645.80000  9.87686e-11      5195.23
       645.90000  9.87686e-11      5192.26
       646.00000  9.87686e-11      5189.30
       646.10000  9.87686e-11      5186.34
       646.20000  9.87686e-11      5183.37
       646.30000  9.83591e-11      5157.95
       646.40000  9.83591e-11      5154.02
       646.50000  1.83800e-10      9625.62
       646.60000  1.83800e-10      9616.43
       646.70000  1.83800e-10      9609.08
       646.80000  1.83800e-10      9601.73
       646.90000  1.83800e-10      9592.54
       647.00000  1.83800e-10      9585.19
       647.10000  1.83800e-10      9559.46
       647.20000  1.83800e-10      9535.56
       647.30000  1.83800e-10      9513.51
       647.40000  1.83800e-10      9491.45
       647.50000  1.36546e-10      7036.20
       647.60000  1.36546e-10      7023.91
       647.70000  1.36546e-10      7010.26
       647.80000  1.36546e-10      6999.33
       647.90000  1.36546e-10      6988.41
       648.00000  1.36546e-10      6978.85
       648.10000  1.36546e-10      6970.66
       648.20000  1.36546e-10      6963.83
       648.30000  1.36546e-10      6957.00
       648.40000  1.36546e-10      6951.54
       648.50000  1.48166e-10      7538.70
       648.60000  1.48166e-10      7535.74
       648.70000  1.48166e-10      7532.77
       648.80000  1.47558e-10      7500.35
       648.90000  1.47558e-10      7500.35
       649.00000  1.47558e-10      7501.83
       649.10000  1.47558e-10      7503.31
       649.20000  1.47558e-10      7507.73
       649.30000  1.47558e-10      7510.68
       649.40000  1.47558e-10      7516.59
       649.50000  1.23648e-10      6304.79
       649.60000  1.23648e-10      6310.97
       649.70000  1.23648e-10      6318.39
       649.80000  1.23648e-10      6327.05
       649.90000  1.23648e-10      6335.70
       650.00000  1.23648e-10      6345.59
       650.10000  1.23648e-10      6356.72
       650.20000  1.23648e-10      6369.09
       650.30000  1.23648e-10      6382.69
       650.40000  1.23648e-10      6396.29
       650.50000  1.79376e-10      9300.65
       650.60000  1.79376e-10      9323.97
       650.70000  1.79376e-10      9347.29
       650.80000  1.79376e-10      9374.20
       650.90000  1.79376e-10      9401.10
       651.00000  1.79376e-10      9429.80
       651.10000  1.79376e-10      9436.98
       651.20000  1.79376e-10      9444.15
       651.30000  1.78583e-10      9407.73
       651.40000  1.78583e-10      9413.08
       651.50000  5.81649e-11      3067.61
       651.60000  5.81649e-11      3068.20
       651.70000  5.81649e-11      3069.36
       651.80000  5.81649e-11      3069.94
       651.90000  5.81649e-11      3069.94
       652.00000  5.81649e-11      3069.94
       652.10000  5.81649e-11      3069.36
       652.20000  5.81649e-11      3068.78
       652.30000  5.81649e-11      3068.20
       652.40000  5.81649e-11      3067.03
       652.50000  8.80796e-11      4641.79
       652.60000  8.80796e-11      4639.15
       652.70000  8.80796e-11      4636.51
       652.80000  8.80796e-11      4632.10
       652.90000  8.80796e-11      4628.58
       653.00000  8.80796e-11      4624.18
       653.10000  8.80796e-11      4620.65
       653.20000  8.80796e-11      4617.13
       653.30000  8.80796e-11      4611.85
       653.40000  8.80796e-11      4606.56
       653.50000  9.17309e-11      4792.02
       653.60000  9.17309e-11      4785.60
       653.70000  9.17309e-11      4778.26
       653.80000  9.15171e-11      4758.89
       653.90000  9.15171e-11      4750.65
       654.00000  9.15171e-11      4741.50
       654.10000  9.15171e-11      4732.35
       654.20000  9.15171e-11      4721.37
       654.30000  9.15171e-11      4710.38
       654.40000  9.15171e-11      4699.40
       654.50000  6.06670e-11      3107.36
       654.60000  6.06670e-11      3098.87
       654.70000  6.06670e-11      3089.77
       654.80000  6.06670e-11      3080.67
       654.90000  6.06670e-11      3070.96
       655.00000  6.06670e-11      3060.65
       655.10000  6.06670e-11      3031.53
       655.20000  6.06670e-11      3003.62
       655.30000  6.06670e-11      2977.54
       655.40000  6.06670e-11      2953.27
       655.50000  1.03537e-10      5000.84
       655.60000  1.03537e-10      4964.60
       655.70000  1.03537e-10      4930.43
       655.80000  1.03537e-10      4899.37
       655.90000  1.03537e-10      4870.38
       656.00000  1.03537e-10      4844.50
       656.10000  1.03537e-10      4821.72
       656.20000  1.03537e-10      4801.01
       656.30000  1.03405e-10      4777.31
       656.40000  1.03405e-10      4761.80
       656.50000  5.41377e-11      2486.55
       656.60000  5.41377e-11      2481.67
       656.70000  5.41377e-11      2477.88
       656.80000  5.41377e-11      2475.72
       656.90000  5.41377e-11      2474.64
       657.00000  5.41377e-11      2475.18
       657.10000  5.41377e-11      2496.29
       657.20000  5.41377e-11      2516.86
       657.30000  5.41377e-11      2536.89
       657.40000  5.41377e-11      2556.38
       657.50000  8.65936e-11      4118.39
       657.60000  8.65936e-11      4147.83
       657.70000  8.65936e-11      4175.54
       657.80000  8.65936e-11      4202.39
       657.90000  8.65936e-11      4227.50
       658.00000  8.65936e-11      4252.61
       658.10000  8.65936e-11      4276.86
       658.20000  8.65936e-11      4299.37
       658.30000  8.65936e-11      4321.02
       658.40000  8.65936e-11      4341.80
       658.50000  1.14792e-10      5780.94
       658.60000  1.14792e-10      5806.19
       658.70000  1.14792e-10      5829.15
       658.80000  1.14408e-10      5832.54
       658.90000  1.14408e-10      5853.14
       659.00000  1.14408e-10      5871.44
       659.10000  1.14408e-10      5889.75
       659.20000  1.14408e-10      5906.91
       659.30000  1.14408e-10      5921.78
       659.40000  1.14408e-10      5935.51
       659.50000  1.28672e-10      6689.68
       659.60000  1.28672e-10      6702.54
       659.70000  1.28672e-10      6712.84
       659.80000  1.28672e-10      6723.13
       659.90000  1.28672e-10      6730.85
       660.00000  1.28672e-10      6737.29
       660.10000  1.28672e-10      6742.43
       660.20000  1.28672e-10      6745.01
       660.30000  1.28672e-10      6747.58
       660.40000  1.28672e-10      6747.58
       660.50000  4.77642e-11      2504.28
       660.60000  4.77642e-11      2503.32
       660.70000  4.77642e-11      2501.89
       660.80000  4.77642e-11      2499.50
       660.90000  4.77642e-11      2497.11
       661.00000  4.77642e-11      2493.77
       661.10000  4.77642e-11      2492.34
       661.20000  4.77642e-11      2490.43
       661.30000  4.74145e-11      2470.77
       661.40000  4.74145e-11      2469.35
       661.50000  6.44319e-11      3353.68
       661.60000  6.44319e-11      3352.39
       661.70000  6.44319e-11      3350.46
       661.80000  6.44319e-11      3349.17
       661.90000  6.44319e-11      3347.88
       662.00000  6.44319e-11      3346.59
       662.10000  6.44319e-11      3345.30
       662.20000  6.44319e-11      3344.01
       662.30000  6.44319e-11      3343.37
       662.40000  6.44319e-11      3342.73
       662.50000  7.73268e-11      4010.17
       662.60000  7.73268e-11      4010.17
       662.70000  7.73268e-11      4009.39
       662.80000  7.73268e-11      4008.62
       662.90000  7.73268e-11      4008.62
       663.00000  7.73268e-11      4008.62
       663.10000  7.73268e-11      4011.71
       663.20000  7.73268e-11      4014.03
       663.30000  7.73268e-11      4017.13
       663.40000  7.73268e-11      4019.45
       663.50000  7.11708e-11      3701.59
       663.60000  7.11708e-11      3703.73
       663.70000  7.11708e-11      3705.15
       663.80000  7.05855e-11      3676.80
       663.90000  7.05855e-11      3678.21
       664.00000  7.05855e-11      3678.92
       664.10000  7.05855e-11      3680.33
       664.20000  7.05855e-11      3681.03
       664.30000  7.05855e-11      3681.74
       664.40000  7.05855e-11      3682.45
       664.50000  4.91080e-11      2561.97
       664.60000  4.91080e-11      2561.97
       664.70000  4.91080e-11      2561.97
       664.80000  4.91080e-11      2561.97
       664.90000  4.91080e-11      2561.97
       665.00000  4.91080e-11      2561.48
       665.10000  4.91080e-11      2560.98
       665.20000  4.91080e-11      2560.49
       665.30000  4.91080e-11      2559.51
       665.40000  4.91080e-11      2558.53
       665.50000  1.37531e-11      716.264
       665.60000  1.37531e-11      715.989
       665.70000  1.37531e-11      715.576
       665.80000  1.37531e-11      715.301
       665.90000  1.37531e-11      714.888
       666.00000  1.37531e-11      714.338
       666.10000  1.37531e-11      713.926
       666.20000  1.37531e-11      713.376
       666.30000  1.36642e-11      708.218
       666.40000  1.36642e-11      707.671
       666.50000  7.93317e-11      4104.62
       666.60000  7.93317e-11      4100.66
       666.70000  7.93317e-11      4096.69
       666.80000  7.93317e-11      4092.72
       666.90000  7.93317e-11      4088.76
       667.00000  7.93317e-11      4084.00
       667.10000  7.93317e-11      4088.76
       667.20000  7.93317e-11      4092.72
       667.30000  7.93317e-11      4096.69
       667.40000  7.93317e-11      4100.66
       667.50000  9.38521e-11      4855.91
       667.60000  9.38521e-11      4859.66
       667.70000  9.38521e-11      4863.42
       667.80000  9.38521e-11      4866.23
       667.90000  9.38521e-11      4869.05
       668.00000  9.38521e-11      4871.86
       668.10000  9.38521e-11      4874.68
       668.20000  9.38521e-11      4876.56
       668.30000  9.38521e-11      4878.43
       668.40000  9.38521e-11      4879.37
       668.50000  6.62973e-11      3447.46
       668.60000  6.62973e-11      3448.12
       668.70000  6.62973e-11      3448.12
       668.80000  6.59169e-11      3428.34
       668.90000  6.59169e-11      3428.34
       669.00000  6.59169e-11      3427.68
       669.10000  6.59169e-11      3423.07
       669.20000  6.59169e-11      3418.45
       669.30000  6.59169e-11      3414.50
       669.40000  6.59169e-11      3410.54
       669.50000  2.72233e-11      1406.90
       669.60000  2.72233e-11      1405.27
       669.70000  2.72233e-11      1403.91
       669.80000  2.72233e-11      1402.54
       669.90000  2.72233e-11      1401.18
       670.00000  2.72233e-11      1400.09
       670.10000  2.72233e-11      1399.01
       670.20000  2.72233e-11      1397.92
       670.30000  2.72233e-11      1396.83
       670.40000  2.72233e-11      1396.01
       670.50000  2.53870e-11      1301.09
       670.60000  2.53870e-11      1300.32
       670.70000  2.53870e-11      1299.82
       670.80000  2.53870e-11      1299.31
       670.90000  2.53870e-11      1298.80
       671.00000  2.53870e-11      1298.55
       671.10000  2.53870e-11      1298.04
       671.20000  2.53870e-11      1298.04
       671.30000  2.52432e-11      1290.43
       671.40000  2.52432e-11      1290.43
       671.50000  7.50993e-11      3839.08
       671.60000  7.50993e-11      3839.08
       671.70000  7.50993e-11      3839.08
       671.80000  7.50993e-11      3839.83
       671.90000  7.50993e-11      3840.58
       672.00000  7.50993e-11      3842.08
       672.10000  7.50993e-11      3843.58
       672.20000  7.50993e-11      3845.09
       672.30000  7.50993e-11      3846.59
       672.40000  7.50993e-11      3848.84
       672.50000  4.15454e-11      2130.45
       672.60000  4.15454e-11      2131.70
       672.70000  4.15454e-11      2132.94
       672.80000  4.15454e-11      2134.60
       672.90000  4.15454e-11      2136.27
       673.00000  4.15454e-11      2138.34
       673.10000  4.15454e-11      2137.51
       673.20000  4.15454e-11      2136.68
       673.30000  4.15454e-11      2135.85
       673.40000  4.15454e-11      2135.43
       673.50000  2.64107e-11      1356.98
       673.60000  2.64107e-11      1356.72
       673.70000  2.64107e-11      1356.45
       673.80000  2.62464e-11      1347.49
       673.90000  2.62464e-11      1347.23
       674.00000  2.62464e-11      1346.96
       674.10000  2.62464e-11      1346.70
       674.20000  2.62464e-11      1346.44
       674.30000  2.62464e-11      1346.18
       674.40000  2.62464e-11      1345.91
       674.50000  1.52683e-11      782.803
       674.60000  1.52683e-11      782.803
       674.70000  1.52683e-11      782.651
       674.80000  1.52683e-11      782.651
       674.90000  1.52683e-11      782.498
       675.00000  1.52683e-11      782.498
       675.10000  1.52683e-11      782.651
       675.20000  1.52683e-11      782.803
       675.30000  1.52683e-11      782.956
       675.40000  1.52683e-11      783.109
       675.50000  5.62780e-11      2886.50
       675.60000  5.62780e-11      2887.06
       675.70000  5.62780e-11      2887.62
       675.80000  5.62780e-11      2887.62
       675.90000  5.62780e-11      2888.19
       676.00000  5.62780e-11      2888.19
       676.10000  5.62780e-11      2888.75
       676.20000  5.62780e-11      2888.75
       676.30000  5.58526e-11      2866.91
       676.40000  5.58526e-11      2866.91
       676.50000  3.68460e-11      1891.68
       676.60000  3.68460e-11      1891.68
       676.70000  3.68460e-11      1891.68
       676.80000  3.68460e-11      1891.31
       676.90000  3.68460e-11      1891.31
       677.00000  3.68460e-11      1891.31
       677.10000  3.68460e-11      1891.31
       677.20000  3.68460e-11      1890.94
       677.30000  3.68460e-11      1890.94
       677.40000  3.68460e-11      1890.57
       677.50000  4.24693e-11      2179.10
       677.60000  4.24693e-11      2178.68
       677.70000  4.24693e-11      2178.68
       677.80000  4.24693e-11      2178.25
       677.90000  4.24693e-11      2177.83
       678.00000  4.24693e-11      2177.40
       678.10000  4.24693e-11      2176.98
       678.20000  4.24693e-11      2176.55
       678.30000  4.24693e-11      2176.13
       678.40000  4.24693e-11      2175.70
       678.50000  2.11764e-11      1084.44
       678.60000  2.11764e-11      1084.23
       678.70000  2.11764e-11      1084.02
       678.80000  2.10168e-11      1075.43
       678.90000  2.10168e-11      1075.22
       679.00000  2.10168e-11      1074.80
       679.10000  2.10168e-11      1074.80
       679.20000  2.10168e-11      1075.01
       679.30000  2.10168e-11      1075.01
       679.40000  2.10168e-11      1075.01
       679.50000  2.51780e-11      1287.85
       679.60000  2.51780e-11      1287.85
       679.70000  2.51780e-11      1287.85
       679.80000  2.51780e-11      1287.85
       679.90000  2.51780e-11      1287.85
       680.00000  2.51780e-11      1287.60
       680.10000  2.51780e-11      1287.60
       680.20000  2.51780e-11      1287.60
       680.30000  2.51780e-11      1287.35
       680.40000  2.51780e-11      1287.35
       680.50000  4.32702e-11      2211.97
       680.60000  4.32702e-11      2211.97
       680.70000  4.32702e-11      2211.54
       680.80000  4.32702e-11      2211.11
       680.90000  4.32702e-11      2210.68
       681.00000  4.32702e-11      2210.68
       681.10000  4.32702e-11      2210.24
       681.20000  4.32702e-11      2209.81
       681.30000  4.29049e-11      2191.15
       681.40000  4.29049e-11      2190.72
       681.50000  5.77044e-11      2945.81
       681.60000  5.77044e-11      2945.23
       681.70000  5.77044e-11      2944.66
       681.80000  5.77044e-11      2943.50
       681.90000  5.77044e-11      2942.93
       682.00000  5.77044e-11      2942.35
       682.10000  5.77044e-11      2941.20
       682.20000  5.77044e-11      2940.04
       682.30000  5.77044e-11      2939.46
       682.40000  5.77044e-11      2938.31
       682.50000  4.30432e-11      2190.90
       682.60000  4.30432e-11      2190.04
       682.70000  4.30432e-11      2189.18
       682.80000  4.30432e-11      2188.31
       682.90000  4.30432e-11      2187.02
       683.00000  4.30432e-11      2186.16
       683.10000  4.30432e-11      2185.30
       683.20000  4.30432e-11      2184.01
       683.30000  4.30432e-11      2182.72
       683.40000  4.30432e-11      2181.43
       683.50000  5.66600e-11      2870.39
       683.60000  5.66600e-11      2868.70
       683.70000  5.66600e-11      2867.00
       683.80000  5.61220e-11      2837.53
       683.90000  5.61220e-11      2835.84
       684.00000  5.61220e-11      2834.16
       684.10000  5.61220e-11      2831.92
       684.20000  5.61220e-11      2830.23
       684.30000  5.61220e-11      2827.99
       684.40000  5.61220e-11      2826.30
       684.50000  4.35402e-11      2190.94
       684.60000  4.35402e-11      2189.20
       684.70000  4.35402e-11      2187.46
       684.80000  4.35402e-11      2185.72
       684.90000  4.35402e-11      2183.54
       685.00000  4.35402e-11      2181.80
       685.10000  4.35402e-11      2183.54
       685.20000  4.35402e-11      2185.72
       685.30000  4.35402e-11      2187.46
       685.40000  4.35402e-11      2188.77
       685.50000  4.65639e-11      2342.63
       685.60000  4.65639e-11      2344.49
       685.70000  4.65639e-11      2345.89
       685.80000  4.65639e-11      2347.29
       685.90000  4.65639e-11      2348.68
       686.00000  4.65639e-11      2350.08
       686.10000  4.65639e-11      2351.48
       686.20000  4.65639e-11      2352.41
       686.30000  4.61241e-11      2331.57
       686.40000  4.61241e-11      2332.50
       686.50000  2.96484e-11      1499.91
       686.60000  2.96484e-11      1500.51
       686.70000  2.96484e-11      1501.10
       686.80000  2.96484e-11      1501.40
       686.90000  2.96484e-11      1501.99
       687.00000  2.96484e-11      1502.29
       687.10000  2.96484e-11      1502.58
       687.20000  2.96484e-11      1502.58
       687.30000  2.96484e-11      1502.58
       687.40000  2.96484e-11      1502.58
       687.50000  5.15060e-11      2610.33
       687.60000  5.15060e-11      2610.33
       687.70000  5.15060e-11      2610.33
       687.80000  5.15060e-11      2610.33
       687.90000  5.15060e-11      2610.33
       688.00000  5.15060e-11      2609.81
       688.10000  5.15060e-11      2609.81
       688.20000  5.15060e-11      2609.81
       688.30000  5.15060e-11      2609.30
       688.40000  5.15060e-11      2609.30
       688.50000  3.95288e-11      2002.13
       688.60000  3.95288e-11      2001.74
       688.70000  3.95288e-11      2001.74
       688.80000  3.92043e-11      1984.91
       688.90000  3.92043e-11      1984.52
       689.00000  3.92043e-11      1984.13
       689.10000  3.92043e-11      1983.74
       689.20000  3.92043e-11      1983.35
       689.30000  3.92043e-11      1982.95
       689.40000  3.92043e-11      1982.56
       689.50000  5.04602e-11      2551.27
       689.60000  5.04602e-11      2550.76
       689.70000  5.04602e-11      2549.75
       689.80000  5.04602e-11      2549.25
       689.90000  5.04602e-11      2548.74
       690.00000  5.04602e-11      2547.74
       690.10000  5.04602e-11      2546.73
       690.20000  5.04602e-11      2546.22
       690.30000  5.04602e-11      2545.21
       690.40000  5.04602e-11      2544.20
       690.50000  3.26913e-11      1647.97
       690.60000  3.26913e-11      1647.31
       690.70000  3.26913e-11      1646.66
       690.80000  3.26913e-11      1646.01
       690.90000  3.26913e-11      1645.35
       691.00000  3.26913e-11      1644.70
       691.10000  3.26913e-11      1645.35
       691.20000  3.26913e-11      1645.68
       691.30000  3.24437e-11      1633.86
       691.40000  3.24437e-11      1634.19
       691.50000  2.18440e-11      1100.50
       691.60000  2.18440e-11      1100.94
       691.70000  2.18440e-11      1101.16
       691.80000  2.18440e-11      1101.38
       691.90000  2.18440e-11      1101.59
       692.00000  2.18440e-11      1101.59
       692.10000  2.18440e-11      1101.81
       692.20000  2.18440e-11      1102.03
       692.30000  2.18440e-11      1102.03
       692.40000  2.18440e-11      1102.03
       692.50000  3.75395e-11      1894.24
       692.60000  3.75395e-11      1894.24
       692.70000  3.75395e-11      1894.24
       692.80000  3.75395e-11      1894.24
       692.90000  3.75395e-11      1894.24
       693.00000  3.75395e-11      1893.87
       693.10000  3.75395e-11      1893.87
       693.20000  3.75395e-11      1893.49
       693.30000  3.75395e-11      1893.12
       693.40000  3.75395e-11      1892.74
       693.50000  3.23043e-11      1628.46
       693.60000  3.23043e-11      1628.14
       693.70000  3.23043e-11      1627.81
       693.80000  3.20815e-11      1616.27
       693.90000  3.20815e-11      1615.62
       694.00000  3.20815e-11      1615.30
       694.10000  3.20815e-11      1614.98
       694.20000  3.20815e-11      1614.34
       694.30000  3.20815e-11      1614.02
       694.40000  3.20815e-11      1613.38
       694.50000  1.49670e-11      752.390
       694.60000  1.49670e-11      752.240
       694.70000  1.49670e-11      751.941
       694.80000  1.49670e-11      751.642
       694.90000  1.49670e-11      751.342
       695.00000  1.49670e-11      751.043
       695.10000  1.49670e-11      750.744
       695.20000  1.49670e-11      750.444
       695.30000  1.49670e-11      749.995
       695.40000  1.49670e-11      749.696
       695.50000  2.79879e-11      1401.35
       695.60000  2.79879e-11      1400.51
       695.70000  2.79879e-11      1399.95
       695.80000  2.79879e-11      1399.11
       695.90000  2.79879e-11      1398.27
       696.00000  2.79879e-11      1397.71
       696.10000  2.79879e-11      1396.87
       696.20000  2.79879e-11      1396.03
       696.30000  2.78241e-11      1387.03
       696.40000  2.78241e-11      1386.20
       696.50000  2.98247e-11      1484.97
       696.60000  2.98247e-11      1484.08
       696.70000  2.98247e-11      1482.89
       696.80000  2.98247e-11      1481.99
       696.90000  2.98247e-11      1481.10
       697.00000  2.98247e-11      1479.90
       697.10000  2.98247e-11      1481.99
       697.20000  2.98247e-11      1483.48
       697.30000  2.98247e-11      1485.27
       697.40000  2.98247e-11      1486.76
       697.50000  4.73434e-11      2362.44
       697.60000  4.73434e-11      2364.33
       697.70000  4.73434e-11      2366.22
       697.80000  4.73434e-11      2367.64
       697.90000  4.73434e-11      2369.06
       698.00000  4.73434e-11      2370.01
       698.10000  4.73434e-11      2370.96
       698.20000  4.73434e-11      2371.91
       698.30000  4.73434e-11      2372.38
       698.40000  4.73434e-11      2372.85
       698.50000  1.73254e-11      868.523
       698.60000  1.73254e-11      868.523
       698.70000  1.73254e-11      868.350
       698.80000  1.72192e-11      862.854
       698.90000  1.72192e-11      862.682
       699.00000  1.72192e-11      862.338
       699.10000  1.72192e-11      860.788
       699.20000  1.72192e-11      859.066
       699.30000  1.72192e-11      857.689
       699.40000  1.72192e-11      856.139
       699.50000  1.94631e-11      966.149
       699.60000  1.94631e-11      964.592
       699.70000  1.94631e-11      963.230
       699.80000  1.94631e-11      961.867
       699.90000  1.94631e-11      960.505
       700.00000  1.94631e-11      959.337
       700.10000  1.94631e-11      958.169
       700.20000  1.94631e-11      957.002
       700.30000  1.94631e-11      956.029
       700.40000  1.94631e-11      955.055
       700.50000  3.39269e-11      1663.10
       700.60000  3.39269e-11      1661.74
       700.70000  3.39269e-11      1660.38
       700.80000  3.39269e-11      1659.36
       700.90000  3.39269e-11      1658.35
       701.00000  3.39269e-11      1657.33
       701.10000  3.39269e-11      1656.99
       701.20000  3.39269e-11      1656.65
       701.30000  3.36755e-11      1644.04
       701.40000  3.36755e-11      1644.04
       701.50000  3.60491e-11      1759.92
       701.60000  3.60491e-11      1759.92
       701.70000  3.60491e-11      1759.92
       701.80000  3.60491e-11      1760.28
       701.90000  3.60491e-11      1760.28
       702.00000  3.60491e-11      1760.64
       702.10000  3.60491e-11      1761.36
       702.20000  3.60491e-11      1761.72
       702.30000  3.60491e-11      1762.44
       702.40000  3.60491e-11      1762.80
       702.50000  2.90464e-11      1420.95
       702.60000  2.90464e-11      1421.82
       702.70000  2.90464e-11      1422.40
       702.80000  2.90464e-11      1423.27
       702.90000  2.90464e-11      1424.14
       703.00000  2.90464e-11      1425.02
       703.10000  2.90464e-11      1427.63
       703.20000  2.90464e-11      1430.24
       703.30000  2.90464e-11      1432.57
       703.40000  2.90464e-11      1434.89
       703.50000  2.43815e-11      1206.15
       703.60000  2.43815e-11      1208.10
       703.70000  2.43815e-11      1209.57
       703.80000  2.41552e-11      1200.03
       703.90000  2.41552e-11      1201.48
       704.00000  2.41552e-11      1202.69
       704.10000  2.41552e-11      1204.14
       704.20000  2.41552e-11      1205.34
       704.30000  2.41552e-11      1206.31
       704.40000  2.41552e-11      1207.28
       704.50000  3.37842e-11      1689.89
       704.60000  3.37842e-11      1691.24
       704.70000  3.37842e-11      1692.25
       704.80000  3.37842e-11      1692.93
       704.90000  3.37842e-11      1693.94
       705.00000  3.37842e-11      1694.62
       705.10000  3.37842e-11      1694.96
       705.20000  3.37842e-11      1695.29
       705.30000  3.37842e-11      1695.63
       705.40000  3.37842e-11      1695.97
       705.50000  3.36375e-11      1688.60
       705.60000  3.36375e-11      1688.60
       705.70000  3.36375e-11      1688.27
       705.80000  3.36375e-11      1687.93
       705.90000  3.36375e-11      1687.60
       706.00000  3.36375e-11      1686.92
       706.10000  3.36375e-11      1686.25
       706.20000  3.36375e-11      1685.24
       706.30000  3.33057e-11      1667.62
       706.40000  3.33057e-11      1666.62
       706.50000  3.65652e-11      1828.26
       706.60000  3.65652e-11      1826.80
       706.70000  3.65652e-11      1825.33
       706.80000  3.65652e-11      1823.50
       706.90000  3.65652e-11      1821.68
       707.00000  3.65652e-11      1819.85
       707.10000  3.65652e-11      1818.39
       707.20000  3.65652e-11      1817.29
       707.30000  3.65652e-11      1815.83
       707.40000  3.65652e-11      1814.73
       707.50000  3.74231e-11      1856.19
       707.60000  3.74231e-11      1855.06
       707.70000  3.74231e-11      1854.31
       707.80000  3.74231e-11      1853.19
       707.90000  3.74231e-11      1852.44
       708.00000  3.74231e-11      1851.70
       708.10000  3.74231e-11      1850.95
       708.20000  3.74231e-11      1850.20
       708.30000  3.74231e-11      1849.45
       708.40000  3.74231e-11      1848.70
       708.50000  4.20182e-11      2075.28
       708.60000  4.20182e-11      2074.44
       708.70000  4.20182e-11      2074.02
       708.80000  4.15369e-11      2049.84
       708.90000  4.15369e-11      2049.43
       709.00000  4.15369e-11      2049.43
       709.10000  4.15369e-11      2050.26
       709.20000  4.15369e-11      2051.09
       709.30000  4.15369e-11      2051.51
       709.40000  4.15369e-11      2052.34
       709.50000  4.22199e-11      2086.51
       709.60000  4.22199e-11      2087.35
       709.70000  4.22199e-11      2087.78
       709.80000  4.22199e-11      2088.20
       709.90000  4.22199e-11      2088.62
       710.00000  4.22199e-11      2089.04
       710.10000  4.22199e-11      2089.46
       710.20000  4.22199e-11      2089.89
       710.30000  4.22199e-11      2089.89
       710.40000  4.22199e-11      2090.31
       710.50000  4.22824e-11      2093.40
       710.60000  4.22824e-11      2093.40
       710.70000  4.22824e-11      2093.40
       710.80000  4.22824e-11      2093.40
       710.90000  4.22824e-11      2093.40
       711.00000  4.22824e-11      2093.40
       711.10000  4.22824e-11      2093.40
       711.20000  4.22824e-11      2092.98
       711.30000  4.16647e-11      2062.40
       711.40000  4.16647e-11      2061.99
       711.50000  6.68781e-11      3309.13
       711.60000  6.68781e-11      3308.46
       711.70000  6.68781e-11      3307.79
       711.80000  6.68781e-11      3307.12
       711.90000  6.68781e-11      3306.45
       712.00000  6.68781e-11      3305.12
       712.10000  6.68781e-11      3304.45
       712.20000  6.68781e-11      3303.11
       712.30000  6.68781e-11      3302.44
       712.40000  6.68781e-11      3301.10
       712.50000  8.79059e-11      4337.27
       712.60000  8.79059e-11      4335.52
       712.70000  8.79059e-11      4332.88
       712.80000  8.79059e-11      4331.12
       712.90000  8.79059e-11      4329.36
       713.00000  8.79059e-11      4326.73
       713.10000  8.79059e-11      4326.73
       713.20000  8.79059e-11      4326.73
       713.30000  8.79059e-11      4326.73
       713.40000  8.79059e-11      4325.85
       713.50000  1.06111e-10      5221.74
       713.60000  1.06111e-10      5221.74
       713.70000  1.06111e-10      5220.68
       713.80000  1.04665e-10      5149.52
       713.90000  1.04665e-10      5148.48
       714.00000  1.04665e-10      5148.48
       714.10000  1.04665e-10      5147.43
       714.20000  1.04665e-10      5146.39
       714.30000  1.04665e-10      5146.39
       714.40000  1.04665e-10      5145.34
       714.50000  1.20828e-10      5938.70
       714.60000  1.20828e-10      5937.49
       714.70000  1.20828e-10      5937.49
       714.80000  1.20828e-10      5936.28
       714.90000  1.20828e-10      5935.08
       715.00000  1.20828e-10      5933.87
       715.10000  1.20828e-10      5932.66
       715.20000  1.20828e-10      5932.66
       715.30000  1.20828e-10      5932.66
       715.40000  1.20828e-10      5931.45
       715.50000  2.36734e-10      11618.9
       715.60000  2.36734e-10      11616.5
       715.70000  2.36734e-10      11614.1
       715.80000  2.36734e-10      11611.8
       715.90000  2.36734e-10      11609.4
       716.00000  2.36734e-10      11604.7
       716.10000  2.36734e-10      11602.3
       716.20000  2.36734e-10      11597.6
       716.30000  2.33570e-10      11437.9
       716.40000  2.33570e-10      11433.3
       716.50000  9.38165e-11      4590.44
       716.60000  9.38165e-11      4588.56
       716.70000  9.38165e-11      4586.69
       716.80000  9.38165e-11      4583.87
       716.90000  9.38165e-11      4582.00
       717.00000  9.38165e-11      4579.18
       717.10000  9.38165e-11      4576.37
       717.20000  9.38165e-11      4573.55
       717.30000  9.38165e-11      4570.74
       717.40000  9.38165e-11      4567.92
       717.50000  4.37717e-10      21299.3
       717.60000  4.37717e-10      21281.8
       717.70000  4.37717e-10      21268.7
       717.80000  4.37717e-10      21251.1
       717.90000  4.37717e-10      21233.6
       718.00000  4.37717e-10      21216.1
       718.10000  4.37717e-10      21198.6
       718.20000  4.37717e-10      21181.1
       718.30000  4.37717e-10      21163.6
       718.40000  4.37717e-10      21141.7
       718.50000  6.56884e-10      31701.2
       718.60000  6.56884e-10      31668.4
       718.70000  6.56884e-10      31635.5
       718.80000  6.48996e-10      31223.2
       718.90000  6.48996e-10      31190.7
       719.00000  6.48996e-10      31158.3
       719.10000  6.48996e-10      31158.3
       719.20000  6.48996e-10      31158.3
       719.30000  6.48996e-10      31158.3
       719.40000  6.48996e-10      31164.8
       719.50000  1.18049e-09      56687.2
       719.60000  1.18049e-09      56699.0
       719.70000  1.18049e-09      56699.0
       719.80000  1.18049e-09      56710.8
       719.90000  1.18049e-09      56722.6
       720.00000  1.18049e-09      56746.2
       720.10000  1.18049e-09      56758.0
       720.20000  1.18049e-09      56769.8
       720.30000  1.18049e-09      56793.5
       720.40000  1.18049e-09      56805.3
       720.50000  2.46870e-09      118843.
       720.60000  2.46870e-09      118892.
       720.70000  2.46870e-09      118942.
       720.80000  2.46870e-09      118991.
       720.90000  2.46870e-09      119065.
       721.00000  2.46870e-09      119115.
       721.10000  2.46870e-09      119238.
       721.20000  2.46870e-09      119361.
       721.30000  2.44085e-09      118137.
       721.40000  2.44085e-09      118235.
       721.50000  6.31854e-09      306386.
       721.60000  6.31854e-09      306639.
       721.70000  6.31854e-09      306891.
       721.80000  6.31854e-09      307207.
       721.90000  6.31854e-09      307460.
       722.00000  6.31854e-09      307650.
       722.10000  6.31854e-09      307902.
       722.20000  6.31854e-09      308155.
       722.30000  6.31854e-09      308345.
       722.40000  6.31854e-09      308534.
       722.50000  1.70319e-08      832180.
       722.60000  1.70319e-08      832861.
       722.70000  1.70319e-08      833202.
       722.80000  1.70319e-08      833713.
       722.90000  1.70319e-08      834224.
       723.00000  1.70319e-08      834564.
       723.10000  1.70319e-08      835075.
       723.20000  1.70319e-08      835416.
       723.30000  1.70319e-08      835757.
       723.40000  1.70319e-08      836097.
       723.50000  5.91304e-08  2.90390e+06
       723.60000  5.91304e-08  2.90449e+06
       723.70000  5.91304e-08  2.90567e+06
       723.80000  5.84630e-08  2.87346e+06
       723.90000  5.84630e-08  2.87404e+06
       724.00000  5.84630e-08  2.87462e+06
       724.10000  5.84630e-08  2.87521e+06
       724.20000  5.84630e-08  2.87579e+06
       724.30000  5.84630e-08  2.87638e+06
       724.40000  5.84630e-08  2.87696e+06
       724.50000  3.05435e-07  1.50305e+07
       724.60000  3.05435e-07  1.50305e+07
       724.70000  3.05435e-07  1.50305e+07
       724.80000  3.05435e-07  1.50305e+07
       724.90000  3.05435e-07  1.50305e+07
       725.00000  3.05435e-07  1.50305e+07
       725.10000  3.05435e-07  1.50366e+07
       725.20000  3.05435e-07  1.50427e+07
       725.30000  3.05435e-07  1.50457e+07
       725.40000  3.05435e-07  1.50519e+07
       725.50000  2.09223e-06  1.03126e+08
       725.60000  2.09223e-06  1.03147e+08
       725.70000  2.09223e-06  1.03147e+08
       725.80000  2.09223e-06  1.03168e+08
       725.90000  2.09223e-06  1.03168e+08
       726.00000  2.09223e-06  1.03168e+08
       726.10000  2.09223e-06  1.03168e+08
       726.20000  2.09223e-06  1.03168e+08
       726.30000  2.06890e-06  1.01997e+08
       726.40000  2.06890e-06  1.01976e+08
       726.50000  7.11583e-06  3.50668e+08
       726.60000  7.11583e-06  3.50597e+08
       726.70000  7.11583e-06  3.50526e+08
       726.80000  7.11583e-06  3.50383e+08
       726.90000  7.11583e-06  3.50241e+08
       727.00000  7.11583e-06  3.50099e+08
       727.10000  7.11583e-06  3.49601e+08
       727.20000  7.11583e-06  3.49103e+08
       727.30000  7.11583e-06  3.48604e+08
       727.40000  7.11583e-06  3.48178e+08
       727.50000  8.25507e-06  4.03425e+08
       727.60000  8.25507e-06  4.02930e+08
       727.70000  8.25507e-06  4.02517e+08
       727.80000  8.25507e-06  4.02104e+08
       727.90000  8.25507e-06  4.01692e+08
       728.00000  8.25507e-06  4.01361e+08
       728.10000  8.25507e-06  4.01031e+08
       728.20000  8.25507e-06  4.00701e+08
       728.30000  8.25507e-06  4.00371e+08
       728.40000  8.25507e-06  4.00123e+08
       728.50000  7.98368e-06  3.86729e+08
       728.60000  7.98368e-06  3.86570e+08
       728.70000  7.98368e-06  3.86330e+08
       728.80000  7.89465e-06  3.81943e+08
       728.90000  7.89465e-06  3.81785e+08
       729.00000  7.89465e-06  3.81706e+08
       729.10000  7.89465e-06  3.81627e+08
       729.20000  7.89465e-06  3.81548e+08
       729.30000  7.89465e-06  3.81548e+08
       729.40000  7.89465e-06  3.81469e+08
       729.50000  7.09850e-06  3.43071e+08
       729.60000  7.09850e-06  3.43071e+08
       729.70000  7.09850e-06  3.43142e+08
       729.80000  7.09850e-06  3.43213e+08
       729.90000  7.09850e-06  3.43355e+08
       730.00000  7.09850e-06  3.43497e+08
       730.10000  7.09850e-06  3.43639e+08
       730.20000  7.09850e-06  3.43781e+08
       730.30000  7.09850e-06  3.43994e+08
       730.40000  7.09850e-06  3.44206e+08
       730.50000  1.76090e-06  8.54387e+07
       730.60000  1.76090e-06  8.55091e+07
       730.70000  1.76090e-06  8.55796e+07
       730.80000  1.76090e-06  8.56500e+07
       730.90000  1.76090e-06  8.57380e+07
       731.00000  1.76090e-06  8.58261e+07
       731.10000  1.76090e-06  8.58085e+07
       731.20000  1.76090e-06  8.57909e+07
       731.30000  1.73907e-06  8.47101e+07
       731.40000  1.73907e-06  8.47101e+07
       731.50000  2.33761e-07  1.13842e+07
       731.60000  2.33761e-07  1.13818e+07
       731.70000  2.33761e-07  1.13795e+07
       731.80000  2.33761e-07  1.13795e+07
       731.90000  2.33761e-07  1.13772e+07
       732.00000  2.33761e-07  1.13748e+07
       732.10000  2.33761e-07  1.13725e+07
       732.20000  2.33761e-07  1.13702e+07
       732.30000  2.33761e-07  1.13702e+07
       732.40000  2.33761e-07  1.13678e+07
       732.50000  5.01449e-08  2.43804e+06
       732.60000  5.01449e-08  2.43754e+06
       732.70000  5.01449e-08  2.43704e+06
       732.80000  5.01449e-08  2.43654e+06
       732.90000  5.01449e-08  2.43604e+06
       733.00000  5.01449e-08  2.43554e+06
       733.10000  5.01449e-08  2.43504e+06
       733.20000  5.01449e-08  2.43403e+06
       733.30000  5.01449e-08  2.43353e+06
       733.40000  5.01449e-08  2.43253e+06
       733.50000  1.38331e-08      670906.
       733.60000  1.38331e-08      670768.
       733.70000  1.38331e-08      670491.
       733.80000  1.36433e-08      661154.
       733.90000  1.36433e-08      661018.
       734.00000  1.36433e-08      660881.
       734.10000  1.36433e-08      660745.
       734.20000  1.36433e-08      660609.
       734.30000  1.36433e-08      660472.
       734.40000  1.36433e-08      660472.
       734.50000  4.68042e-09      226532.
       734.60000  4.68042e-09      226486.
       734.70000  4.68042e-09      226486.
       734.80000  4.68042e-09      226439.
       734.90000  4.68042e-09      226439.
       735.00000  4.68042e-09      226392.
       735.10000  4.68042e-09      226392.
       735.20000  4.68042e-09      226392.
       735.30000  4.68042e-09      226392.
       735.40000  4.68042e-09      226345.
       735.50000  2.35278e-09      113781.
       735.60000  2.35278e-09      113781.
       735.70000  2.35278e-09      113781.
       735.80000  2.35278e-09      113804.
       735.90000  2.35278e-09      113804.
       736.00000  2.35278e-09      113804.
       736.10000  2.35278e-09      113804.
       736.20000  2.35278e-09      113828.
       736.30000  2.31574e-09      112036.
       736.40000  2.31574e-09      112059.
       736.50000  1.06304e-09      51440.4
       736.60000  1.06304e-09      51451.0
       736.70000  1.06304e-09      51461.6
       736.80000  1.06304e-09      51461.6
       736.90000  1.06304e-09      51472.2
       737.00000  1.06304e-09      51482.9
       737.10000  1.06304e-09      51429.7
       737.20000  1.06304e-09      51365.9
       737.30000  1.06304e-09      51312.8
       737.40000  1.06304e-09      51259.6
       737.50000  1.57481e-09      75842.7
       737.60000  1.57481e-09      75764.0
       737.70000  1.57481e-09      75685.2
       737.80000  1.57481e-09      75606.5
       737.90000  1.57481e-09      75543.5
       738.00000  1.57481e-09      75464.8
       738.10000  1.57481e-09      75386.0
       738.20000  1.57481e-09      75307.3
       738.30000  1.57481e-09      75244.3
       738.40000  1.57481e-09      75181.3
       738.50000  6.95693e-10      33177.6
       738.60000  6.95693e-10      33149.8
       738.70000  6.95693e-10      33121.9
       738.80000  6.83723e-10      32524.7
       738.90000  6.83723e-10      32497.3
       739.00000  6.83723e-10      32470.0
       739.10000  6.83723e-10      32415.3
       739.20000  6.83723e-10      32367.4
       739.30000  6.83723e-10      32326.4
       739.40000  6.83723e-10      32285.4
       739.50000  3.12951e-10      14758.7
       739.60000  3.12951e-10      14743.1
       739.70000  3.12951e-10      14730.6
       739.80000  3.12951e-10      14714.9
       739.90000  3.12951e-10      14705.5
       740.00000  3.12951e-10      14693.0
       740.10000  3.12951e-10      14686.8
       740.20000  3.12951e-10      14677.4
       740.30000  3.12951e-10      14671.1
       740.40000  3.12951e-10      14668.0
       740.50000  2.28113e-10      10689.4
       740.60000  2.28113e-10      10687.1
       740.70000  2.28113e-10      10687.1
       740.80000  2.28113e-10      10687.1
       740.90000  2.28113e-10      10689.4
       741.00000  2.28113e-10      10691.7
       741.10000  2.28113e-10      10696.2
       741.20000  2.28113e-10      10700.8
       741.30000  2.24170e-10      10520.3
       741.40000  2.24170e-10      10527.0
       741.50000  1.45119e-10      6819.14
       741.60000  1.45119e-10      6824.95
       741.70000  1.45119e-10      6832.20
       741.80000  1.45119e-10      6838.01
       741.90000  1.45119e-10      6846.72
       742.00000  1.45119e-10      6853.97
       742.10000  1.45119e-10      6862.68
       742.20000  1.45119e-10      6872.84
       742.30000  1.45119e-10      6882.99
       742.40000  1.45119e-10      6893.15
       742.50000  7.03916e-11      3349.23
       742.60000  7.03916e-11      3354.86
       742.70000  7.03916e-11      3361.20
       742.80000  7.03916e-11      3367.53
       742.90000  7.03916e-11      3374.57
       743.00000  7.03916e-11      3381.61
       743.10000  7.03916e-11      3380.20
       743.20000  7.03916e-11      3379.50
       743.30000  7.03916e-11      3378.79
       743.40000  7.03916e-11      3377.39
       743.50000  5.56859e-11      2671.25
       743.60000  5.56859e-11      2670.70
       743.70000  5.56859e-11      2670.14
       743.80000  5.48264e-11      2628.38
       743.90000  5.48264e-11      2627.83
       744.00000  5.48264e-11      2627.28
       744.10000  5.48264e-11      2627.28
       744.20000  5.48264e-11      2626.73
       744.30000  5.48264e-11      2626.73
       744.40000  5.48264e-11      2626.73
       744.50000  4.18132e-11      2002.85
       744.60000  4.18132e-11      2002.85
       744.70000  4.18132e-11      2002.85
       744.80000  4.18132e-11      2002.85
       744.90000  4.18132e-11      2003.27
       745.00000  4.18132e-11      2003.27
       745.10000  4.18132e-11      2004.52
       745.20000  4.18132e-11      2005.78
       745.30000  4.18132e-11      2006.61
       745.40000  4.18132e-11      2007.87
       745.50000  3.84058e-11      1845.02
       745.60000  3.84058e-11      1845.78
       745.70000  3.84058e-11      1846.55
       745.80000  3.84058e-11      1847.32
       745.90000  3.84058e-11      1847.71
       746.00000  3.84058e-11      1848.47
       746.10000  3.84058e-11      1848.86
       746.20000  3.84058e-11      1849.24
       746.30000  3.79649e-11      1828.39
       746.40000  3.79649e-11      1828.77
       746.50000  2.87273e-11      1384.08
       746.60000  2.87273e-11      1384.08
       746.70000  2.87273e-11      1384.37
       746.80000  2.87273e-11      1384.37
       746.90000  2.87273e-11      1384.37
       747.00000  2.87273e-11      1384.37
       747.10000  2.87273e-11      1383.51
       747.20000  2.87273e-11      1382.93
       747.30000  2.87273e-11      1382.36
       747.40000  2.87273e-11      1381.79
       747.50000  2.57580e-11      1238.45
       747.60000  2.57580e-11      1237.93
       747.70000  2.57580e-11      1237.42
       747.80000  2.57580e-11      1236.90
       747.90000  2.57580e-11      1236.38
       748.00000  2.57580e-11      1235.87
       748.10000  2.57580e-11      1235.61
       748.20000  2.57580e-11      1235.10
       748.30000  2.57580e-11      1234.58
       748.40000  2.57580e-11      1234.32
       748.50000  2.33617e-11      1119.03
       748.60000  2.33617e-11      1118.56
       748.70000  2.33617e-11      1118.33
       748.80000  2.30950e-11      1105.09
       748.90000  2.30950e-11      1104.86
       749.00000  2.30950e-11      1104.63
       749.10000  2.30950e-11      1104.17
       749.20000  2.30950e-11      1103.94
       749.30000  2.30950e-11      1103.71
       749.40000  2.30950e-11      1103.48
       749.50000  2.43572e-11      1163.54
       749.60000  2.43572e-11      1163.30
       749.70000  2.43572e-11      1162.81
       749.80000  2.43572e-11      1162.57
       749.90000  2.43572e-11      1162.57
       750.00000  2.43572e-11      1162.32
       750.10000  2.43572e-11      1162.08
       750.20000  2.43572e-11      1161.84
       750.30000  2.43572e-11      1161.59
       750.40000  2.43572e-11      1161.59
       750.50000  1.78189e-11      849.603
       750.60000  1.78189e-11      849.425
       750.70000  1.78189e-11      849.425
       750.80000  1.78189e-11      849.246
       750.90000  1.78189e-11      849.246
       751.00000  1.78189e-11      849.068
       751.10000  1.78189e-11      849.068
       751.20000  1.78189e-11      849.068
       751.30000  1.75903e-11      838.003
       751.40000  1.75903e-11      838.003
       751.50000  2.02416e-11      964.310
       751.60000  2.02416e-11      964.310
       751.70000  2.02416e-11      964.310
       751.80000  2.02416e-11      964.310
       751.90000  2.02416e-11      964.310
       752.00000  2.02416e-11      964.310
       752.10000  2.02416e-11      964.310
       752.20000  2.02416e-11      964.310
       752.30000  2.02416e-11      964.310
       752.40000  2.02416e-11      964.310
       752.50000  2.14447e-11      1021.84
       752.60000  2.14447e-11      1021.84
       752.70000  2.14447e-11      1021.84
       752.80000  2.14447e-11      1022.05
       752.90000  2.14447e-11      1022.05
       753.00000  2.14447e-11      1022.27
       753.10000  2.14447e-11      1022.27
       753.20000  2.14447e-11      1022.27
       753.30000  2.14447e-11      1022.27
       753.40000  2.14447e-11      1022.27
       753.50000  1.75325e-11      835.774
       753.60000  1.75325e-11      835.774
       753.70000  1.75325e-11      835.774
       753.80000  1.72857e-11      824.010
       753.90000  1.72857e-11      824.010
       754.00000  1.72857e-11      824.010
       754.10000  1.72857e-11      824.010
       754.20000  1.72857e-11      823.837
       754.30000  1.72857e-11      823.837
       754.40000  1.72857e-11      823.837
       754.50000  1.56430e-11      745.547
       754.60000  1.56430e-11      745.547
       754.70000  1.56430e-11      745.390
       754.80000  1.56430e-11      745.390
       754.90000  1.56430e-11      745.234
       755.00000  1.56430e-11      745.234
       755.10000  1.56430e-11      745.077
       755.20000  1.56430e-11      745.077
       755.30000  1.56430e-11      744.921
       755.40000  1.56430e-11      744.921
       755.50000  1.94793e-11      927.409
       755.60000  1.94793e-11      927.214
       755.70000  1.94793e-11      927.214
       755.80000  1.94793e-11      927.019
       755.90000  1.94793e-11      926.825
       756.00000  1.94793e-11      926.825
       756.10000  1.94793e-11      926.630
       756.20000  1.94793e-11      926.435
       756.30000  1.91991e-11      912.916
       756.40000  1.91991e-11      912.916
       756.50000  1.62162e-11      770.918
       756.60000  1.62162e-11      770.756
       756.70000  1.62162e-11      770.593
       756.80000  1.62162e-11      770.593
       756.90000  1.62162e-11      770.431
       757.00000  1.62162e-11      770.269
       757.10000  1.62162e-11      770.107
       757.20000  1.62162e-11      769.945
       757.30000  1.62162e-11      769.945
       757.40000  1.62162e-11      769.783
       757.50000  1.75744e-11      834.079
       757.60000  1.75744e-11      833.903
       757.70000  1.75744e-11      833.728
       757.80000  1.75744e-11      833.552
       757.90000  1.75744e-11      833.376
       758.00000  1.75744e-11      833.376
       758.10000  1.75744e-11      833.200
       758.20000  1.75744e-11      833.025
       758.30000  1.75744e-11      832.849
       758.40000  1.75744e-11      832.673
       758.50000  1.17501e-11      556.604
       758.60000  1.17501e-11      556.487
       758.70000  1.17501e-11      556.369
       758.80000  1.15422e-11      546.408
       758.90000  1.15422e-11      546.293
       759.00000  1.15422e-11      546.177
       759.10000  1.15422e-11      546.177
       759.20000  1.15422e-11      546.062
       759.30000  1.15422e-11      546.062
       759.40000  1.15422e-11      545.947
       759.50000  1.66776e-11      788.849
       759.60000  1.66776e-11      788.849
       759.70000  1.66776e-11      788.682
       759.80000  1.66776e-11      788.682
       759.90000  1.66776e-11      788.682
       760.00000  1.66776e-11      788.682
       760.10000  1.66776e-11      788.682
       760.20000  1.66776e-11      788.682
       760.30000  1.66776e-11      788.849
       760.40000  1.66776e-11      788.849
       760.50000  1.68706e-11      797.979
       760.60000  1.68706e-11      798.147
       760.70000  1.68706e-11      798.147
       760.80000  1.68706e-11      798.316
       760.90000  1.68706e-11      798.316
       761.00000  1.68706e-11      798.485
       761.10000  1.68706e-11      799.159
       761.20000  1.68706e-11      799.666
       761.30000  1.65229e-11      783.681
       761.40000  1.65229e-11      784.177
       761.50000  1.48465e-11      705.061
       761.60000  1.48465e-11      705.358
       761.70000  1.48465e-11      705.655
       761.80000  1.48465e-11      705.952
       761.90000  1.48465e-11      706.249
       762.00000  1.48465e-11      706.397
       762.10000  1.48465e-11      706.694
       762.20000  1.48465e-11      706.842
       762.30000  1.48465e-11      706.991
       762.40000  1.48465e-11      706.991
       762.50000  1.33204e-11      634.318
       762.60000  1.33204e-11      634.451
       762.70000  1.33204e-11      634.451
       762.80000  1.33204e-11      634.318
       762.90000  1.33204e-11      634.318
       763.00000  1.33204e-11      634.185
       763.10000  1.33204e-11      634.051
       763.20000  1.33204e-11      633.918
       763.30000  1.33204e-11      633.652
       763.40000  1.33204e-11      633.385
       763.50000  1.84816e-11      878.430
       763.60000  1.84816e-11      878.060
       763.70000  1.84816e-11      877.690
       763.80000  1.80195e-11      855.205
       763.90000  1.80195e-11      854.665
       764.00000  1.80195e-11      854.124
       764.10000  1.80195e-11      853.584
       764.20000  1.80195e-11      852.863
       764.30000  1.80195e-11      852.142
       764.40000  1.80195e-11      851.421
       764.50000  1.31491e-11      620.771
       764.60000  1.31491e-11      620.245
       764.70000  1.31491e-11      619.588
       764.80000  1.31491e-11      618.930
       764.90000  1.31491e-11      618.273
       765.00000  1.31491e-11      617.484
       765.10000  1.31491e-11      616.037
       765.20000  1.31491e-11      614.591
       765.30000  1.31491e-11      613.276
       765.40000  1.31491e-11      611.961
       765.50000  1.24241e-11      577.101
       765.60000  1.24241e-11      576.107
       765.70000  1.24241e-11      574.988
       765.80000  1.24241e-11      574.119
       765.90000  1.24241e-11      573.249
       766.00000  1.24241e-11      572.379
       766.10000  1.24241e-11      571.634
       766.20000  1.24241e-11      570.889
       766.30000  1.21174e-11      556.189
       766.40000  1.21174e-11      555.704
       766.50000  1.28589e-11      589.194
       766.60000  1.28589e-11      588.680
       766.70000  1.28589e-11      588.423
       766.80000  1.28589e-11      588.037
       766.90000  1.28589e-11      587.780
       767.00000  1.28589e-11      587.651
       767.10000  1.28589e-11      588.294
       767.20000  1.28589e-11      589.066
       767.30000  1.28589e-11      589.709
       767.40000  1.28589e-11      590.352
       767.50000  1.33817e-11      615.023
       767.60000  1.33817e-11      615.692
       767.70000  1.33817e-11      616.361
       767.80000  1.33817e-11      616.896
       767.90000  1.33817e-11      617.565
       768.00000  1.33817e-11      618.101
       768.10000  1.33817e-11      618.636
       768.20000  1.33817e-11      619.171
       768.30000  1.33817e-11      619.573
       768.40000  1.33817e-11      620.108
       768.50000  1.41190e-11      654.698
       768.60000  1.41190e-11      655.121
       768.70000  1.41190e-11      655.545
       768.80000  1.37979e-11      641.051
       768.90000  1.37979e-11      641.465
       769.00000  1.37979e-11      641.741
       769.10000  1.37979e-11      642.155
       769.20000  1.37979e-11      642.430
       769.30000  1.37979e-11      642.706
       769.40000  1.37979e-11      642.982
       769.50000  1.35090e-11      629.653
       769.60000  1.35090e-11      629.923
       769.70000  1.35090e-11      630.058
       769.80000  1.35090e-11      630.329
       769.90000  1.35090e-11      630.464
       770.00000  1.35090e-11      630.464
       770.10000  1.35090e-11      630.599
       770.20000  1.35090e-11      630.734
       770.30000  1.35090e-11      630.734
       770.40000  1.35090e-11      630.734
       770.50000  1.10342e-11      515.188
       770.60000  1.10342e-11      515.188
       770.70000  1.10342e-11      515.188
       770.80000  1.10342e-11      515.188
       770.90000  1.10342e-11      515.077
       771.00000  1.10342e-11      514.967
       771.10000  1.10342e-11      515.408
       771.20000  1.10342e-11      515.739
       771.30000  1.08262e-11      506.342
       771.40000  1.08262e-11      506.667
       771.50000  1.52398e-11      713.678
       771.60000  1.52398e-11      713.982
       771.70000  1.52398e-11      714.440
       771.80000  1.52398e-11      714.744
       771.90000  1.52398e-11      714.897
       772.00000  1.52398e-11      715.202
       772.10000  1.52398e-11      715.354
       772.20000  1.52398e-11      715.506
       772.30000  1.52398e-11      715.659
       772.40000  1.52398e-11      715.811
       772.50000  1.46911e-11      690.040
       772.60000  1.46911e-11      690.040
       772.70000  1.46911e-11      690.040
       772.80000  1.46911e-11      689.893
       772.90000  1.46911e-11      689.893
       773.00000  1.46911e-11      689.746
       773.10000  1.46911e-11      688.865
       773.20000  1.46911e-11      688.130
       773.30000  1.46911e-11      687.249
       773.40000  1.46911e-11      686.514
       773.50000  1.67501e-11      781.892
       773.60000  1.67501e-11      781.222
       773.70000  1.67501e-11      780.552
       773.80000  1.64886e-11      767.710
       773.90000  1.64886e-11      767.050
       774.00000  1.64886e-11      766.391
       774.10000  1.64886e-11      765.896
       774.20000  1.64886e-11      765.401
       774.30000  1.64886e-11      765.071
       774.40000  1.64886e-11      764.577
       774.50000  1.09574e-11      507.876
       774.60000  1.09574e-11      507.766
       774.70000  1.09574e-11      507.547
       774.80000  1.09574e-11      507.437
       774.90000  1.09574e-11      507.328
       775.00000  1.09574e-11      507.218
       775.10000  1.09574e-11      507.218
       775.20000  1.09574e-11      507.218
       775.30000  1.09574e-11      507.218
       775.40000  1.09574e-11      507.218
       775.50000  1.56009e-11      722.321
       775.60000  1.56009e-11      722.477
       775.70000  1.56009e-11      722.633
       775.80000  1.56009e-11      722.789
       775.90000  1.56009e-11      723.101
       776.00000  1.56009e-11      723.413
       776.10000  1.56009e-11      723.725
       776.20000  1.56009e-11      724.193
       776.30000  1.53750e-11      714.171
       776.40000  1.53750e-11      714.632
       776.50000  9.85556e-12      458.382
       776.60000  9.85556e-12      458.776
       776.70000  9.85556e-12      459.170
       776.80000  9.85556e-12      459.565
       776.90000  9.85556e-12      460.057
       777.00000  9.85556e-12      460.452
       777.10000  9.85556e-12      460.254
       777.20000  9.85556e-12      460.156
       777.30000  9.85556e-12      459.959
       777.40000  9.85556e-12      459.762
       777.50000  1.36509e-11      636.543
       777.60000  1.36509e-11      636.406
       777.70000  1.36509e-11      636.133
       777.80000  1.36509e-11      635.997
       777.90000  1.36509e-11      635.860
       778.00000  1.36509e-11      635.587
       778.10000  1.36509e-11      635.451
       778.20000  1.36509e-11      635.314
       778.30000  1.36509e-11      635.177
       778.40000  1.36509e-11      635.041
       778.50000  1.01173e-11      470.655
       778.60000  1.01173e-11      470.554
       778.70000  1.01173e-11      470.453
       778.80000  1.00032e-11      465.148
       778.90000  1.00032e-11      465.148
       779.00000  1.00032e-11      465.048
       779.10000  1.00032e-11      465.248
       779.20000  1.00032e-11      465.348
       779.30000  1.00032e-11      465.548
       779.40000  1.00032e-11      465.648
       779.50000  1.23213e-11      573.678
       779.60000  1.23213e-11      573.801
       779.70000  1.23213e-11      573.924
       779.80000  1.23213e-11      574.047
       779.90000  1.23213e-11      574.170
       780.00000  1.23213e-11      574.294
       780.10000  1.23213e-11      574.294
       780.20000  1.23213e-11      574.417
       780.30000  1.23213e-11      574.417
       780.40000  1.23213e-11      574.417
       780.50000  1.71085e-11      797.598
       780.60000  1.71085e-11      797.598
       780.70000  1.71085e-11      797.598
       780.80000  1.71085e-11      797.598
       780.90000  1.71085e-11      797.598
       781.00000  1.71085e-11      797.427
       781.10000  1.71085e-11      797.427
       781.20000  1.71085e-11      797.256
       781.30000  1.69542e-11      789.895
       781.40000  1.69542e-11      789.725
       781.50000  1.15441e-11      537.608
       781.60000  1.15441e-11      537.493
       781.70000  1.15441e-11      537.377
       781.80000  1.15441e-11      537.262
       781.90000  1.15441e-11      537.031
       782.00000  1.15441e-11      536.915
       782.10000  1.15441e-11      536.685
       782.20000  1.15441e-11      536.454
       782.30000  1.15441e-11      536.338
       782.40000  1.15441e-11      536.107
       782.50000  9.89707e-12      459.422
       782.60000  9.89707e-12      459.125
       782.70000  9.89707e-12      458.927
       782.80000  9.89707e-12      458.729
       782.90000  9.89707e-12      458.432
       783.00000  9.89707e-12      458.234
       783.10000  9.89707e-12      458.432
       783.20000  9.89707e-12      458.630
       783.30000  9.89707e-12      458.828
       783.40000  9.89707e-12      458.927
       783.50000  9.45719e-12      438.719
       783.60000  9.45719e-12      438.908
       783.70000  9.45719e-12      439.003
       783.80000  9.37094e-12      435.186
       783.90000  9.37094e-12      435.374
       784.00000  9.37094e-12      435.467
       784.10000  9.37094e-12      435.561
       784.20000  9.37094e-12      435.749
       784.30000  9.37094e-12      435.842
       784.40000  9.37094e-12      435.936
       784.50000  1.17479e-11      546.631
       784.60000  1.17479e-11      546.748
       784.70000  1.17479e-11      546.866
       784.80000  1.17479e-11      546.983
       784.90000  1.17479e-11      547.101
       785.00000  1.17479e-11      547.101
       785.10000  1.17479e-11      547.101
       785.20000  1.17479e-11      547.101
       785.30000  1.17479e-11      547.101
       785.40000  1.17479e-11      547.101
       785.50000  7.46517e-12      347.653
       785.60000  7.46517e-12      347.653
       785.70000  7.46517e-12      347.653
       785.80000  7.46517e-12      347.653
       785.90000  7.46517e-12      347.653
       786.00000  7.46517e-12      347.653
       786.10000  7.46517e-12      347.653
       786.20000  7.46517e-12      347.653
       786.30000  7.37724e-12      343.558
       786.40000  7.37724e-12      343.558
       786.50000  7.39128e-12      344.212
       786.60000  7.39128e-12      344.212
       786.70000  7.39128e-12      344.212
       786.80000  7.39128e-12      344.212
       786.90000  7.39128e-12      344.212
       787.00000  7.39128e-12      344.212
       787.10000  7.39128e-12      344.212
       787.20000  7.39128e-12      344.212
       787.30000  7.39128e-12      344.212
       787.40000  7.39128e-12      344.212
       787.50000  5.84363e-12      272.138
       787.60000  5.84363e-12      272.138
       787.70000  5.84363e-12      272.138
       787.80000  5.84363e-12      272.138
       787.90000  5.84363e-12      272.138
       788.00000  5.84363e-12      272.138
       788.10000  5.84363e-12      272.138
       788.20000  5.84363e-12      272.138
       788.30000  5.84363e-12      272.138
       788.40000  5.84363e-12      272.138
       788.50000  3.94740e-12      183.830
       788.60000  3.94740e-12      183.830
       788.70000  3.94740e-12      183.830
       788.80000  3.89930e-12      181.590
       788.90000  3.89930e-12      181.590
       789.00000  3.89930e-12      181.590
       789.10000  3.89930e-12      181.512
       789.20000  3.89930e-12      181.395
       789.30000  3.89930e-12      181.278
       789.40000  3.89930e-12      181.200
       789.50000  3.39480e-12      157.654
       789.60000  3.39480e-12      157.552
       789.70000  3.39480e-12      157.485
       789.80000  3.39480e-12      157.383
       789.90000  3.39480e-12      157.281
       790.00000  3.39480e-12      157.213
       790.10000  3.39480e-12      157.111
       790.20000  3.39480e-12      157.043
       790.30000  3.39480e-12      156.941
       790.40000  3.39480e-12      156.874
       790.50000  1.18017e-12      54.5003
       790.60000  1.18017e-12      54.4648
       790.70000  1.18017e-12      54.4412
       790.80000  1.18017e-12      54.4058
       790.90000  1.18017e-12      54.3822
       791.00000  1.18017e-12      54.3468
       791.10000  1.18017e-12      54.3114
       791.20000  1.18017e-12      54.2878
       791.30000  1.16231e-12      53.4312
       791.40000  1.16231e-12      53.3964
       791.50000  1.35839e-12      62.3639
       791.60000  1.35839e-12      62.3231
       791.70000  1.35839e-12      62.2960
       791.80000  1.35839e-12      62.2552
       791.90000  1.35839e-12      62.2280
       792.00000  1.35839e-12      62.1873
       792.10000  1.35839e-12      62.1601
       792.20000  1.35839e-12      62.1329
       792.30000  1.35839e-12      62.0922
       792.40000  1.35839e-12      62.0650
       792.50000  1.62636e-12      74.2760
       792.60000  1.62636e-12      74.2435
       792.70000  1.62636e-12      74.2110
       792.80000  1.62636e-12      74.1784
       792.90000  1.62636e-12      74.1459
       793.00000  1.62636e-12      74.1134
       793.10000  1.62636e-12      74.0646
       793.20000  1.62636e-12      73.9995
       793.30000  1.62636e-12      73.9507
       793.40000  1.62636e-12      73.9020
       793.50000  2.33321e-13      10.5951
       793.60000  2.33321e-13      10.5904
       793.70000  2.33321e-13      10.5834
       793.80000  2.29285e-13      10.3981
       793.90000  2.29285e-13      10.3935
       794.00000  2.29285e-13      10.3912
       794.10000  2.29285e-13      10.3866
       794.20000  2.29285e-13      10.3866
       794.30000  2.29285e-13      10.3843
       794.40000  2.29285e-13      10.3843
       794.50000  4.22161e-12      191.197
       794.60000  4.22161e-12      191.197
       794.70000  4.22161e-12      191.239
       794.80000  4.22161e-12      191.239
       794.90000  4.22161e-12      191.281
       795.00000  4.22161e-12      191.366
       795.10000  4.22161e-12      191.661
       795.20000  4.22161e-12      191.957
       795.30000  4.22161e-12      192.252
       795.40000  4.22161e-12      192.548
       795.50000  1.87479e-12      85.6216
       795.60000  1.87479e-12      85.7340
       795.70000  1.87479e-12      85.8278
       795.80000  1.87479e-12      85.9215
       795.90000  1.87479e-12      86.0153
       796.00000  1.87479e-12      86.0902
       796.10000  1.87479e-12      86.1652
       796.20000  1.87479e-12      86.2402
       796.30000  1.83555e-12      84.4906
       796.40000  1.83555e-12      84.5456
       796.50000  3.78282e-13      17.4350
       796.60000  3.78282e-13      17.4426
       796.70000  3.78282e-13      17.4502
       796.80000  3.78282e-13      17.4539
       796.90000  3.78282e-13      17.4577
       797.00000  3.78282e-13      17.4615
       797.10000  3.78282e-13      17.4653
       797.20000  3.78282e-13      17.4653
       797.30000  3.78282e-13      17.4653
       797.40000  3.78282e-13      17.4615
       797.50000  2.54416e-12      117.413
       797.60000  2.54416e-12      117.388
       797.70000  2.54416e-12      117.337
       797.80000  2.54416e-12      117.286
       797.90000  2.54416e-12      117.235
       798.00000  2.54416e-12      117.159
       798.10000  2.54416e-12      117.082
       798.20000  2.54416e-12      117.006
       798.30000  2.54416e-12      116.904
       798.40000  2.54416e-12      116.803
       798.50000  1.71678e-13      7.87487
       798.60000  1.71678e-13      7.86629
       798.70000  1.71678e-13      7.85770
       798.80000  1.67681e-13      7.66640
       798.90000  1.67681e-13      7.65634
       799.00000  1.67681e-13      7.64627
       799.10000  1.67681e-13      7.65131
       799.20000  1.67681e-13      7.65801
       799.30000  1.67681e-13      7.66472
       799.40000  1.67681e-13      7.66975
       799.50000  7.25094e-13      33.1875
       799.60000  7.25094e-13      33.2093
       799.70000  7.25094e-13      33.2310
       799.80000  7.25094e-13      33.2456
       799.90000  7.25094e-13      33.2601
       800.00000  7.25094e-13      33.2746
       800.10000  7.25094e-13      33.2891
       800.20000  7.25094e-13      33.3036
       800.30000  7.25094e-13      33.3181
       800.40000  7.25094e-13      33.3253
       800.50000  1.99129e-12      91.5396
       800.60000  1.99129e-12      91.5595
       800.70000  1.99129e-12      91.5595
       800.80000  1.99129e-12      91.5794
       800.90000  1.99129e-12      91.5794
       801.00000  1.99129e-12      91.5794
       801.10000  1.99129e-12      91.5396
       801.20000  1.99129e-12      91.4997
       801.30000  1.94539e-12      89.3516
       801.40000  1.94539e-12      89.3127
       801.50000  1.72502e-12      79.1611
       801.60000  1.72502e-12      79.1266
       801.70000  1.72502e-12      79.0921
       801.80000  1.72502e-12      79.0576
       801.90000  1.72502e-12      79.0231
       802.00000  1.72502e-12      78.9886
       802.10000  1.72502e-12      78.9541
       802.20000  1.72502e-12      78.9196
       802.30000  1.72502e-12      78.8851
       802.40000  1.72502e-12      78.8506
       802.50000  1.50991e-12      68.9876
       802.60000  1.50991e-12      68.9574
       802.70000  1.50991e-12      68.9272
       802.80000  1.50991e-12      68.8819
       802.90000  1.50991e-12      68.8517
       803.00000  1.50991e-12      68.8215
       803.10000  1.50991e-12      68.7913
       803.20000  1.50991e-12      68.7611
       803.30000  1.50991e-12      68.7309
       803.40000  1.50991e-12      68.6856
       803.50000  1.39299e-12      63.3392
       803.60000  1.39299e-12      63.3113
       803.70000  1.39299e-12      63.2835
       803.80000  1.36034e-12      61.7732
       803.90000  1.36034e-12      61.7323
       804.00000  1.36034e-12      61.7051
       804.10000  1.36034e-12      61.6779
       804.20000  1.36034e-12      61.6507
       804.30000  1.36034e-12      61.6099
       804.40000  1.36034e-12      61.5827
       804.50000  5.42480e-13      24.5472
       804.60000  5.42480e-13      24.5310
       804.70000  5.42480e-13      24.5201
       804.80000  5.42480e-13      24.5093
       804.90000  5.42480e-13      24.4930
       805.00000  5.42480e-13      24.4821
       805.10000  5.42480e-13      24.5038
       805.20000  5.42480e-13      24.5310
       805.30000  5.42480e-13      24.5472
       805.40000  5.42480e-13      24.5689
       805.50000  1.03118e-13      4.67331
       805.60000  1.03118e-13      4.67640
       805.70000  1.03118e-13      4.67949
       805.80000  1.03118e-13      4.68155
       805.90000  1.03118e-13      4.68362
       806.00000  1.03118e-13      4.68568
       806.10000  1.03118e-13      4.68671
       806.20000  1.03118e-13      4.68774
       806.30000  1.00537e-13      4.57140
       806.40000  1.00537e-13      4.57241
       806.50000  1.13020e-13      5.14016
       806.60000  1.13020e-13      5.14016
       806.70000  1.13020e-13      5.13903
       806.80000  1.13020e-13      5.13903
       806.90000  1.13020e-13      5.13790
       807.00000  1.13020e-13      5.13564
       807.10000  1.13020e-13      5.12660
       807.20000  1.13020e-13      5.11643
       807.30000  1.13020e-13      5.10739
       807.40000  1.13020e-13      5.09948
       807.50000  1.03285e-12      46.5301
       807.60000  1.03285e-12      46.4578
       807.70000  1.03285e-12      46.3958
       807.80000  1.03285e-12      46.3442
       807.90000  1.03285e-12      46.2925
       808.00000  1.03285e-12      46.2409
       808.10000  1.03285e-12      46.1996
       808.20000  1.03285e-12      46.1583
       808.30000  1.03285e-12      46.1169
       808.40000  1.03285e-12      46.0860
       808.50000  7.77960e-13      34.6970
       808.60000  7.77960e-13      34.6815
       808.70000  7.77960e-13      34.6659
       808.80000  7.58562e-13      33.7939
       808.90000  7.58562e-13      33.7864
       809.00000  7.58562e-13      33.7864
       809.10000  7.58562e-13      33.7864
       809.20000  7.58562e-13      33.7939
       809.30000  7.58562e-13      33.8015
       809.40000  7.58562e-13      33.8091
       809.50000  6.32327e-14      2.81955
       809.60000  6.32327e-14      2.82144
       809.70000  6.32327e-14      2.82334
       809.80000  6.32327e-14      2.82524
       809.90000  6.32327e-14      2.82777
       810.00000  6.32327e-14      2.83030
       810.10000  6.32327e-14      2.83346
       810.20000  6.32327e-14      2.83662
       810.30000  6.32327e-14      2.83978
       810.40000  6.32327e-14      2.84358
       810.50000  2.20341e-13      9.92415
       810.60000  2.20341e-13      9.93737
       810.70000  2.20341e-13      9.95500
       810.80000  2.20341e-13      9.97262
       810.90000  2.20341e-13      9.99025
       811.00000  2.20341e-13      10.0101
       811.10000  2.20341e-13      10.0123
       811.20000  2.20341e-13      10.0167
       811.30000  2.14769e-13      9.76557
       811.40000  2.14769e-13      9.76986
       811.50000  1.18190e-12      53.7766
       811.60000  1.18190e-12      53.7885
       811.70000  1.18190e-12      53.8003
       811.80000  1.18190e-12      53.8121
       811.90000  1.18190e-12      53.8239
       812.00000  1.18190e-12      53.8357
       812.10000  1.18190e-12      53.8357
       812.20000  1.18190e-12      53.8476
       812.30000  1.18190e-12      53.8594
       812.40000  1.18190e-12      53.8594
       812.50000  8.66589e-13      39.4905
       812.60000  8.66589e-13      39.4991
       812.70000  8.66589e-13      39.4991
       812.80000  8.66589e-13      39.4991
       812.90000  8.66589e-13      39.4991
       813.00000  8.66589e-13      39.4991
       813.10000  8.66589e-13      39.4818
       813.20000  8.66589e-13      39.4731
       813.30000  8.66589e-13      39.4558
       813.40000  8.66589e-13      39.4471
       813.50000  3.51094e-13      15.9748
       813.60000  3.51094e-13      15.9713
       813.70000  3.51094e-13      15.9678
       813.80000  3.42553e-13      15.5759
       813.90000  3.42553e-13      15.5725
       814.00000  3.42553e-13      15.5656
       814.10000  3.42553e-13      15.5622
       814.20000  3.42553e-13      15.5588
       814.30000  3.42553e-13      15.5553
       814.40000  3.42553e-13      15.5553
       814.50000  1.50719e-13      6.84264
       814.60000  1.50719e-13      6.84114
       814.70000  1.50719e-13      6.83963
       814.80000  1.50719e-13      6.83812
       814.90000  1.50719e-13      6.83812
       815.00000  1.50719e-13      6.83661
       815.10000  1.50719e-13      6.84264
       815.20000  1.50719e-13      6.84716
       815.30000  1.50719e-13      6.85169
       815.40000  1.50719e-13      6.85470
       815.50000  3.77392e-13      17.1751
       815.60000  3.77392e-13      17.1789
       815.70000  3.77392e-13      17.1864
       815.80000  3.77392e-13      17.1864
       815.90000  3.77392e-13      17.1902
       816.00000  3.77392e-13      17.1902
       816.10000  3.77392e-13      17.1902
       816.20000  3.77392e-13      17.1864
       816.30000  3.67906e-13      16.7508
       816.40000  3.67906e-13      16.7471
       816.50000  8.34578e-13      37.9733
       816.60000  8.34578e-13      37.9566
       816.70000  8.34578e-13      37.9316
       816.80000  8.34578e-13      37.9066
       816.90000  8.34578e-13      37.8815
       817.00000  8.34578e-13      37.8481
       817.10000  8.34578e-13      37.7313
       817.20000  8.34578e-13      37.6228
       817.30000  8.34578e-13      37.5226
       817.40000  8.34578e-13      37.4225
       817.50000  1.01798e-13      4.55342
       817.60000  1.01798e-13      4.54324
       817.70000  1.01798e-13      4.53306
       817.80000  1.01798e-13      4.52289
       817.90000  1.01798e-13      4.51474
       818.00000  1.01798e-13      4.50558
       818.10000  1.01798e-13      4.49845
       818.20000  1.01798e-13      4.49133
       818.30000  1.01798e-13      4.48420
       818.40000  1.01798e-13      4.47911
       818.50000  5.27318e-13      23.1703
       818.60000  5.27318e-13      23.1492
       818.70000  5.27318e-13      23.1281
       818.80000  5.13958e-13      22.5217
       818.90000  5.13958e-13      22.5114
       819.00000  5.13958e-13      22.4960
       819.10000  5.13958e-13      22.4908
       819.20000  5.13958e-13      22.4857
       819.30000  5.13958e-13      22.4805
       819.40000  5.13958e-13      22.4805
       819.50000  5.75588e-13      25.1820
       819.60000  5.75588e-13      25.1877
       819.70000  5.75588e-13      25.1992
       819.80000  5.75588e-13      25.2165
       819.90000  5.75588e-13      25.2338
       820.00000  5.75588e-13      25.2568
       820.10000  5.75588e-13      25.2798
       820.20000  5.75588e-13      25.3086
       820.30000  5.75588e-13      25.3431
       820.40000  5.75588e-13      25.3777
       820.50000  4.62928e-14      2.04429
       820.60000  4.62928e-14      2.04753
       820.70000  4.62928e-14      2.05123
       820.80000  4.62928e-14      2.05494
       820.90000  4.62928e-14      2.05910
       821.00000  4.62928e-14      2.06373
       821.10000  4.62928e-14      2.06281
       821.20000  4.62928e-14      2.06234
       821.30000  4.52252e-14      2.01388
       821.40000  4.52252e-14      2.01343
       821.50000  1.41057e-13      6.27703
       821.60000  1.41057e-13      6.27562
       821.70000  1.41057e-13      6.27421
       821.80000  1.41057e-13      6.27139
       821.90000  1.41057e-13      6.26998
       822.00000  1.41057e-13      6.26857
       822.10000  1.41057e-13      6.26857
       822.20000  1.41057e-13      6.26716
       822.30000  1.41057e-13      6.26574
       822.40000  1.41057e-13      6.26574
       822.50000  5.04026e-13      22.3838
       822.60000  5.04026e-13      22.3838
       822.70000  5.04026e-13      22.3788
       822.80000  5.04026e-13      22.3788
       822.90000  5.04026e-13      22.3788
       823.00000  5.04026e-13      22.3788
       823.10000  5.04026e-13      22.3788
       823.20000  5.04026e-13      22.3788
       823.30000  5.04026e-13      22.3788
       823.40000  5.04026e-13      22.3788
       823.50000  1.91339e-13      8.49737
       823.60000  1.91339e-13      8.49737
       823.70000  1.91339e-13      8.49928
       823.80000  1.87086e-13      8.31035
       823.90000  1.87086e-13      8.31222
       824.00000  1.87086e-13      8.31409
       824.10000  1.87086e-13      8.31596
       824.20000  1.87086e-13      8.31783
       824.30000  1.87086e-13      8.31971
       824.40000  1.87086e-13      8.32345
       824.50000  2.64907e-13      11.7884
       824.60000  2.64907e-13      11.7937
       824.70000  2.64907e-13      11.7963
       824.80000  2.64907e-13      11.8016
       824.90000  2.64907e-13      11.8069
       825.00000  2.64907e-13      11.8122
       825.10000  2.64907e-13      11.8175
       825.20000  2.64907e-13      11.8228
       825.30000  2.64907e-13      11.8308
       825.40000  2.64907e-13      11.8361
       825.50000  1.46067e-12      65.3067
       825.60000  1.46067e-12      65.3359
       825.70000  1.46067e-12      65.3797
       825.80000  1.46067e-12      65.4236
       825.90000  1.46067e-12      65.4674
       826.00000  1.46067e-12      65.5112
       826.10000  1.46067e-12      65.5550
       826.20000  1.46067e-12      65.5842
       826.30000  1.43094e-12      64.2922
       826.40000  1.43094e-12      64.3208
       826.50000  6.68494e-13      30.0555
       826.60000  6.68494e-13      30.0689
       826.70000  6.68494e-13      30.0823
       826.80000  6.68494e-13      30.0889
       826.90000  6.68494e-13      30.0956
       827.00000  6.68494e-13      30.1023
       827.10000  6.68494e-13      30.1023
       827.20000  6.68494e-13      30.1090
       827.30000  6.68494e-13      30.1090
       827.40000  6.68494e-13      30.1090
       827.50000  1.03179e-12      46.4717
       827.60000  1.03179e-12      46.4717
       827.70000  1.03179e-12      46.4614
       827.80000  1.03179e-12      46.4511
       827.90000  1.03179e-12      46.4408
       828.00000  1.03179e-12      46.4305
       828.10000  1.03179e-12      46.3995
       828.20000  1.03179e-12      46.3582
       828.30000  1.03179e-12      46.3170
       828.40000  1.03179e-12      46.2757
       828.50000  7.17838e-14      3.21735
       828.60000  7.17838e-14      3.21448
       828.70000  7.17838e-14      3.21233
       828.80000  7.03743e-14      3.14714
       828.90000  7.03743e-14      3.14433
       829.00000  7.03743e-14      3.14221
       829.10000  7.03743e-14      3.14010
       829.20000  7.03743e-14      3.13799
       829.30000  7.03743e-14      3.13588
       829.40000  7.03743e-14      3.13377
       829.50000  5.72296e-13      25.4672
       829.60000  5.72296e-13      25.4500
       829.70000  5.72296e-13      25.4329
       829.80000  5.72296e-13      25.4157
       829.90000  5.72296e-13      25.4042
       830.00000  5.72296e-13      25.3871
       830.10000  5.72296e-13      25.3756
       830.20000  5.72296e-13      25.3585
       830.30000  5.72296e-13      25.3470
       830.40000  5.72296e-13      25.3298
       830.50000  5.73757e-13      25.3830
       830.60000  5.73757e-13      25.3715
       830.70000  5.73757e-13      25.3543
       830.80000  5.73757e-13      25.3428
       830.90000  5.73757e-13      25.3314
       831.00000  5.73757e-13      25.3199
       831.10000  5.73757e-13      25.3084
       831.20000  5.73757e-13      25.2969
       831.30000  5.62324e-13      24.7872
       831.40000  5.62324e-13      24.7760
       831.50000  2.93067e-13      12.9067
       831.60000  2.93067e-13      12.9038
       831.70000  2.93067e-13      12.8979
       831.80000  2.93067e-13      12.8920
       831.90000  2.93067e-13      12.8891
       832.00000  2.93067e-13      12.8862
       832.10000  2.93067e-13      12.8745
       832.20000  2.93067e-13      12.8627
       832.30000  2.93067e-13      12.8539
       832.40000  2.93067e-13      12.8451
       832.50000  1.00469e-12      44.0052
       832.60000  1.00469e-12      43.9851
       832.70000  1.00469e-12      43.9650
       832.80000  1.00469e-12      43.9349
       832.90000  1.00469e-12      43.9249
       833.00000  1.00469e-12      43.9048
       833.10000  1.00469e-12      43.8847
       833.20000  1.00469e-12      43.8746
       833.30000  1.00469e-12      43.8646
       833.40000  1.00469e-12      43.8545
       833.50000  6.14071e-13      26.8042
       833.60000  6.14071e-13      26.7980
       833.70000  6.14071e-13      26.7980
       833.80000  6.02611e-13      26.2979
       833.90000  6.02611e-13      26.3040
       834.00000  6.02611e-13      26.3040
       834.10000  6.02611e-13      26.3341
       834.20000  6.02611e-13      26.3582
       834.30000  6.02611e-13      26.3883
       834.40000  6.02611e-13      26.4124
       834.50000  2.69384e-13      11.8179
       834.60000  2.69384e-13      11.8287
       834.70000  2.69384e-13      11.8367
       834.80000  2.69384e-13      11.8448
       834.90000  2.69384e-13      11.8556
       835.00000  2.69384e-13      11.8637
       835.10000  2.69384e-13      11.8691
       835.20000  2.69384e-13      11.8771
       835.30000  2.69384e-13      11.8825
       835.40000  2.69384e-13      11.8879
       835.50000  9.90342e-13      43.7236
       835.60000  9.90342e-13      43.7434
       835.70000  9.90342e-13      43.7533
       835.80000  9.90342e-13      43.7731
       835.90000  9.90342e-13      43.7830
       836.00000  9.90342e-13      43.7929
       836.10000  9.90342e-13      43.7731
       836.20000  9.90342e-13      43.7632
       836.30000  9.74336e-13      43.0364
       836.40000  9.74336e-13      43.0267
       836.50000  1.64300e-12      72.5383
       836.60000  1.64300e-12      72.5054
       836.70000  1.64300e-12      72.4890
       836.80000  1.64300e-12      72.4725
       836.90000  1.64300e-12      72.4397
       837.00000  1.64300e-12      72.4232
       837.10000  1.64300e-12      72.4068
       837.20000  1.64300e-12      72.3904
       837.30000  1.64300e-12      72.3740
       837.40000  1.64300e-12      72.3575
       837.50000  3.38774e-13      14.9162
       837.60000  3.38774e-13      14.9128
       837.70000  3.38774e-13      14.9094
       837.80000  3.38774e-13      14.9060
       837.90000  3.38774e-13      14.9060
       838.00000  3.38774e-13      14.9027
       838.10000  3.38774e-13      14.8993
       838.20000  3.38774e-13      14.8993
       838.30000  3.38774e-13      14.8993
       838.40000  3.38774e-13      14.8993
       838.50000  4.15667e-13      18.2769
       838.60000  4.15667e-13      18.2769
       838.70000  4.15667e-13      18.2769
       838.80000  4.09555e-13      18.0041
       838.90000  4.09555e-13      18.0041
       839.00000  4.09555e-13      18.0041
       839.10000  4.09555e-13      18.0000
       839.20000  4.09555e-13      18.0000
       839.30000  4.09555e-13      18.0000
       839.40000  4.09555e-13      17.9959
       839.50000  5.07374e-13      22.2940
       839.60000  5.07374e-13      22.2940
       839.70000  5.07374e-13      22.2889
       839.80000  5.07374e-13      22.2889
       839.90000  5.07374e-13      22.2889
       840.00000  5.07374e-13      22.2839
       840.10000  5.07374e-13      22.2839
       840.20000  5.07374e-13      22.2839
       840.30000  5.07374e-13      22.2788
       840.40000  5.07374e-13      22.2788
       840.50000  5.11408e-13      22.4559
       840.60000  5.11408e-13      22.4508
       840.70000  5.11408e-13      22.4508
       840.80000  5.11408e-13      22.4508
       840.90000  5.11408e-13      22.4457
       841.00000  5.11408e-13      22.4457
       841.10000  5.11408e-13      22.4457
       841.20000  5.11408e-13      22.4457
       841.30000  5.03127e-13      22.0772
       841.40000  5.03127e-13      22.0772
       841.50000  7.08420e-14      3.10855
       841.60000  7.08420e-14      3.10784
       841.70000  7.08420e-14      3.10784
       841.80000  7.08420e-14      3.10784
       841.90000  7.08420e-14      3.10713
       842.00000  7.08420e-14      3.10713
       842.10000  7.08420e-14      3.10430
       842.20000  7.08420e-14      3.10217
       842.30000  7.08420e-14      3.10004
       842.40000  7.08420e-14      3.09721
       842.50000  1.56357e-13      6.83126
       842.60000  1.56357e-13      6.82813
       842.70000  1.56357e-13      6.82344
       842.80000  1.56357e-13      6.82031
       842.90000  1.56357e-13      6.81562
       843.00000  1.56357e-13      6.81249
       843.10000  1.56357e-13      6.80937
       843.20000  1.56357e-13      6.80624
       843.30000  1.56357e-13      6.80468
       843.40000  1.56357e-13      6.80155
       843.50000  1.21170e-13      5.26967
       843.60000  1.21170e-13      5.26845
       843.70000  1.21170e-13      5.26724
       843.80000  1.19056e-13      5.17419
       843.90000  1.19056e-13      5.17419
       844.00000  1.19056e-13      5.17300
       844.10000  1.19056e-13      5.17657
       844.20000  1.19056e-13      5.17895
       844.30000  1.19056e-13      5.18133
       844.40000  1.19056e-13      5.18371
       844.50000  1.04514e-12      45.5264
       844.60000  1.04514e-12      45.5474
       844.70000  1.04514e-12      45.5578
       844.80000  1.04514e-12      45.5787
       844.90000  1.04514e-12      45.5892
       845.00000  1.04514e-12      45.6101
       845.10000  1.04514e-12      45.6205
       845.20000  1.04514e-12      45.6310
       845.30000  1.04514e-12      45.6519
       845.40000  1.04514e-12      45.6623
       845.50000  4.46847e-13      19.5227
       845.60000  4.46847e-13      19.5272
       845.70000  4.46847e-13      19.5317
       845.80000  4.46847e-13      19.5361
       845.90000  4.46847e-13      19.5361
       846.00000  4.46847e-13      19.5406
       846.10000  4.46847e-13      19.5406
       846.20000  4.46847e-13      19.5406
       846.30000  4.38481e-13      19.1748
       846.40000  4.38481e-13      19.1792
       846.50000  8.20290e-13      35.8795
       846.60000  8.20290e-13      35.8713
       846.70000  8.20290e-13      35.8713
       846.80000  8.20290e-13      35.8713
       846.90000  8.20290e-13      35.8631
       847.00000  8.20290e-13      35.8631
       847.10000  8.20290e-13      35.8549
       847.20000  8.20290e-13      35.8549
       847.30000  8.20290e-13      35.8467
       847.40000  8.20290e-13      35.8385
       847.50000  1.15968e-13      5.06549
       847.60000  1.15968e-13      5.06433
       847.70000  1.15968e-13      5.06317
       847.80000  1.15968e-13      5.06202
       847.90000  1.15968e-13      5.05970
       848.00000  1.15968e-13      5.05854
       848.10000  1.15968e-13      5.03418
       848.20000  1.15968e-13      5.01215
       848.30000  1.15968e-13      4.99011
       848.40000  1.15968e-13      4.96924
       848.50000  2.78477e-13      11.8854
       848.60000  2.78477e-13      11.8436
       848.70000  2.78477e-13      11.8018
       848.80000  2.73383e-13      11.5477
       848.90000  2.73383e-13      11.5122
       849.00000  2.73383e-13      11.4794
       849.10000  2.73383e-13      11.4466
       849.20000  2.73383e-13      11.4192
       849.30000  2.73383e-13      11.3946
       849.40000  2.73383e-13      11.3700
       849.50000  1.19046e-09      49427.7
       849.60000  1.19046e-09      49344.4
       849.70000  1.19046e-09      49284.9
       849.80000  1.19046e-09      49225.4
       849.90000  1.19046e-09      49177.8
       850.00000  1.19046e-09      49142.0
       850.10000  1.19046e-09      49403.9
       850.20000  1.19046e-09      49653.9
       850.30000  1.19046e-09      49880.1
       850.40000  1.19046e-09      50082.5
       850.50000  1.38188e-09      58356.8
       850.60000  1.38188e-09      58550.3
       850.70000  1.38188e-09      58716.1
       850.80000  1.38188e-09      58868.1
       850.90000  1.38188e-09      58992.5
       851.00000  1.38188e-09      59103.0
       851.10000  1.38188e-09      59186.0
       851.20000  1.38188e-09      59255.0
       851.30000  1.35807e-09      58274.7
       851.40000  1.35807e-09      58288.3
       851.50000  1.03894e-09      44591.3
       851.60000  1.03894e-09      44570.5
       851.70000  1.03894e-09      44539.4
       851.80000  1.03894e-09      44487.4
       851.90000  1.03894e-09      44414.7
       852.00000  1.03894e-09      44331.6
       852.10000  1.03894e-09      44227.7
       852.20000  1.03894e-09      44113.4
       852.30000  1.03894e-09      43978.3
       852.40000  1.03894e-09      43832.9
       852.50000  8.03627e-10      33768.4
       852.60000  8.03627e-10      33631.8
       852.70000  8.03627e-10      33471.1
       852.80000  8.03627e-10      33310.3
       852.90000  8.03627e-10      33125.5
       853.00000  8.03627e-10      32932.6
       853.10000  8.03627e-10      32723.7
       853.20000  8.03627e-10      32506.7
       853.30000  8.03627e-10      32273.7
       853.40000  8.03627e-10      32032.6
       853.50000  9.31713e-10      36839.9
       853.60000  9.31713e-10      36523.1
       853.70000  9.31713e-10      36197.1
       853.80000  9.15768e-10      35238.8
       853.90000  9.15768e-10      34890.8
       854.00000  9.15768e-10      34524.4
       854.10000  9.15768e-10      34780.9
       854.20000  9.15768e-10      35037.3
       854.30000  9.15768e-10      35284.5
       854.40000  9.15768e-10      35522.6
       854.50000  1.00822e-09      39361.0
       854.60000  1.00822e-09      39613.1
       854.70000  1.00822e-09      39855.1
       854.80000  1.00822e-09      40086.9
       854.90000  1.00822e-09      40318.8
       855.00000  1.00822e-09      40540.6
       855.10000  1.00822e-09      40752.4
       855.20000  1.00822e-09      40954.0
       855.30000  1.00822e-09      41155.7
       855.40000  1.00822e-09      41337.1
       855.50000  7.61213e-10      31354.4
       855.60000  7.61213e-10      31483.8
       855.70000  7.61213e-10      31613.2
       855.80000  7.61213e-10      31735.0
       855.90000  7.61213e-10      31849.1
       856.00000  7.61213e-10      31955.7
       856.10000  7.61213e-10      32039.4
       856.20000  7.61213e-10      32115.6
       856.30000  7.45836e-10      31541.4
       856.40000  7.45836e-10      31616.0
       856.50000  1.05416e-09      44780.9
       856.60000  1.05416e-09      44875.8
       856.70000  1.05416e-09      44960.1
       856.80000  1.05416e-09      45044.4
       856.90000  1.05416e-09      45118.2
       857.00000  1.05416e-09      45192.0
       857.10000  1.05416e-09      45265.8
       857.20000  1.05416e-09      45329.1
       857.30000  1.05416e-09      45392.3
       857.40000  1.05416e-09      45445.0
       857.50000  5.65660e-10      24413.9
       857.60000  5.65660e-10      24442.2
       857.70000  5.65660e-10      24464.8
       857.80000  5.65660e-10      24487.4
       857.90000  5.65660e-10      24504.4
       858.00000  5.65660e-10      24527.0
       858.10000  5.65660e-10      24538.4
       858.20000  5.65660e-10      24549.7
       858.30000  5.65660e-10      24561.0
       858.40000  5.65660e-10      24566.6
       858.50000  9.10473e-10      39550.9
       858.60000  9.10473e-10      39560.0
       858.70000  9.10473e-10      39560.0
       858.80000  8.91000e-10      38714.0
       858.90000  8.91000e-10      38705.0
       859.00000  8.91000e-10      38696.1
       859.10000  8.91000e-10      38687.2
       859.20000  8.91000e-10      38669.4
       859.30000  8.91000e-10      38651.6
       859.40000  8.91000e-10      38624.9
       859.50000  3.62770e-10      15715.2
       859.60000  3.62770e-10      15704.3
       859.70000  3.62770e-10      15689.8
       859.80000  3.62770e-10      15671.7
       859.90000  3.62770e-10      15657.2
       860.00000  3.62770e-10      15639.0
       860.10000  3.62770e-10      15635.4
       860.20000  3.62770e-10      15631.8
       860.30000  3.62770e-10      15631.8
       860.40000  3.62770e-10      15631.8
       860.50000  8.03892e-10      34631.7
       860.60000  8.03892e-10      34631.7
       860.70000  8.03892e-10      34631.7
       860.80000  8.03892e-10      34631.7
       860.90000  8.03892e-10      34631.7
       861.00000  8.03892e-10      34631.7
       861.10000  8.03892e-10      34631.7
       861.20000  8.03892e-10      34631.7
       861.30000  7.86802e-10      33895.4
       861.40000  7.86802e-10      33903.3
       861.50000  1.01229e-09      43619.4
       861.60000  1.01229e-09      43619.4
       861.70000  1.01229e-09      43629.5
       861.80000  1.01229e-09      43639.6
       861.90000  1.01229e-09      43639.6
       862.00000  1.01229e-09      43649.7
       862.10000  1.01229e-09      43791.5
       862.20000  1.01229e-09      43912.9
       862.30000  1.01229e-09      44024.3
       862.40000  1.01229e-09      44125.5
       862.50000  9.60110e-10      41928.0
       862.60000  9.60110e-10      41995.2
       862.70000  9.60110e-10      42052.8
       862.80000  9.60110e-10      42100.8
       862.90000  9.60110e-10      42129.6
       863.00000  9.60110e-10      42148.9
       863.10000  9.60110e-10      42158.4
       863.20000  9.60110e-10      42158.4
       863.30000  9.60110e-10      42139.2
       863.40000  9.60110e-10      42110.4
       863.50000  7.63081e-10      33438.2
       863.60000  7.63081e-10      33392.4
       863.70000  7.63081e-10      33339.0
       863.80000  7.46766e-10      32566.4
       863.90000  7.46766e-10      32499.2
       864.00000  7.46766e-10      32417.1
       864.10000  7.46766e-10      32327.5
       864.20000  7.46766e-10      32230.4
       864.30000  7.46766e-10      32118.4
       864.40000  7.46766e-10      32006.4
       864.50000  3.76444e-10      16066.6
       864.60000  3.76444e-10      15998.9
       864.70000  3.76444e-10      15923.6
       864.80000  3.76444e-10      15848.3
       864.90000  3.76444e-10      15761.7
       865.00000  3.76444e-10      15675.1
       865.10000  3.76444e-10      15581.0
       865.20000  3.76444e-10      15483.1
       865.30000  3.76444e-10      15381.5
       865.40000  3.76444e-10      15272.3
       865.50000  5.76708e-10      23224.0
       865.60000  5.76708e-10      23045.3
       865.70000  5.76708e-10      22860.7
       865.80000  5.76708e-10      22664.6
       865.90000  5.76708e-10      22462.8
       866.00000  5.76708e-10      22255.2
       866.10000  5.76708e-10      22335.9
       866.20000  5.76708e-10      22410.9
       866.30000  5.64441e-10      22013.2
       866.40000  5.64441e-10      22086.6
       866.50000  4.57949e-10      17979.1
       866.60000  4.57949e-10      18038.6
       866.70000  4.57949e-10      18098.2
       866.80000  4.57949e-10      18157.7
       866.90000  4.57949e-10      18212.6
       867.00000  4.57949e-10      18267.6
       867.10000  4.57949e-10      18322.5
       867.20000  4.57949e-10      18377.5
       867.30000  4.57949e-10      18432.5
       867.40000  4.57949e-10      18482.8
       867.50000  9.80502e-10      39680.9
       867.60000  9.80502e-10      39788.8
       867.70000  9.80502e-10      39896.6
       867.80000  9.80502e-10      40004.5
       867.90000  9.80502e-10      40102.5
       868.00000  9.80502e-10      40200.6
       868.10000  9.80502e-10      40308.4
       868.20000  9.80502e-10      40416.3
       868.30000  9.80502e-10      40514.3
       868.40000  9.80502e-10      40612.4
       868.50000  4.25523e-10      17667.7
       868.60000  4.25523e-10      17706.0
       868.70000  4.25523e-10      17748.6
       868.80000  4.16208e-10      17393.3
       868.90000  4.16208e-10      17430.8
       869.00000  4.16208e-10      17464.1
       869.10000  4.16208e-10      17497.4
       869.20000  4.16208e-10      17530.7
       869.30000  4.16208e-10      17564.0
       869.40000  4.16208e-10      17593.1
       869.50000  3.09248e-10      13093.6
       869.60000  3.09248e-10      13112.1
       869.70000  3.09248e-10      13130.7
       869.80000  3.09248e-10      13149.2
       869.90000  3.09248e-10      13167.8
       870.00000  3.09248e-10      13186.3
       870.10000  3.09248e-10      13201.8
       870.20000  3.09248e-10      13217.3
       870.30000  3.09248e-10      13229.6
       870.40000  3.09248e-10      13242.0
       870.50000  7.86114e-11      3369.29
       870.60000  7.86114e-11      3372.43
       870.70000  7.86114e-11      3374.79
       870.80000  7.86114e-11      3377.93
       870.90000  7.86114e-11      3379.51
       871.00000  7.86114e-11      3381.86
       871.10000  7.86114e-11      3383.44
       871.20000  7.86114e-11      3385.01
       871.30000  7.69633e-11      3315.58
       871.40000  7.69633e-11      3316.35
       871.50000  5.23203e-10      22550.1
       871.60000  5.23203e-10      22555.3
       871.70000  5.23203e-10      22555.3
       871.80000  5.23203e-10      22560.5
       871.90000  5.23203e-10      22555.3
       872.00000  5.23203e-10      22555.3
       872.10000  5.23203e-10      22539.6
       872.20000  5.23203e-10      22529.1
       872.30000  5.23203e-10      22513.4
       872.40000  5.23203e-10      22503.0
       872.50000  2.17643e-10      9354.29
       872.60000  2.17643e-10      9349.94
       872.70000  2.17643e-10      9345.59
       872.80000  2.17643e-10      9341.23
       872.90000  2.17643e-10      9334.71
       873.00000  2.17643e-10      9330.35
       873.10000  2.17643e-10      9326.00
       873.20000  2.17643e-10      9321.65
       873.30000  2.17643e-10      9317.29
       873.40000  2.17643e-10      9312.94
       873.50000  3.44559e-11      1473.68
       873.60000  3.44559e-11      1472.99
       873.70000  3.44559e-11      1472.30
       873.80000  3.36739e-11      1438.55
       873.90000  3.36739e-11      1437.88
       874.00000  3.36739e-11      1437.20
       877.00000  5.34699e-10      22804.9
       877.10000  5.34699e-10      22821.0
       877.20000  5.34699e-10      22837.0
       877.30000  5.34699e-10      22853.1
       877.40000  5.34699e-10      22874.4
       877.50000  1.04059e-09      44558.2
       877.60000  1.04059e-09      44599.8
       877.70000  1.04059e-09      44641.5
       877.80000  1.04059e-09      44683.1
       877.90000  1.04059e-09      44735.1
       878.00000  1.04059e-09      44787.1
       878.10000  1.04059e-09      44724.7
       878.20000  1.04059e-09      44672.7
       878.30000  1.04059e-09      44620.6
       878.40000  1.04059e-09      44568.6
       878.50000  3.35347e-10      14346.1
       878.60000  3.35347e-10      14332.7
       878.70000  3.35347e-10      14316.0
       878.80000  3.27165e-10      13953.6
       878.90000  3.27165e-10      13940.5
       879.00000  3.27165e-10      13927.4
       883.00000  2.25170e-10      9574.21
       883.10000  2.25170e-10      9578.71
       883.20000  2.25170e-10      9583.22
       883.30000  2.25170e-10      9585.47
       883.40000  2.25170e-10      9587.72
       883.50000  4.91242e-10      20922.0
       883.60000  4.91242e-10      20922.0
       883.70000  4.91242e-10      20922.0
       883.80000  4.79832e-10      20436.1
       883.90000  4.79832e-10      20431.3
       884.00000  4.79832e-10      20426.5
       886.00000  9.55391e-10      39935.3
       888.00000  1.00891e-09      42535.8
       890.00000  9.60128e-10      40939.9
       890.10000  9.60128e-10      40911.1
       890.20000  9.60128e-10      40882.3
       890.30000  9.60128e-10      40853.5
       890.40000  9.60128e-10      40824.7
       890.50000  1.27435e-09      54147.1
       890.60000  1.27435e-09      54108.9
       890.70000  1.27435e-09      54070.6
       890.80000  1.27435e-09      54032.4
       890.90000  1.27435e-09      53994.2
       891.00000  1.27435e-09      53968.7
       893.00000  3.59366e-10      15093.4
       899.00000  3.82526e-10      16020.2
       899.10000  3.82526e-10      16004.9
       899.20000  3.82526e-10      15989.6
       899.30000  3.82526e-10      15974.3
       899.40000  3.82526e-10      15959.0
       899.50000  2.33581e-09      97356.5
       899.60000  2.33581e-09      97239.7
       899.70000  2.33581e-09      97146.3
       899.80000  2.33581e-09      97029.5
       899.90000  2.33581e-09      96912.7
       900.00000  2.33581e-09      96795.9
       900.10000  2.33581e-09      96515.6
       900.20000  2.33581e-09      96282.0
       900.30000  2.33581e-09      96025.1
       900.40000  2.33581e-09      95814.9
       900.50000  2.69476e-09      110296.
       900.60000  2.69476e-09      110081.
       900.70000  2.69476e-09      109865.
       900.80000  2.69476e-09      109704.
       900.90000  2.69476e-09      109542.
       901.00000  2.69476e-09      109380.
       901.10000  2.69476e-09      109272.
       901.20000  2.69476e-09      109165.
       901.30000  2.65649e-09      107508.
       901.40000  2.65649e-09      107455.
       901.50000  2.31461e-09      93579.6
       901.60000  2.31461e-09      93556.4
       901.70000  2.31461e-09      93533.3
       901.80000  2.31461e-09      93533.3
       901.90000  2.31461e-09      93556.4
       902.00000  2.31461e-09      93602.7
       902.10000  2.31461e-09      93926.8
       902.20000  2.31461e-09      94227.7
       902.30000  2.31461e-09      94528.6
       902.40000  2.31461e-09      94806.3
       902.50000  2.06501e-09      84830.8
       902.60000  2.06501e-09      85057.9
       902.70000  2.06501e-09      85285.1
       902.80000  2.06501e-09      85491.6
       902.90000  2.06501e-09      85698.1
       903.00000  2.06501e-09      85883.9
       903.10000  2.06501e-09      86069.8
       903.20000  2.06501e-09      86235.0
       903.30000  2.06501e-09      86379.5
       903.40000  2.06501e-09      86524.1
       903.50000  2.10875e-09      88483.1
       903.60000  2.10875e-09      88609.7
       903.70000  2.10875e-09      88736.2
       903.80000  2.07936e-09      87582.8
       903.90000  2.07936e-09      87686.8
       904.00000  2.07936e-09      87749.1
       904.10000  2.07936e-09      87811.5
       904.20000  2.07936e-09      87873.9
       904.30000  2.07936e-09      87915.5
       904.40000  2.07936e-09      87936.3
       904.50000  2.27106e-09      96065.9
       904.60000  2.27106e-09      96088.6
       904.70000  2.27106e-09      96088.6
       904.80000  2.27106e-09      96065.9
       904.90000  2.27106e-09      96043.2
       905.00000  2.27106e-09      95997.7
       905.10000  2.27106e-09      95952.3
       905.20000  2.27106e-09      95884.2
       905.30000  2.27106e-09      95816.1
       905.40000  2.27106e-09      95725.2
       905.50000  2.03230e-09      85559.9
       905.60000  2.03230e-09      85458.3
       905.70000  2.03230e-09      85356.6
       905.80000  2.03230e-09      85234.7
       905.90000  2.03230e-09      85092.4
       906.00000  2.03230e-09      84950.2
       906.10000  2.03230e-09      84868.9
       906.20000  2.03230e-09      84807.9
       906.30000  2.00294e-09      83522.4
       906.40000  2.00294e-09      83442.3
       906.50000  2.13264e-09      88781.9
       906.60000  2.13264e-09      88718.0
       906.70000  2.13264e-09      88654.0
       906.80000  2.13264e-09      88590.0
       906.90000  2.13264e-09      88526.0
       907.00000  2.13264e-09      88462.0
       907.10000  2.13264e-09      88398.1
       907.20000  2.13264e-09      88334.1
       907.30000  2.13264e-09      88270.1
       907.40000  2.13264e-09      88206.1
       907.50000  1.24421e-09      51423.0
       907.60000  1.24421e-09      51398.1
       907.70000  1.24421e-09      51360.8
       907.80000  1.24421e-09      51323.5
       907.90000  1.24421e-09      51298.6
       908.00000  1.24421e-09      51261.2
       908.10000  1.24421e-09      51211.5
       908.20000  1.24421e-09      51174.2
       908.30000  1.24421e-09      51124.4
       908.40000  1.24421e-09      51087.1
       908.50000  1.52474e-09      62560.0
       908.60000  1.52474e-09      62514.3
       908.70000  1.52474e-09      62483.8
       908.80000  1.50173e-09      61495.7
       908.90000  1.50173e-09      61465.7
       909.00000  1.50173e-09      61435.7
       909.10000  1.50173e-09      61405.6
       909.20000  1.50173e-09      61375.6
       909.30000  1.50173e-09      61345.6
       909.40000  1.50173e-09      61330.6
       909.50000  1.19264e-09      48695.4
       909.60000  1.19264e-09      48683.4
       909.70000  1.19264e-09      48671.5
       909.80000  1.19264e-09      48659.6
       909.90000  1.19264e-09      48659.6
       910.00000  1.19264e-09      48647.6
       910.10000  1.19264e-09      48647.6
       910.20000  1.19264e-09      48647.6
       910.30000  1.19264e-09      48659.6
       910.40000  1.19264e-09      48659.6
       910.50000  1.47059e-09      60014.7
       910.60000  1.47059e-09      60014.7
       910.70000  1.47059e-09      60029.4
       910.80000  1.47059e-09      60058.8
       910.90000  1.47059e-09      60073.5
       911.00000  1.47059e-09      60088.2
       911.10000  1.47059e-09      60117.6
       911.20000  1.47059e-09      60147.0
       911.30000  1.44714e-09      59217.1
       911.40000  1.44714e-09      59246.1
       911.50000  1.10867e-09      45422.3
       911.60000  1.10867e-09      45444.5
       911.70000  1.10867e-09      45477.7
       911.80000  1.10867e-09      45511.0
       911.90000  1.10867e-09      45544.2
       912.00000  1.10867e-09      45588.6
       912.10000  1.10867e-09      45644.0
       912.20000  1.10867e-09      45688.4
       912.30000  1.10867e-09      45732.7
       912.40000  1.10867e-09      45777.1
       912.50000  9.98136e-10      41253.0
       912.60000  9.98136e-10      41292.9
       912.70000  9.98136e-10      41332.8
       912.80000  9.98136e-10      41362.8
       912.90000  9.98136e-10      41392.7
       913.00000  9.98136e-10      41422.7
       913.10000  9.98136e-10      41452.6
       913.20000  9.98136e-10      41472.6
       913.30000  9.98136e-10      41502.5
       913.40000  9.98136e-10      41522.5
       913.50000  1.32442e-09      55122.3
       913.60000  1.32442e-09      55148.7
       913.70000  1.32442e-09      55162.0
       913.80000  1.30172e-09      54229.6
       913.90000  1.30172e-09      54255.6
       914.00000  1.30172e-09      54268.6
       914.10000  1.30172e-09      54242.6
       914.20000  1.30172e-09      54229.6
       914.30000  1.30172e-09      54216.5
       914.40000  1.30172e-09      54203.5
       914.50000  1.34263e-09      55893.5
       914.60000  1.34263e-09      55866.7
       914.70000  1.34263e-09      55853.2
       914.80000  1.34263e-09      55839.8
       914.90000  1.34263e-09      55826.4
       915.00000  1.34263e-09      55813.0
       915.10000  1.34263e-09      55799.5
       915.20000  1.34263e-09      55786.1
       915.30000  1.34263e-09      55772.7
       915.40000  1.34263e-09      55759.3
       915.50000  8.59720e-10      35695.6
       915.60000  8.59720e-10      35687.0
       915.70000  8.59720e-10      35678.4
       915.80000  8.59720e-10      35669.8
       915.90000  8.59720e-10      35661.2
       916.00000  8.59720e-10      35652.6
       916.10000  8.59720e-10      35644.0
       916.20000  8.59720e-10      35635.4
       916.30000  8.43740e-10      34964.6
       916.40000  8.43740e-10      34956.1
       916.50000  9.25736e-10      38344.0
       916.60000  9.25736e-10      38344.0
       916.70000  9.25736e-10      38334.7
       916.80000  9.25736e-10      38325.5
       916.90000  9.25736e-10      38316.2
       917.00000  9.25736e-10      38307.0
       917.10000  9.25736e-10      38307.0
       917.20000  9.25736e-10      38297.7
       917.30000  9.25736e-10      38288.4
       917.40000  9.25736e-10      38279.2
       917.50000  9.73582e-10      40257.6
       917.60000  9.73582e-10      40247.9
       917.70000  9.73582e-10      40238.1
       917.80000  9.73582e-10      40238.1
       917.90000  9.73582e-10      40228.4
       918.00000  9.73582e-10      40218.7
       918.10000  9.73582e-10      40238.1
       918.20000  9.73582e-10      40257.6
       918.30000  9.73582e-10      40277.1
       918.40000  9.73582e-10      40286.8
       918.50000  9.17163e-10      37961.4
       918.60000  9.17163e-10      37970.6
       918.70000  9.17163e-10      37970.6
       918.80000  9.00007e-10      37260.3
       918.90000  9.00007e-10      37260.3
       919.00000  9.00007e-10      37260.3
       919.10000  9.00007e-10      37251.3
       919.20000  9.00007e-10      37242.3
       919.30000  9.00007e-10      37233.3
       919.40000  9.00007e-10      37215.3
       919.50000  5.54246e-10      22907.0
       919.60000  5.54246e-10      22895.9
       919.70000  5.54246e-10      22884.8
       919.80000  5.54246e-10      22868.2
       919.90000  5.54246e-10      22857.1
       920.00000  5.54246e-10      22840.5
       920.10000  5.54246e-10      22790.6
       920.20000  5.54246e-10      22746.3
       920.30000  5.54246e-10      22701.9
       920.40000  5.54246e-10      22657.6
       920.50000  9.00060e-10      36722.5
       920.60000  9.00060e-10      36659.5
       920.70000  9.00060e-10      36596.5
       920.80000  9.00060e-10      36542.5
       920.90000  9.00060e-10      36479.4
       921.00000  9.00060e-10      36425.4
       921.10000  9.00060e-10      36371.4
       921.20000  9.00060e-10      36326.4
       921.30000  8.82776e-10      35575.9
       921.40000  8.82776e-10      35531.7
       921.50000  7.32925e-10      29463.6
       921.60000  7.32925e-10      29434.3
       921.70000  7.32925e-10      29404.9
       921.80000  7.32925e-10      29375.6
       921.90000  7.32925e-10      29346.3
       922.00000  7.32925e-10      29324.3
       922.10000  7.32925e-10      29295.0
       922.20000  7.32925e-10      29280.3
       922.30000  7.32925e-10      29258.4
       922.40000  7.32925e-10      29243.7
       922.50000  9.12323e-10      36374.3
       922.60000  9.12323e-10      36365.2
       922.70000  9.12323e-10      36346.9
       922.80000  9.12323e-10      36337.8
       922.90000  9.12323e-10      36328.7
       923.00000  9.12323e-10      36319.6
       923.10000  9.12323e-10      36319.6
       923.20000  9.12323e-10      36310.5
       923.30000  9.12323e-10      36310.5
       923.40000  9.12323e-10      36319.6
       923.50000  8.91944e-10      35508.3
       923.60000  8.91944e-10      35517.2
       923.70000  8.91944e-10      35526.1
       923.80000  8.74588e-10      34852.3
       923.90000  8.74588e-10      34861.1
       924.00000  8.74588e-10      34878.6
       924.10000  8.74588e-10      34878.6
       924.20000  8.74588e-10      34878.6
       924.30000  8.74588e-10      34878.6
       924.40000  8.74588e-10      34878.6
       924.50000  6.83811e-10      27270.4
       924.60000  6.83811e-10      27270.4
       924.70000  6.83811e-10      27277.2
       924.80000  6.83811e-10      27284.0
       924.90000  6.83811e-10      27284.0
       925.00000  6.83811e-10      27290.9
       925.10000  6.83811e-10      27304.6
       925.20000  6.83811e-10      27311.4
       925.30000  6.83811e-10      27318.2
       925.40000  6.83811e-10      27331.9
       925.50000  5.41441e-10      21652.2
       925.60000  5.41441e-10      21663.0
       925.70000  5.41441e-10      21673.9
       925.80000  5.41441e-10      21684.7
       925.90000  5.41441e-10      21695.5
       926.00000  5.41441e-10      21711.8
       926.10000  5.41441e-10      21744.3
       926.20000  5.41441e-10      21782.2
       926.30000  5.30889e-10      21389.5
       926.40000  5.30889e-10      21421.4
       926.50000  6.04885e-10      24443.4
       926.60000  6.04885e-10      24473.7
       926.70000  6.04885e-10      24503.9
       926.80000  6.04885e-10      24534.1
       926.90000  6.04885e-10      24564.4
       927.00000  6.04885e-10      24588.6
       927.10000  6.04885e-10      24612.8
       927.20000  6.04885e-10      24637.0
       927.30000  6.04885e-10      24655.1
       927.40000  6.04885e-10      24673.3
       927.50000  6.78821e-10      27709.5
       927.60000  6.78821e-10      27723.0
       927.70000  6.78821e-10      27743.4
       927.80000  6.78821e-10      27757.0
       927.90000  6.78821e-10      27763.8
       928.00000  6.78821e-10      27770.6
       928.10000  6.78821e-10      27757.0
       928.20000  6.78821e-10      27743.4
       928.30000  6.78821e-10      27723.0
       928.40000  6.78821e-10      27709.5
       928.50000  5.61930e-10      22926.8
       928.60000  5.61930e-10      22915.5
       928.70000  5.61930e-10      22904.3
       928.80000  5.51060e-10      22450.2
       928.90000  5.51060e-10      22439.2
       929.00000  5.51060e-10      22433.6
       929.10000  5.51060e-10      22422.6
       929.20000  5.51060e-10      22411.6
       929.30000  5.51060e-10      22406.1
       929.40000  5.51060e-10      22395.1
       929.50000  7.10035e-10      28848.7
       929.60000  7.10035e-10      28841.6
       929.70000  7.10035e-10      28827.4
       929.80000  7.10035e-10      28820.3
       929.90000  7.10035e-10      28813.2
       930.00000  7.10035e-10      28806.1
       930.10000  7.10035e-10      28806.1
       930.20000  7.10035e-10      28806.1
       930.30000  7.10035e-10      28799.0
       930.40000  7.10035e-10      28799.0
       930.50000  5.37660e-10      21807.5
       930.60000  5.37660e-10      21807.5
       930.70000  5.37660e-10      21802.1
       930.80000  5.37660e-10      21802.1
       930.90000  5.37660e-10      21802.1
       931.00000  5.37660e-10      21802.1
       931.10000  5.37660e-10      21802.1
       931.20000  5.37660e-10      21796.7
       931.30000  5.27826e-10      21398.1
       931.40000  5.27826e-10      21398.1
       931.50000  5.15644e-10      20904.2
       931.60000  5.15644e-10      20904.2
       931.70000  5.15644e-10      20904.2
       931.80000  5.15644e-10      20904.2
       931.90000  5.15644e-10      20904.2
       932.00000  5.15644e-10      20904.2
       932.10000  5.15644e-10      20904.2
       932.20000  5.15644e-10      20904.2
       932.30000  5.15644e-10      20904.2
       932.40000  5.15644e-10      20904.2
       932.50000  4.73476e-10      19194.7
       932.60000  4.73476e-10      19194.7
       932.70000  4.73476e-10      19194.7
       932.80000  4.73476e-10      19199.5
       932.90000  4.73476e-10      19199.5
       933.00000  4.73476e-10      19199.5
       933.10000  4.73476e-10      19199.5
       933.20000  4.73476e-10      19199.5
       933.30000  4.73476e-10      19204.2
       933.40000  4.73476e-10      19204.2
       933.50000  4.50448e-10      18270.2
       933.60000  4.50448e-10      18274.7
       933.70000  4.50448e-10      18274.7
       933.80000  4.42811e-10      17964.8
       933.90000  4.42811e-10      17969.3
       934.00000  4.42811e-10      17969.3
       934.10000  4.42811e-10      17956.0
       934.20000  4.42811e-10      17942.7
       934.30000  4.42811e-10      17929.4
       934.40000  4.42811e-10      17916.1
       934.50000  5.21296e-10      21076.0
       934.60000  5.21296e-10      21065.6
       934.70000  5.21296e-10      21055.1
       934.80000  5.21296e-10      21039.5
       934.90000  5.21296e-10      21029.1
       935.00000  5.21296e-10      21023.8
       935.10000  5.21296e-10      21013.4
       935.20000  5.21296e-10      21003.0
       935.30000  5.21296e-10      20997.8
       935.40000  5.21296e-10      20992.6
       935.50000  5.25616e-10      21161.3
       935.60000  5.25616e-10      21156.0
       935.70000  5.25616e-10      21150.8
       935.80000  5.25616e-10      21145.5
       935.90000  5.25616e-10      21145.5
       936.00000  5.25616e-10      21140.3
       936.10000  5.25616e-10      21156.0
       936.20000  5.25616e-10      21171.8
       936.30000  5.16972e-10      20839.1
       936.40000  5.16972e-10      20854.7
       936.50000  4.47052e-10      18043.0
       936.60000  4.47052e-10      18052.0
       936.70000  4.47052e-10      18060.9
       936.80000  4.47052e-10      18069.8
       936.90000  4.47052e-10      18074.3
       937.00000  4.47052e-10      18083.3
       937.10000  4.47052e-10      18087.7
       937.20000  4.47052e-10      18092.2
       937.30000  4.47052e-10      18092.2
       937.40000  4.47052e-10      18096.7
       937.50000  3.87362e-10      15680.4
       937.60000  3.87362e-10      15680.4
       937.70000  3.87362e-10      15680.4
       937.80000  3.87362e-10      15680.4
       937.90000  3.87362e-10      15676.5
       938.00000  3.87362e-10      15676.5
       938.10000  3.87362e-10      15672.7
       938.20000  3.87362e-10      15664.9
       938.30000  3.87362e-10      15661.0
       938.40000  3.87362e-10      15653.3
       938.50000  5.20824e-10      21041.3
       938.60000  5.20824e-10      21030.9
       938.70000  5.20824e-10      21015.2
       938.80000  5.12705e-10      20677.4
       938.90000  5.12705e-10      20662.0
       939.00000  5.12705e-10      20651.7
       939.10000  5.12705e-10      20636.4
       939.20000  5.12705e-10      20615.8
       939.30000  5.12705e-10      20600.5
       939.40000  5.12705e-10      20580.0
       939.50000  3.76086e-10      15081.1
       939.60000  3.76086e-10      15066.0
       939.70000  3.76086e-10      15051.0
       939.80000  3.76086e-10      15035.9
       939.90000  3.76086e-10      15017.1
       940.00000  3.76086e-10      14998.3
       940.10000  3.76086e-10      14972.0
       940.20000  3.76086e-10      14945.7
       940.30000  3.76086e-10      14923.1
       940.40000  3.76086e-10      14900.5
       940.50000  3.14465e-10      12440.2
       940.60000  3.14465e-10      12424.5
       940.70000  3.14465e-10      12408.8
       940.80000  3.14465e-10      12393.0
       940.90000  3.14465e-10      12377.3
       941.00000  3.14465e-10      12364.7
       941.10000  3.14465e-10      12352.2
       941.20000  3.14465e-10      12342.7
       941.30000  3.09778e-10      12149.5
       941.40000  3.09778e-10      12140.2
       941.50000  3.59156e-10      14064.5
       941.60000  3.59156e-10      14057.4
       941.70000  3.59156e-10      14050.2
       941.80000  3.59156e-10      14043.0
       941.90000  3.59156e-10      14035.8
       942.00000  3.59156e-10      14032.2
       942.10000  3.59156e-10      14043.0
       942.20000  3.59156e-10      14050.2
       942.30000  3.59156e-10      14061.0
       942.40000  3.59156e-10      14068.1
       942.50000  4.54382e-10      17807.2
       942.60000  4.54382e-10      17820.9
       942.70000  4.54382e-10      17829.9
       942.80000  4.54382e-10      17839.0
       942.90000  4.54382e-10      17848.1
       943.00000  4.54382e-10      17857.2
       943.10000  4.54382e-10      17870.8
       943.20000  4.54382e-10      17879.9
       943.30000  4.54382e-10      17889.0
       943.40000  4.54382e-10      17898.1
       943.50000  3.17033e-10      12494.3
       943.60000  3.17033e-10      12500.6
       943.70000  3.17033e-10      12506.9
       943.80000  3.12197e-10      12322.4
       943.90000  3.12197e-10      12328.7
       944.00000  3.12197e-10      12334.9
       944.10000  3.12197e-10      12341.2
       944.20000  3.12197e-10      12347.4
       944.30000  3.12197e-10      12350.5
       944.40000  3.12197e-10      12356.8
       944.50000  3.41378e-10      13518.6
       944.60000  3.41378e-10      13525.4
       944.70000  3.41378e-10      13528.8
       944.80000  3.41378e-10      13535.6
       944.90000  3.41378e-10      13542.5
       945.00000  3.41378e-10      13545.9
       945.10000  3.41378e-10      13552.7
       945.20000  3.41378e-10      13559.5
       945.30000  3.41378e-10      13562.9
       945.40000  3.41378e-10      13569.8
       945.50000  2.62913e-10      10453.4
       945.60000  2.62913e-10      10458.7
       945.70000  2.62913e-10      10461.3
       945.80000  2.62913e-10      10466.6
       945.90000  2.62913e-10      10469.2
       946.00000  2.62913e-10      10471.8
       946.10000  2.62913e-10      10477.1
       946.20000  2.62913e-10      10482.4
       946.30000  2.58968e-10      10330.2
       946.40000  2.58968e-10      10335.4
       946.50000  2.08308e-10      8317.73
       946.60000  2.08308e-10      8319.81
       946.70000  2.08308e-10      8323.98
       946.80000  2.08308e-10      8326.06
       946.90000  2.08308e-10      8328.15
       947.00000  2.08308e-10      8332.31
       947.10000  2.08308e-10      8334.40
       947.20000  2.08308e-10      8336.48
       947.30000  2.08308e-10      8338.56
       947.40000  2.08308e-10      8340.65
       947.50000  4.83599e-10      19363.3
       947.60000  4.83599e-10      19368.1
       947.70000  4.83599e-10      19373.0
       947.80000  4.83599e-10      19373.0
       947.90000  4.83599e-10      19377.8
       948.00000  4.83599e-10      19377.8
       948.10000  4.83599e-10      19377.8
       948.20000  4.83599e-10      19377.8
       948.30000  4.83599e-10      19373.0
       948.40000  4.83599e-10      19373.0
       948.50000  3.12057e-10      12497.9
       948.60000  3.12057e-10      12497.9
       948.70000  3.12057e-10      12497.9
       948.80000  3.07046e-10      12294.1
       948.90000  3.07046e-10      12294.1
       949.00000  3.07046e-10      12291.1
       949.10000  3.07046e-10      12291.1
       949.20000  3.07046e-10      12288.0
       949.30000  3.07046e-10      12288.0
       949.40000  3.07046e-10      12284.9
       949.50000  3.29528e-10      13184.4
       949.60000  3.29528e-10      13181.1
       949.70000  3.29528e-10      13177.8
       949.80000  3.29528e-10      13177.8
       949.90000  3.29528e-10      13174.5
       950.00000  3.29528e-10      13171.3
       950.10000  3.29528e-10      13171.3
       950.20000  3.29528e-10      13168.0
       950.30000  3.29528e-10      13164.7
       950.40000  3.29528e-10      13164.7
       950.50000  2.72571e-10      10886.5
       950.60000  2.72571e-10      10883.8
       950.70000  2.72571e-10      10881.0
       950.80000  2.72571e-10      10881.0
       950.90000  2.72571e-10      10878.3
       951.00000  2.72571e-10      10875.6
       951.10000  2.72571e-10      10872.9
       951.20000  2.72571e-10      10870.1
       951.30000  2.68210e-10      10696.2
       951.40000  2.68210e-10      10693.5
       951.50000  1.55965e-10      6216.75
       951.60000  1.55965e-10      6215.19
       951.70000  1.55965e-10      6213.63
       951.80000  1.55965e-10      6212.07
       951.90000  1.55965e-10      6210.51
       952.00000  1.55965e-10      6208.95
       952.10000  1.55965e-10      6196.47
       952.20000  1.55965e-10      6184.00
       952.30000  1.55965e-10      6173.08
       952.40000  1.55965e-10      6162.16
       952.50000  3.42597e-10      13512.0
       952.60000  3.42597e-10      13488.0
       952.70000  3.42597e-10      13467.5
       952.80000  3.42597e-10      13446.9
       952.90000  3.42597e-10      13426.4
       953.00000  3.42597e-10      13409.2
       953.10000  3.42597e-10      13392.1
       953.20000  3.42597e-10      13375.0
       953.30000  3.42597e-10      13361.3
       953.40000  3.42597e-10      13344.1
       953.50000  2.79680e-10      10882.4
       953.60000  2.79680e-10      10874.0
       953.70000  2.79680e-10      10862.8
       953.80000  2.75036e-10      10674.2
       953.90000  2.75036e-10      10665.9
       954.00000  2.75036e-10      10660.4
       954.10000  2.75036e-10      10657.7
       954.20000  2.75036e-10      10654.9
       954.30000  2.75036e-10      10654.9
       954.40000  2.75036e-10      10654.9
       954.50000  2.03157e-10      7868.29
       954.60000  2.03157e-10      7868.29
       954.70000  2.03157e-10      7868.29
       954.80000  2.03157e-10      7868.29
       954.90000  2.03157e-10      7870.32
       955.00000  2.03157e-10      7870.32
       955.10000  2.03157e-10      7872.35
       955.20000  2.03157e-10      7872.35
       955.30000  2.03157e-10      7874.38
       955.40000  2.03157e-10      7876.41
       955.50000  1.57283e-10      6099.44
       955.60000  1.57283e-10      6101.01
       955.70000  1.57283e-10      6102.58
       955.80000  1.57283e-10      6105.73
       955.90000  1.57283e-10      6107.30
       956.00000  1.57283e-10      6110.45
       956.10000  1.57283e-10      6113.59
       956.20000  1.57283e-10      6115.17
       956.30000  1.54716e-10      6018.43
       956.40000  1.54716e-10      6023.08
       956.50000  1.92717e-10      7506.31
       956.60000  1.92717e-10      7510.16
       956.70000  1.92717e-10      7515.94
       956.80000  1.92717e-10      7519.80
       956.90000  1.92717e-10      7525.58
       957.00000  1.92717e-10      7531.36
       957.10000  1.92717e-10      7537.14
       957.20000  1.92717e-10      7542.92
       957.30000  1.92717e-10      7550.63
       957.40000  1.92717e-10      7556.41
       957.50000  1.90574e-10      7478.13
       957.60000  1.90574e-10      7485.76
       957.70000  1.90574e-10      7493.38
       957.80000  1.90574e-10      7501.00
       957.90000  1.90574e-10      7508.63
       958.00000  1.90574e-10      7516.25
       958.10000  1.90574e-10      7516.25
       958.20000  1.90574e-10      7514.34
       958.30000  1.90574e-10      7514.34
       958.40000  1.90574e-10      7514.34
       958.50000  1.72651e-10      6807.63
       958.60000  1.72651e-10      6805.90
       958.70000  1.72651e-10      6805.90
       958.80000  1.69608e-10      6685.93
       958.90000  1.69608e-10      6684.23
       959.00000  1.69608e-10      6684.23
       959.10000  1.69608e-10      6682.54
       959.20000  1.69608e-10      6682.54
       959.30000  1.69608e-10      6680.84
       959.40000  1.69608e-10      6679.15
       959.50000  1.47145e-10      5794.58
       959.60000  1.47145e-10      5793.10
       959.70000  1.47145e-10      5793.10
       959.80000  1.47145e-10      5791.63
       959.90000  1.47145e-10      5790.16
       960.00000  1.47145e-10      5788.69
       960.10000  1.47145e-10      5787.22
       960.20000  1.47145e-10      5785.75
       960.30000  1.47145e-10      5784.28
       960.40000  1.47145e-10      5782.80
       960.50000  2.27150e-10      8924.73
       960.60000  2.27150e-10      8922.46
       960.70000  2.27150e-10      8920.19
       960.80000  2.27150e-10      8917.92
       960.90000  2.27150e-10      8915.65
       961.00000  2.27150e-10      8913.38
       961.10000  2.27150e-10      8911.10
       961.20000  2.27150e-10      8908.83
       961.30000  2.23204e-10      8751.81
       961.40000  2.23204e-10      8749.58
       961.50000  2.19712e-10      8610.50
       961.60000  2.19712e-10      8606.11
       961.70000  2.19712e-10      8603.91
       961.80000  2.19712e-10      8601.71
       961.90000  2.19712e-10      8599.51
       962.00000  2.19712e-10      8597.32
       962.10000  2.19712e-10      8592.92
       962.20000  2.19712e-10      8590.73
       962.30000  2.19712e-10      8588.53
       962.40000  2.19712e-10      8584.14
       962.50000  1.82847e-10      7141.99
       962.60000  1.82847e-10      7140.17
       962.70000  1.82847e-10      7136.51
       962.80000  1.82847e-10      7134.68
       962.90000  1.82847e-10      7131.02
       963.00000  1.82847e-10      7129.19
       963.10000  1.82847e-10      7127.37
       963.20000  1.82847e-10      7123.71
       963.30000  1.82847e-10      7121.88
       963.40000  1.82847e-10      7118.22
       963.50000  1.95313e-10      7601.57
       963.60000  1.95313e-10      7597.66
       963.70000  1.95313e-10      7595.71
       963.80000  1.91766e-10      7453.93
       963.90000  1.91766e-10      7450.10
       964.00000  1.91766e-10      7448.18
       964.10000  1.91766e-10      7444.35
       964.20000  1.91766e-10      7438.59
       964.30000  1.91766e-10      7434.76
       964.40000  1.91766e-10      7432.84
       964.50000  2.17321e-10      8419.02
       964.60000  2.17321e-10      8414.67
       964.70000  2.17321e-10      8412.50
       964.80000  2.17321e-10      8408.15
       964.90000  2.17321e-10      8405.98
       965.00000  2.17321e-10      8401.63
       965.10000  2.17321e-10      8399.46
       965.20000  2.17321e-10      8397.29
       965.30000  2.17321e-10      8395.11
       965.40000  2.17321e-10      8395.11
       965.50000  1.71358e-10      6617.85
       965.60000  1.71358e-10      6616.13
       965.70000  1.71358e-10      6616.13
       965.80000  1.71358e-10      6614.42
       965.90000  1.71358e-10      6614.42
       966.00000  1.71358e-10      6614.42
       966.10000  1.71358e-10      6616.13
       966.20000  1.71358e-10      6617.85
       966.30000  1.68189e-10      6498.83
       966.40000  1.68189e-10      6500.51
       966.50000  1.81978e-10      7035.25
       966.60000  1.81978e-10      7037.07
       966.70000  1.81978e-10      7038.89
       966.80000  1.81978e-10      7040.71
       966.90000  1.81978e-10      7042.53
       967.00000  1.81978e-10      7044.35
       967.10000  1.81978e-10      7046.17
       967.20000  1.81978e-10      7047.99
       967.30000  1.81978e-10      7049.81
       967.40000  1.81978e-10      7051.63
       967.50000  1.50588e-10      5835.28
       967.60000  1.50588e-10      5836.79
       967.70000  1.50588e-10      5838.29
       967.80000  1.50588e-10      5838.29
       967.90000  1.50588e-10      5839.80
       968.00000  1.50588e-10      5841.31
       968.10000  1.50588e-10      5841.31
       968.20000  1.50588e-10      5842.81
       968.30000  1.50588e-10      5842.81
       968.40000  1.50588e-10      5842.81
       968.50000  1.24579e-10      4834.93
       968.60000  1.24579e-10      4834.93
       968.70000  1.24579e-10      4834.93
       968.80000  1.22271e-10      4746.56
       968.90000  1.22271e-10      4746.56
       969.00000  1.22271e-10      4746.56
       969.10000  1.22271e-10      4746.56
       969.20000  1.22271e-10      4746.56
       969.30000  1.22271e-10      4746.56
       969.40000  1.22271e-10      4746.56
       969.50000  1.46363e-10      5681.81
       969.60000  1.46363e-10      5681.81
       969.70000  1.46363e-10      5681.81
       969.80000  1.46363e-10      5681.81
       969.90000  1.46363e-10      5681.81
       970.00000  1.46363e-10      5681.81
       970.10000  1.46363e-10      5683.27
       970.20000  1.46363e-10      5684.74
       970.30000  1.46363e-10      5684.74
       970.40000  1.46363e-10      5686.20
       970.50000  1.52913e-10      5940.67
       970.60000  1.52913e-10      5942.20
       970.70000  1.52913e-10      5942.20
       970.80000  1.52913e-10      5942.20
       970.90000  1.52913e-10      5942.20
       971.00000  1.52913e-10      5942.20
       971.10000  1.52913e-10      5942.20
       971.20000  1.52913e-10      5940.67
       971.30000  1.50086e-10      5830.84
       971.40000  1.50086e-10      5829.34
       971.50000  1.65951e-10      6445.53
       971.60000  1.65951e-10      6443.87
       971.70000  1.65951e-10      6442.21
       971.80000  1.65951e-10      6440.55
       971.90000  1.65951e-10      6438.89
       972.00000  1.65951e-10      6435.57
       972.10000  1.65951e-10      6428.94
       972.20000  1.65951e-10      6422.30
       972.30000  1.65951e-10      6417.32
       972.40000  1.65951e-10      6410.68
       972.50000  1.25360e-10      4838.90
       972.60000  1.25360e-10      4833.88
       972.70000  1.25360e-10      4830.12
       972.80000  1.25360e-10      4826.36
       972.90000  1.25360e-10      4822.60
       973.00000  1.25360e-10      4820.09
       973.10000  1.25360e-10      4816.33
       973.20000  1.25360e-10      4813.82
       973.30000  1.25360e-10      4811.32
       973.40000  1.25360e-10      4808.81
       973.50000  1.27511e-10      4888.77
       973.60000  1.27511e-10      4886.22
       973.70000  1.27511e-10      4884.95
       973.80000  1.25027e-10      4787.29
       973.90000  1.25027e-10      4786.04
       974.00000  1.25027e-10      4784.79
       974.10000  1.25027e-10      4786.04
       974.20000  1.25027e-10      4788.54
       974.30000  1.25027e-10      4789.79
       974.40000  1.25027e-10      4791.04
       974.50000  1.42283e-10      5453.71
       974.60000  1.42283e-10      5455.13
       974.70000  1.42283e-10      5456.56
       974.80000  1.42283e-10      5457.98
       974.90000  1.42283e-10      5457.98
       975.00000  1.42283e-10      5459.40
       975.10000  1.42283e-10      5460.83
       975.20000  1.42283e-10      5460.83
       975.30000  1.42283e-10      5462.25
       975.40000  1.42283e-10      5462.25
       975.50000  1.32993e-10      5105.58
       975.60000  1.32993e-10      5106.91
       975.70000  1.32993e-10      5106.91
       975.80000  1.32993e-10      5106.91
       975.90000  1.32993e-10      5106.91
       976.00000  1.32993e-10      5106.91
       976.10000  1.32993e-10      5105.58
       976.20000  1.32993e-10      5104.25
       976.30000  1.30449e-10      5005.34
       976.40000  1.30449e-10      5004.04
       976.50000  1.06482e-10      4084.66
       976.60000  1.06482e-10      4083.59
       976.70000  1.06482e-10      4082.53
       976.80000  1.06482e-10      4081.46
       976.90000  1.06482e-10      4081.46
       977.00000  1.06482e-10      4080.40
       977.10000  1.06482e-10      4079.33
       977.20000  1.06482e-10      4078.27
       977.30000  1.06482e-10      4078.27
       977.40000  1.06482e-10      4077.20
       977.50000  1.55412e-10      5949.16
       977.60000  1.55412e-10      5949.16
       977.70000  1.55412e-10      5947.60
       977.80000  1.55412e-10      5946.05
       977.90000  1.55412e-10      5946.05
       978.00000  1.55412e-10      5944.50
       978.10000  1.55412e-10      5944.50
       978.20000  1.55412e-10      5942.94
       978.30000  1.55412e-10      5942.94
       978.40000  1.55412e-10      5941.39
       978.50000  1.08298e-10      4139.16
       978.60000  1.08298e-10      4139.16
       978.70000  1.08298e-10      4139.16
       978.80000  1.06190e-10      4057.53
       978.90000  1.06190e-10      4057.53
       979.00000  1.06190e-10      4056.47
       979.10000  1.06190e-10      4056.47
       979.20000  1.06190e-10      4055.41
       979.30000  1.06190e-10      4055.41
       979.40000  1.06190e-10      4055.41
       979.50000  7.26110e-11      2772.29
       979.60000  7.26110e-11      2772.29
       979.70000  7.26110e-11      2772.29
       979.80000  7.26110e-11      2771.56
       979.90000  7.26110e-11      2771.56
       980.00000  7.26110e-11      2771.56
       980.10000  7.26110e-11      2773.01
       980.20000  7.26110e-11      2773.74
       980.30000  7.26110e-11      2775.19
       980.40000  7.26110e-11      2775.92
       980.50000  9.38443e-11      3589.54
       980.60000  9.38443e-11      3590.48
       980.70000  9.38443e-11      3591.42
       980.80000  9.38443e-11      3592.36
       980.90000  9.38443e-11      3593.30
       981.00000  9.38443e-11      3594.24
       981.10000  9.38443e-11      3595.17
       981.20000  9.38443e-11      3596.11
       981.30000  9.19453e-11      3523.34
       981.40000  9.19453e-11      3524.26
       981.50000  9.63596e-11      3693.46
       981.60000  9.63596e-11      3693.46
       981.70000  9.63596e-11      3694.43
       981.80000  9.63596e-11      3694.43
       981.90000  9.63596e-11      3694.43
       982.00000  9.63596e-11      3693.46
       982.10000  9.63596e-11      3692.50
       982.20000  9.63596e-11      3690.57
       982.30000  9.63596e-11      3689.61
       982.40000  9.63596e-11      3687.68
       982.50000  8.68959e-11      3324.64
       982.60000  8.68959e-11      3322.90
       982.70000  8.68959e-11      3322.03
       982.80000  8.68959e-11      3321.16
       982.90000  8.68959e-11      3319.43
       983.00000  8.68959e-11      3318.56
       983.10000  8.68959e-11      3317.69
       983.20000  8.68959e-11      3316.82
       983.30000  8.68959e-11      3315.95
       983.40000  8.68959e-11      3314.21
       983.50000  8.82087e-11      3363.40
       983.60000  8.82087e-11      3362.52
       983.70000  8.82087e-11      3361.64
       983.80000  8.64690e-11      3294.47
       983.90000  8.64690e-11      3293.60
       984.00000  8.64690e-11      3292.74
       984.10000  8.64690e-11      3292.74
       984.20000  8.64690e-11      3291.87
       984.30000  8.64690e-11      3291.01
       984.40000  8.64690e-11      3290.14
       984.50000  1.05658e-10      4020.30
       984.60000  1.05658e-10      4019.24
       984.70000  1.05658e-10      4018.19
       984.80000  1.05658e-10      4018.19
       984.90000  1.05658e-10      4017.13
       985.00000  1.05658e-10      4016.07
       985.10000  1.05658e-10      4016.07
       985.20000  1.05658e-10      4015.02
       985.30000  1.05658e-10      4015.02
       985.40000  1.05658e-10      4015.02
       985.50000  9.17077e-11      3483.97
       985.60000  9.17077e-11      3483.97
       985.70000  9.17077e-11      3483.97
       985.80000  9.17077e-11      3483.06
       985.90000  9.17077e-11      3483.06
       986.00000  9.17077e-11      3483.06
       986.10000  9.17077e-11      3482.14
       986.20000  9.17077e-11      3482.14
       986.30000  8.99002e-11      3413.51
       986.40000  8.99002e-11      3412.61
       986.50000  6.77590e-11      2571.45
       986.60000  6.77590e-11      2571.45
       986.70000  6.77590e-11      2570.78
       986.80000  6.77590e-11      2570.78
       986.90000  6.77590e-11      2570.10
       987.00000  6.77590e-11      2569.42
       987.10000  6.77590e-11      2568.74
       987.20000  6.77590e-11      2568.74
       987.30000  6.77590e-11      2568.07
       987.40000  6.77590e-11      2567.39
       987.50000  6.42609e-11      2434.20
       987.60000  6.42609e-11      2433.56
       987.70000  6.42609e-11      2432.92
       987.80000  6.42609e-11      2432.28
       987.90000  6.42609e-11      2431.63
       988.00000  6.42609e-11      2430.99
       988.10000  6.42609e-11      2429.06
       988.20000  6.42609e-11      2427.78
       988.30000  6.42609e-11      2425.85
       988.40000  6.42609e-11      2424.56
       988.50000  9.91536e-11      3739.08
       988.60000  9.91536e-11      3737.10
       988.70000  9.91536e-11      3735.12
       988.80000  9.72217e-11      3660.40
       988.90000  9.72217e-11      3658.45
       989.00000  9.72217e-11      3657.48
       989.10000  9.72217e-11      3656.51
       989.20000  9.72217e-11      3654.56
       989.30000  9.72217e-11      3653.59
       989.40000  9.72217e-11      3652.62
       989.50000  8.88472e-11      3337.10
       989.60000  8.88472e-11      3336.21
       989.70000  8.88472e-11      3336.21
       989.80000  8.88472e-11      3335.32
       989.90000  8.88472e-11      3335.32
       990.00000  8.88472e-11      3335.32
       990.10000  8.88472e-11      3334.44
       990.20000  8.88472e-11      3334.44
       990.30000  8.88472e-11      3335.32
       990.40000  8.88472e-11      3335.32
       990.50000  6.20254e-11      2328.43
       990.60000  6.20254e-11      2329.05
       990.70000  6.20254e-11      2329.05
       990.80000  6.20254e-11      2329.67
       990.90000  6.20254e-11      2330.29
       991.00000  6.20254e-11      2330.92
       991.10000  6.20254e-11      2331.54
       991.20000  6.20254e-11      2332.16
       991.30000  6.08760e-11      2289.55
       991.40000  6.08760e-11      2290.76
       991.50000  7.26686e-11      2735.25
       991.60000  7.26686e-11      2736.70
       991.70000  7.26686e-11      2738.15
       991.80000  7.26686e-11      2739.61
       991.90000  7.26686e-11      2741.06
       992.00000  7.26686e-11      2742.51
       992.10000  7.26686e-11      2743.24
       992.20000  7.26686e-11      2743.24
       992.30000  7.26686e-11      2743.24
       992.40000  7.26686e-11      2743.24
       992.50000  3.09521e-11      1168.75
       992.60000  3.09521e-11      1168.75
       992.70000  3.09521e-11      1168.75
       992.80000  3.09521e-11      1168.75
       992.90000  3.09521e-11      1168.75
       993.00000  3.09521e-11      1169.06
       993.10000  3.09521e-11      1169.06
       993.20000  3.09521e-11      1169.06
       993.30000  3.09521e-11      1169.06
       993.40000  3.09521e-11      1169.06
       993.50000  5.53261e-11      2089.67
       993.60000  5.53261e-11      2089.67
       993.70000  5.53261e-11      2089.67
       993.80000  5.43713e-11      2053.61
       993.90000  5.43713e-11      2053.06
       994.00000  5.43713e-11      2053.06
       994.10000  5.43713e-11      2053.06
       994.20000  5.43713e-11      2052.52
       994.30000  5.43713e-11      2052.52
       994.40000  5.43713e-11      2051.97
       994.50000  6.49120e-11      2449.78
       994.60000  6.49120e-11      2449.13
       994.70000  6.49120e-11      2449.13
       994.80000  6.49120e-11      2448.48
       994.90000  6.49120e-11      2448.48
       995.00000  6.49120e-11      2447.83
       995.10000  6.49120e-11      2447.83
       995.20000  6.49120e-11      2447.83
       995.30000  6.49120e-11      2447.18
       995.40000  6.49120e-11      2447.18
       995.50000  5.21243e-11      1965.09
       995.60000  5.21243e-11      1964.57
       995.70000  5.21243e-11      1964.57
       995.80000  5.21243e-11      1964.57
       995.90000  5.21243e-11      1964.57
       996.00000  5.21243e-11      1964.04
       996.10000  5.21243e-11      1964.57
       996.20000  5.21243e-11      1964.57
       996.30000  5.12507e-11      1931.64
       996.40000  5.12507e-11      1931.64
       996.50000  5.80579e-11      2188.20
       996.60000  5.80579e-11      2188.20
       996.70000  5.80579e-11      2188.20
       996.80000  5.80579e-11      2188.20
       996.90000  5.80579e-11      2188.20
       997.00000  5.80579e-11      2188.20
       997.10000  5.80579e-11      2188.20
       997.20000  5.80579e-11      2188.20
       997.30000  5.80579e-11      2188.20
       997.40000  5.80579e-11      2188.20
       997.50000  4.93061e-11      1858.35
       997.60000  4.93061e-11      1858.35
       997.70000  4.93061e-11      1858.35
       997.80000  4.93061e-11      1858.35
       997.90000  4.93061e-11      1858.35
       998.00000  4.93061e-11      1857.85
       998.10000  4.93061e-11      1857.85
       998.20000  4.93061e-11      1857.36
       998.30000  4.93061e-11      1857.36
       998.40000  4.93061e-11      1856.87
       998.50000  3.72809e-11      1403.62
       998.60000  3.72809e-11      1403.62
       998.70000  3.72809e-11      1403.25
       998.80000  3.67126e-11      1381.86
       998.90000  3.67126e-11      1381.86
       999.00000  3.67126e-11      1381.50
       999.10000  3.67126e-11      1381.50
       999.20000  3.67126e-11      1381.13
       999.30000  3.67126e-11      1381.13
       999.40000  3.67126e-11      1381.13
       999.50000  4.27030e-11      1606.06
       999.60000  4.27030e-11      1606.06
       999.70000  4.27030e-11      1606.06
       999.80000  4.27030e-11      1606.06
       999.90000  4.27030e-11      1606.06
       1000.0000  4.27030e-11      1605.63
       1000.1000  4.27030e-11      1605.63
       1000.2000  4.27030e-11      1605.63
       1000.3000  4.27030e-11      1605.63
       1000.4000  4.27030e-11      1605.63
       1000.5000  3.50869e-11      1319.27
       1000.6000  3.50869e-11      1319.27
       1000.7000  3.50869e-11      1319.27
       1000.8000  3.50869e-11      1319.27
       1000.9000  3.50869e-11      1319.27
       1001.0000  3.50869e-11      1319.27
       1001.1000  3.50869e-11      1319.27
       1001.2000  3.50869e-11      1319.62
       1001.3000  3.45690e-11      1300.14
       1001.4000  3.45690e-11      1300.14
       1001.5000  4.16494e-11      1566.44
       1001.6000  4.16494e-11      1566.44
       1001.7000  4.16494e-11      1566.85
       1001.8000  4.16494e-11      1566.85
       1001.9000  4.16494e-11      1566.85
       1002.0000  4.16494e-11      1567.27
       1002.1000  4.16494e-11      1564.77
       1002.2000  4.16494e-11      1562.27
       1002.3000  4.16494e-11      1560.19
       1002.4000  4.16494e-11      1557.69
       1002.5000  4.59864e-11      1717.59
       1002.6000  4.59864e-11      1714.83
       1002.7000  4.59864e-11      1712.53
       1002.8000  4.59864e-11      1710.24
       1002.9000  4.59864e-11      1707.94
       1003.0000  4.59864e-11      1705.64
       1003.1000  4.59864e-11      1703.34
       1003.2000  4.59864e-11      1701.04
       1003.3000  4.59864e-11      1699.20
       1003.4000  4.59864e-11      1696.90
       1003.5000  4.84429e-11      1785.61
       1003.6000  4.84429e-11      1783.67
       1003.7000  4.84429e-11      1781.25
       1003.8000  4.77831e-11      1755.07
       1003.9000  4.77831e-11      1753.16
       1004.0000  4.77831e-11      1751.25
       1004.1000  4.77831e-11      1748.38
       1004.2000  4.77831e-11      1745.04
       1004.3000  4.77831e-11      1742.65
       1004.4000  4.77831e-11      1739.78
       1004.5000  3.40915e-11      1239.57
       1004.6000  3.40915e-11      1237.86
       1004.7000  3.40915e-11      1236.50
       1004.8000  3.40915e-11      1235.13
       1004.9000  3.40915e-11      1234.11
       1005.0000  3.40915e-11      1233.09
       1005.1000  3.40915e-11      1232.07
       1005.2000  3.40915e-11      1231.38
       1005.3000  3.40915e-11      1230.70
       1005.4000  3.40915e-11      1230.36
       1005.5000  3.78433e-11      1365.39
       1005.6000  3.78433e-11      1365.01
       1005.7000  3.78433e-11      1365.01
       1005.8000  3.78433e-11      1365.39
       1005.9000  3.78433e-11      1365.39
       1006.0000  3.78433e-11      1365.77
       1006.1000  3.78433e-11      1366.52
       1006.2000  3.78433e-11      1367.28
       1006.3000  3.73619e-11      1350.63
       1006.4000  3.73619e-11      1351.75
       1006.5000  2.84947e-11      1031.79
       1006.6000  2.84947e-11      1032.93
       1006.7000  2.84947e-11      1034.07
       1006.8000  2.84947e-11      1035.21
       1006.9000  2.84947e-11      1036.64
       1007.0000  2.84947e-11      1038.06
       1007.1000  2.84947e-11      1039.77
       1007.2000  2.84947e-11      1041.48
       1007.3000  2.84947e-11      1043.19
       1007.4000  2.84947e-11      1045.19
       1007.5000  2.91499e-11      1071.26
       1007.6000  2.91499e-11      1073.59
       1007.7000  2.91499e-11      1075.92
       1007.8000  2.91499e-11      1078.26
       1007.9000  2.91499e-11      1080.88
       1008.0000  2.91499e-11      1083.50
       1008.1000  2.91499e-11      1083.79
       1008.2000  2.91499e-11      1083.79
       1008.3000  2.91499e-11      1083.79
       1008.4000  2.91499e-11      1083.79
       1008.5000  3.00816e-11      1118.43
       1008.6000  3.00816e-11      1118.43
       1008.7000  3.00816e-11      1118.43
       1008.8000  2.97296e-11      1105.34
       1008.9000  2.97296e-11      1105.34
       1009.0000  2.97296e-11      1105.05
       1009.1000  2.97296e-11      1105.05
       1009.2000  2.97296e-11      1105.05
       1009.3000  2.97296e-11      1105.05
       1009.4000  2.97296e-11      1104.75
       1009.5000  3.71481e-11      1380.42
       1009.6000  3.71481e-11      1380.42
       1009.7000  3.71481e-11      1380.05
       1009.8000  3.71481e-11      1380.05
       1009.9000  3.71481e-11      1379.68
       1010.0000  3.71481e-11      1379.68
       1010.1000  3.71481e-11      1379.31
       1010.2000  3.71481e-11      1378.94
       1010.3000  3.71481e-11      1378.56
       1010.4000  3.71481e-11      1378.19
       1010.5000  3.84264e-11      1425.23
       1010.6000  3.84264e-11      1424.85
       1010.7000  3.84264e-11      1424.47
       1010.8000  3.84264e-11      1424.08
       1010.9000  3.84264e-11      1423.70
       1011.0000  3.84264e-11      1423.31
       1011.1000  3.84264e-11      1423.31
       1011.2000  3.84264e-11      1422.93
       1011.3000  3.80025e-11      1406.85
       1011.4000  3.80025e-11      1406.47
       1011.5000  3.38507e-11      1252.48
       1011.6000  3.38507e-11      1252.14
       1011.7000  3.38507e-11      1251.80
       1011.8000  3.38507e-11      1251.46
       1011.9000  3.38507e-11      1251.12
       1012.0000  3.38507e-11      1250.78
       1012.1000  3.38507e-11      1250.45
       1012.2000  3.38507e-11      1250.11
       1012.3000  3.38507e-11      1249.77
       1012.4000  3.38507e-11      1249.43
       1012.5000  4.75276e-11      1753.77
       1012.6000  4.75276e-11      1753.29
       1012.7000  4.75276e-11      1752.82
       1012.8000  4.75276e-11      1752.34
       1012.9000  4.75276e-11      1752.34
       1013.0000  4.75276e-11      1751.87
       1013.1000  4.75276e-11      1751.39
       1013.2000  4.75276e-11      1750.92
       1013.3000  4.75276e-11      1750.44
       1013.4000  4.75276e-11      1749.97
       1013.5000  2.59781e-11      956.254
       1013.6000  2.59781e-11      955.994
       1013.7000  2.59781e-11      955.735
       1013.8000  2.57110e-11      945.649
       1013.9000  2.57110e-11      945.392
       1014.0000  2.57110e-11      945.135
       1014.1000  2.57110e-11      944.621
       1014.2000  2.57110e-11      944.107
       1014.3000  2.57110e-11      943.593
       1014.4000  2.57110e-11      943.078
       1014.5000  2.02915e-11      744.088
       1014.6000  2.02915e-11      743.683
       1014.7000  2.02915e-11      743.277
       1014.8000  2.02915e-11      743.074
       1014.9000  2.02915e-11      742.668
       1015.0000  2.02915e-11      742.465
       1015.1000  2.02915e-11      742.059
       1015.2000  2.02915e-11      741.856
       1015.3000  2.02915e-11      741.653
       1015.4000  2.02915e-11      741.248
       1015.5000  2.45638e-11      897.069
       1015.6000  2.45638e-11      896.823
       1015.7000  2.45638e-11      896.577
       1015.8000  2.45638e-11      896.332
       1015.9000  2.45638e-11      896.086
       1016.0000  2.45638e-11      895.840
       1016.1000  2.45638e-11      895.840
       1016.2000  2.45638e-11      895.840
       1016.3000  2.43303e-11      887.328
       1016.4000  2.43303e-11      887.084
       1016.5000  2.48858e-11      907.336
       1016.6000  2.48858e-11      907.336
       1016.7000  2.48858e-11      907.336
       1016.8000  2.48858e-11      907.087
       1016.9000  2.48858e-11      907.087
       1017.0000  2.48858e-11      906.839
       1017.1000  2.48858e-11      906.839
       1017.2000  2.48858e-11      906.590
       1017.3000  2.48858e-11      906.590
       1017.4000  2.48858e-11      906.341
       1017.5000  2.85948e-11      1041.42
       1017.6000  2.85948e-11      1041.14
       1017.7000  2.85948e-11      1040.85
       1017.8000  2.85948e-11      1040.56
       1017.9000  2.85948e-11      1040.28
       1018.0000  2.85948e-11      1040.28
       1018.1000  2.85948e-11      1039.71
       1018.2000  2.85948e-11      1039.13
       1018.3000  2.85948e-11      1038.56
       1018.4000  2.85948e-11      1037.99
       1018.5000  2.39432e-11      868.897
       1018.6000  2.39432e-11      868.418
       1018.7000  2.39432e-11      868.179
       1018.8000  2.37239e-11      859.754
       1018.9000  2.37239e-11      859.517
       1019.0000  2.37239e-11      859.043
       1019.1000  2.37239e-11      858.806
       1019.2000  2.37239e-11      858.568
       1019.3000  2.37239e-11      858.331
       1019.4000  2.37239e-11      857.857
       1019.5000  2.21742e-11      801.597
       1019.6000  2.21742e-11      801.375
       1019.7000  2.21742e-11      801.153
       1019.8000  2.21742e-11      801.153
       1019.9000  2.21742e-11      800.931
       1020.0000  2.21742e-11      800.710
       1020.1000  2.21742e-11      800.488
       1020.2000  2.21742e-11      800.266
       1020.3000  2.21742e-11      800.266
       1020.4000  2.21742e-11      800.044
       1020.5000  2.05182e-11      740.295
       1020.6000  2.05182e-11      740.090
       1020.7000  2.05182e-11      740.090
       1020.8000  2.05182e-11      739.885
       1020.9000  2.05182e-11      739.885
       1021.0000  2.05182e-11      739.885
       1021.1000  2.05182e-11      739.885
       1021.2000  2.05182e-11      739.885
       1021.3000  2.03657e-11      734.388
       1021.4000  2.03657e-11      734.388
       1021.5000  1.80310e-11      650.198
       1021.6000  1.80310e-11      650.198
       1021.7000  1.80310e-11      650.198
       1021.8000  1.80310e-11      650.378
       1021.9000  1.80310e-11      650.378
       1022.0000  1.80310e-11      650.558
       1022.1000  1.80310e-11      650.558
       1022.2000  1.80310e-11      650.739
       1022.3000  1.80310e-11      650.919
       1022.4000  1.80310e-11      650.919
       1022.5000  1.80513e-11      651.831
       1022.6000  1.80513e-11      652.012
       1022.7000  1.80513e-11      652.192
       1022.8000  1.80513e-11      652.373
       1022.9000  1.80513e-11      652.553
       1023.0000  1.80513e-11      652.734
       1023.1000  1.80513e-11      653.095
       1023.2000  1.80513e-11      653.275
       1023.3000  1.80513e-11      653.456
       1023.4000  1.80513e-11      653.817
       1023.5000  2.29270e-11      830.646
       1023.6000  2.29270e-11      831.104
       1023.7000  2.29270e-11      831.334
       1023.8000  2.27832e-11      826.573
       1023.9000  2.27832e-11      827.028
       1024.0000  2.27832e-11      827.484
       1024.1000  2.27832e-11      827.484
       1024.2000  2.27832e-11      827.256
       1024.3000  2.27832e-11      827.256
       1024.4000  2.27832e-11      827.256
       1024.5000  2.19924e-11      798.543
       1024.6000  2.19924e-11      798.323
       1024.7000  2.19924e-11      798.323
       1024.8000  2.19924e-11      798.323
       1024.9000  2.19924e-11      798.103
       1025.0000  2.19924e-11      798.103
       1025.1000  2.19924e-11      798.103
       1025.2000  2.19924e-11      797.883
       1025.3000  2.19924e-11      797.883
       1025.4000  2.19924e-11      797.883
       1025.5000  1.95518e-11      709.143
       1025.6000  1.95518e-11      709.143
       1025.7000  1.95518e-11      708.947
       1025.8000  1.95518e-11      708.947
       1025.9000  1.95518e-11      708.751
       1026.0000  1.95518e-11      708.751
       1026.1000  1.95518e-11      708.751
       1026.2000  1.95518e-11      708.556
       1026.3000  1.94298e-11      704.137
       1026.4000  1.94298e-11      703.943
       1026.5000  1.53884e-11      557.520
       1026.6000  1.53884e-11      557.366
       1026.7000  1.53884e-11      557.212
       1026.8000  1.53884e-11      557.212
       1026.9000  1.53884e-11      557.058
       1027.0000  1.53884e-11      557.058
       1027.1000  1.53884e-11      556.904
       1027.2000  1.53884e-11      556.751
       1027.3000  1.53884e-11      556.751
       1027.4000  1.53884e-11      556.597
       1027.5000  1.68229e-11      608.317
       1027.6000  1.68229e-11      608.317
       1027.7000  1.68229e-11      608.149
       1027.8000  1.68229e-11      607.980
       1027.9000  1.68229e-11      607.812
       1028.0000  1.68229e-11      607.644
       1028.1000  1.68229e-11      607.644
       1028.2000  1.68229e-11      607.476
       1028.3000  1.68229e-11      607.308
       1028.4000  1.68229e-11      607.139
       1028.5000  1.75942e-11      634.798
       1028.6000  1.75942e-11      634.622
       1028.7000  1.75942e-11      634.446
       1028.8000  1.74433e-11      628.831
       1028.9000  1.74433e-11      628.656
       1029.0000  1.74433e-11      628.482
       1029.1000  1.74433e-11      628.307
       1029.2000  1.74433e-11      628.133
       1029.3000  1.74433e-11      627.958
       1029.4000  1.74433e-11      627.784
       1029.5000  1.70304e-11      612.752
       1029.6000  1.70304e-11      612.582
       1029.7000  1.70304e-11      612.412
       1029.8000  1.70304e-11      612.242
       1029.9000  1.70304e-11      612.071
       1030.0000  1.70304e-11      611.731
       1030.1000  1.70304e-11      611.901
       1030.2000  1.70304e-11      611.901
       1030.3000  1.70304e-11      611.901
       1030.4000  1.70304e-11      611.901
       1030.5000  1.79901e-11      646.385
       1030.6000  1.79901e-11      646.385
       1030.7000  1.79901e-11      646.205
       1030.8000  1.79901e-11      646.205
       1030.9000  1.79901e-11      646.205
       1031.0000  1.79901e-11      646.025
       1031.1000  1.79901e-11      646.025
       1031.2000  1.79901e-11      645.845
       1031.3000  1.77453e-11      637.057
       1031.4000  1.77453e-11      636.880
       1031.5000  1.41589e-11      508.022
       1031.6000  1.41589e-11      507.880
       1031.7000  1.41589e-11      507.739
       1031.8000  1.41589e-11      507.597
       1031.9000  1.41589e-11      507.456
       1032.0000  1.41589e-11      507.314
       1032.1000  1.41589e-11      506.889
       1032.2000  1.41589e-11      506.323
       1032.3000  1.41589e-11      505.898
       1032.4000  1.41589e-11      505.615
       1032.5000  1.77880e-11      634.676
       1032.6000  1.77880e-11      634.143
       1032.7000  1.77880e-11      633.787
       1032.8000  1.77880e-11      633.253
       1032.9000  1.77880e-11      632.898
       1033.0000  1.77880e-11      632.542
       1033.1000  1.77880e-11      632.186
       1033.2000  1.77880e-11      632.008
       1033.3000  1.77880e-11      631.652
       1033.4000  1.77880e-11      631.475
       1033.5000  1.69531e-11      601.496
       1033.6000  1.69531e-11      601.327
       1033.7000  1.69531e-11      601.157
       1033.8000  1.66304e-11      589.548
       1033.9000  1.66304e-11      589.548
       1034.0000  1.66304e-11      589.381
       1034.1000  1.66304e-11      589.381
       1034.2000  1.66304e-11      589.215
       1034.3000  1.66304e-11      589.215
       1034.4000  1.66304e-11      589.215
       1034.5000  1.47675e-11      523.211
       1034.6000  1.47675e-11      523.359
       1034.7000  1.47675e-11      523.359
       1034.8000  1.47675e-11      523.506
       1034.9000  1.47675e-11      523.506
       1035.0000  1.47675e-11      523.654
       1035.1000  1.47675e-11      523.802
       1035.2000  1.47675e-11      523.949
       1035.3000  1.47675e-11      524.245
       1035.4000  1.47675e-11      524.392
       1035.5000  1.20817e-11      429.262
       1035.6000  1.20817e-11      429.504
       1035.7000  1.20817e-11      429.625
       1035.8000  1.20817e-11      429.866
       1035.9000  1.20817e-11      430.229
       1036.0000  1.20817e-11      430.470
       1036.1000  1.20817e-11      430.229
       1036.2000  1.20817e-11      429.987
       1036.3000  1.17996e-11      419.711
       1036.4000  1.17996e-11      419.475
       1036.5000  1.05440e-11      374.629
       1036.6000  1.05440e-11      374.418
       1036.7000  1.05440e-11      374.313
       1036.8000  1.05440e-11      374.102
       1036.9000  1.05440e-11      373.891
       1037.0000  1.05440e-11      373.785
       1037.1000  1.05440e-11      373.680
       1037.2000  1.05440e-11      373.469
       1037.3000  1.05440e-11      373.364
       1037.4000  1.05440e-11      373.258
       1037.5000  1.19797e-11      423.961
       1037.6000  1.19797e-11      423.841
       1037.7000  1.19797e-11      423.721
       1037.8000  1.19797e-11      423.602
       1037.9000  1.19797e-11      423.482
       1038.0000  1.19797e-11      423.362
       1038.1000  1.19797e-11      423.362
       1038.2000  1.19797e-11      423.362
       1038.3000  1.19797e-11      423.482
       1038.4000  1.19797e-11      423.482
       1038.5000  1.46485e-11      517.825
       1038.6000  1.46485e-11      517.825
       1038.7000  1.46485e-11      517.825
       1038.8000  1.42674e-11      504.352
       1038.9000  1.42674e-11      504.352
       1039.0000  1.42674e-11      504.352
       1039.1000  1.42674e-11      504.352
       1039.2000  1.42674e-11      504.352
       1039.3000  1.42674e-11      504.352
       1039.4000  1.42674e-11      504.352
       1039.5000  1.13059e-11      399.663
       1039.6000  1.13059e-11      399.663
       1039.7000  1.13059e-11      399.663
       1039.8000  1.13059e-11      399.663
       1039.9000  1.13059e-11      399.663
       1040.0000  1.13059e-11      399.663
       1040.1000  1.13059e-11      399.663
       1040.2000  1.13059e-11      399.663
       1040.3000  1.13059e-11      399.663
       1040.4000  1.13059e-11      399.663
       1040.5000  1.01504e-11      358.816
       1040.6000  1.01504e-11      358.816
       1040.7000  1.01504e-11      358.816
       1040.8000  1.01504e-11      358.816
       1040.9000  1.01504e-11      358.816
       1041.0000  1.01504e-11      358.816
       1041.1000  1.01504e-11      358.816
       1041.2000  1.01504e-11      358.816
       1041.3000  9.85967e-12      348.539
       1041.4000  9.85967e-12      348.539
       1041.5000  8.64770e-12      305.696
       1041.6000  8.64770e-12      305.696
       1041.7000  8.64770e-12      305.696
       1041.8000  8.64770e-12      305.610
       1041.9000  8.64770e-12      305.610
       1042.0000  8.64770e-12      305.610
       1042.1000  8.64770e-12      305.696
       1042.2000  8.64770e-12      305.696
       1042.3000  8.64770e-12      305.783
       1042.4000  8.64770e-12      305.783
       1042.5000  5.62817e-12      199.012
       1042.6000  5.62817e-12      199.012
       1042.7000  5.62817e-12      199.012
       1042.8000  5.62817e-12      198.956
       1042.9000  5.62817e-12      198.956
       1043.0000  5.62817e-12      198.956
       1043.1000  5.62817e-12      198.900
       1043.2000  5.62817e-12      198.843
       1043.3000  5.62817e-12      198.843
       1043.4000  5.62817e-12      198.787
       1043.5000  1.08117e-11      381.761
       1043.6000  1.08117e-11      381.653
       1043.7000  1.08117e-11      381.545
       1043.8000  1.05024e-11      370.420
       1043.9000  1.05024e-11      370.315
       1044.0000  1.05024e-11      370.105
       1044.1000  1.05024e-11      369.685
       1044.2000  1.05024e-11      369.160
       1044.3000  1.05024e-11      368.740
       1044.4000  1.05024e-11      368.320
       1044.5000  7.97770e-12      279.459
       1044.6000  7.97770e-12      279.220
       1044.7000  7.97770e-12      278.900
       1044.8000  7.97770e-12      278.661
       1044.9000  7.97770e-12      278.422
       1045.0000  7.97770e-12      278.182
       1045.1000  7.97770e-12      278.023
       1045.2000  7.97770e-12      277.784
       1045.3000  7.97770e-12      277.624
       1045.4000  7.97770e-12      277.464
       1045.5000  6.22587e-12      216.473
       1045.6000  6.22587e-12      216.349
       1045.7000  6.22587e-12      216.287
       1045.8000  6.22587e-12      216.224
       1045.9000  6.22587e-12      216.162
       1046.0000  6.22587e-12      216.100
       1046.1000  6.22587e-12      216.100
       1046.2000  6.22587e-12      216.038
       1046.3000  6.04913e-12      209.905
       1046.4000  6.04913e-12      209.905
       1046.5000  5.37884e-12      186.700
       1046.6000  5.37884e-12      186.700
       1046.7000  5.37884e-12      186.753
       1046.8000  5.37884e-12      186.807
       1046.9000  5.37884e-12      186.861
       1047.0000  5.37884e-12      186.969
       1047.1000  5.37884e-12      187.022
       1047.2000  5.37884e-12      187.130
       1047.3000  5.37884e-12      187.237
       1047.4000  5.37884e-12      187.345
       1047.5000  5.19650e-12      181.150
       1047.6000  5.19650e-12      181.254
       1047.7000  5.19650e-12      181.410
       1047.8000  5.19650e-12      181.566
       1047.9000  5.19650e-12      181.722
       1048.0000  5.19650e-12      181.930
       1048.1000  5.19650e-12      181.930
       1048.2000  5.19650e-12      181.930
       1048.3000  5.19650e-12      181.930
       1048.4000  5.19650e-12      181.878
       1048.5000  6.43227e-12      225.130
       1048.6000  6.43227e-12      225.130
       1048.7000  6.43227e-12      225.130
       1048.8000  6.26405e-12      219.242
       1048.9000  6.26405e-12      219.242
       1049.0000  6.26405e-12      219.179
       1049.1000  6.26405e-12      219.179
       1049.2000  6.26405e-12      219.179
       1049.3000  6.26405e-12      219.116
       1049.4000  6.26405e-12      219.116
       1049.5000  5.82850e-12      203.881
       1049.6000  5.82850e-12      203.822
       1049.7000  5.82850e-12      203.822
       1049.8000  5.82850e-12      203.822
       1049.9000  5.82850e-12      203.764
       1050.0000  5.82850e-12      203.764
       1050.1000  5.82850e-12      203.706
       1050.2000  5.82850e-12      203.706
       1050.3000  5.82850e-12      203.648
       1050.4000  5.82850e-12      203.589
       1050.5000  3.38924e-12      118.386
       1050.6000  3.38924e-12      118.352
       1050.7000  3.38924e-12      118.352
       1050.8000  3.38924e-12      118.318
       1050.9000  3.38924e-12      118.284
       1051.0000  3.38924e-12      118.284
       1051.1000  3.38924e-12      118.251
       1051.2000  3.38924e-12      118.251
       1051.3000  3.31340e-12      115.571
       1051.4000  3.31340e-12      115.538
       1051.5000  3.03169e-12      105.715
       1051.6000  3.03169e-12      105.685
       1051.7000  3.03169e-12      105.654
       1051.8000  3.03169e-12      105.654
       1051.9000  3.03169e-12      105.624
       1052.0000  3.03169e-12      105.624
       1052.1000  3.03169e-12      105.594
       1052.2000  3.03169e-12      105.563
       1052.3000  3.03169e-12      105.563
       1052.4000  3.03169e-12      105.533
       1052.5000  2.82951e-12      98.4671
       1052.6000  2.82951e-12      98.4671
       1052.7000  2.82951e-12      98.4388
       1052.8000  2.82951e-12      98.4105
       1052.9000  2.82951e-12      98.4105
       1053.0000  2.82951e-12      98.3822
       1053.1000  2.82951e-12      98.3822
       1053.2000  2.82951e-12      98.3539
       1053.3000  2.82951e-12      98.3256
       1053.4000  2.82951e-12      98.3256
       1053.5000  2.56731e-12      89.1882
       1053.6000  2.56731e-12      89.1625
       1053.7000  2.56731e-12      89.1625
       1053.8000  2.51935e-12      87.4719
       1053.9000  2.51935e-12      87.4467
       1054.0000  2.51935e-12      87.4467
       1054.1000  2.51935e-12      87.4971
       1054.2000  2.51935e-12      87.5223
       1054.3000  2.51935e-12      87.5727
       1054.4000  2.51935e-12      87.6230
       1054.5000  1.50511e-12      52.3628
       1054.6000  1.50511e-12      52.3778
       1054.7000  1.50511e-12      52.3929
       1054.8000  1.50511e-12      52.4079
       1054.9000  1.50511e-12      52.4230
       1055.0000  1.50511e-12      52.4380
       1055.1000  1.50511e-12      52.4380
       1055.2000  1.50511e-12      52.4380
       1055.3000  1.50511e-12      52.4531
       1055.4000  1.50511e-12      52.4531
       1055.5000  1.63867e-12      57.0914
       1055.6000  1.63867e-12      57.0914
       1055.7000  1.63867e-12      57.0914
       1055.8000  1.63867e-12      57.0750
       1055.9000  1.63867e-12      57.0586
       1056.0000  1.63867e-12      57.0422
       1056.1000  1.63867e-12      56.9931
       1056.2000  1.63867e-12      56.9439
       1056.3000  1.60879e-12      55.8571
       1056.4000  1.60879e-12      55.7928
       1056.5000  7.07538e-13      24.5162
       1056.6000  7.07538e-13      24.5020
       1056.7000  7.07538e-13      24.4808
       1056.8000  7.07538e-13      24.4596
       1056.9000  7.07538e-13      24.4383
       1057.0000  7.07538e-13      24.4242
