PDS_VERSION_ID         = PDS3
RECORD_TYPE            = STREAM
OBJECT                 = TEXT
  PUBLICATION_DATE     = 2014-04-25
  INTERCHANGE_FORMAT   = ASCII
  NOTE                 = "System transmission vs. wavelength."
END_OBJECT             = TEXT
END
    
The systrans directory contains the non-wavelength-integrated system 
transmission values (QE*optics*filter1*filter2) for each filter combination. 
The naming convention for these files is as follows:

<camera><filter 1><filter 2>_systrans.tab

where <camera> is "issna" or "isswa," and <filter 1> and <filter 2> represent
the filter names. For polarized filter combinations, values are given for the
parallel orientation of the filter (full transmission), with values for the 
perpendicular (blocking) orientation provided in files with subscript 
"_b_systrans.tab". 

Columns in systrans files are as follows:

 1st column: Wavelength (nm)  
 2nd column: Transmitted Flux
 3rd column: Transmitted Flux * Solar Flux (phot per cm^2-s-angstrom at 1 AU)

The solar spectrum used for this calculation is provided in solarflux.tab.

\begindata
       600.00000  8.86294e-11      4720.40
       600.10000  8.86294e-11      4713.31
       600.20000  8.86294e-11      4705.34
       600.30000  8.86294e-11      4695.59
       600.40000  8.86294e-11      4684.07
       600.50000  1.78126e-10      9390.80
       600.60000  1.78126e-10      9403.27
       600.70000  1.78126e-10      9413.96
       600.80000  1.78126e-10      9424.65
       600.90000  1.78126e-10      9431.77
       601.00000  1.78126e-10      9437.12
       601.10000  1.78126e-10      9438.90
       601.20000  1.78126e-10      9440.68
       601.30000  1.78035e-10      9435.86
       601.40000  1.78035e-10      9432.30
       601.50000  2.10110e-10      11127.4
       601.60000  2.10110e-10      11079.1
       601.70000  2.10110e-10      11039.2
       601.80000  2.10110e-10      11003.5
       601.90000  2.10110e-10      10976.1
       602.00000  2.10110e-10      10955.1
       602.10000  2.10110e-10      10938.3
       602.20000  2.10110e-10      10929.9
       602.30000  2.10110e-10      10927.8
       602.40000  2.10110e-10      10932.0
       602.50000  2.25042e-10      11717.9
       602.60000  2.25042e-10      11735.9
       602.70000  2.25042e-10      11760.7
       602.80000  2.25042e-10      11792.2
       602.90000  2.25042e-10      11830.4
       603.00000  2.25042e-10      11875.4
       603.10000  2.25042e-10      11927.2
       603.20000  2.25042e-10      11985.7
       603.30000  2.25042e-10      12051.0
       603.40000  2.25042e-10      12123.0
       603.50000  2.81330e-10      15253.7
       603.60000  2.81330e-10      15248.1
       603.70000  2.81330e-10      15242.5
       603.80000  2.81474e-10      15244.7
       603.90000  2.81474e-10      15236.2
       604.00000  2.81474e-10      15230.6
       604.10000  2.81474e-10      15222.1
       604.20000  2.81474e-10      15216.5
       604.30000  2.81474e-10      15208.1
       604.40000  2.81474e-10      15202.4
       604.50000  2.89010e-10      15600.7
       604.60000  2.89010e-10      15589.2
       604.70000  2.89010e-10      15577.6
       604.80000  2.89010e-10      15566.1
       604.90000  2.89010e-10      15554.5
       605.00000  2.89010e-10      15545.8
       605.10000  2.89010e-10      15537.2
       605.20000  2.89010e-10      15531.4
       605.30000  2.89010e-10      15522.7
       605.40000  2.89010e-10      15516.9
       605.50000  1.32055e-10      7087.37
       605.60000  1.32055e-10      7086.05
       605.70000  1.32055e-10      7083.41
       605.80000  1.32055e-10      7082.09
       605.90000  1.32055e-10      7082.09
       606.00000  1.32055e-10      7080.77
       606.10000  1.32055e-10      7080.77
       606.20000  1.32055e-10      7080.77
       606.30000  1.32198e-10      7088.48
       606.40000  1.32198e-10      7089.80
       606.50000  7.73404e-11      4148.54
       606.60000  7.73404e-11      4150.08
       606.70000  7.73404e-11      4150.86
       606.80000  7.73404e-11      4152.40
       606.90000  7.73404e-11      4152.40
       607.00000  7.73404e-11      4153.18
       607.10000  7.73404e-11      4153.18
       607.20000  7.73404e-11      4153.18
       607.30000  7.73404e-11      4152.40
       607.40000  7.73404e-11      4151.63
       607.50000  2.72104e-11      1460.38
       607.60000  2.72104e-11      1458.75
       607.70000  2.72104e-11      1457.39
       607.80000  2.72104e-11      1456.30
       607.90000  2.72104e-11      1455.21
       608.00000  2.72104e-11      1454.12
       608.10000  2.72104e-11      1453.31
       608.20000  2.72104e-11      1452.49
       608.30000  2.72104e-11      1451.95
       608.40000  2.72104e-11      1451.40
       608.50000  1.53756e-10      8199.82
       608.60000  1.53756e-10      8198.28
       608.70000  1.53756e-10      8196.75
       608.80000  1.53824e-10      8200.35
       608.90000  1.53824e-10      8201.89
       609.00000  1.53824e-10      8203.43
       609.10000  1.53824e-10      8204.97
       609.20000  1.53824e-10      8208.04
       609.30000  1.53824e-10      8211.12
       609.40000  1.53824e-10      8215.73
       609.50000  3.32288e-10      17760.8
       609.60000  3.32288e-10      17681.1
       609.70000  3.32288e-10      17611.3
       609.80000  3.32288e-10      17551.5
       609.90000  3.32288e-10      17501.6
       610.00000  3.32288e-10      17458.4
       610.10000  3.32288e-10      17421.9
       610.20000  3.32288e-10      17395.3
       610.30000  3.32288e-10      17378.7
       610.40000  3.32288e-10      17372.0
       610.50000  6.61476e-11      3457.53
       610.60000  6.61476e-11      3474.73
       610.70000  6.61476e-11      3489.94
       610.80000  6.61476e-11      3503.84
       610.90000  6.61476e-11      3515.74
       611.00000  6.61476e-11      3525.66
       611.10000  6.61476e-11      3534.26
       611.20000  6.61476e-11      3540.88
       611.30000  6.61733e-11      3547.55
       611.40000  6.61733e-11      3550.86
       611.50000  4.10848e-11      2205.43
       611.60000  4.10848e-11      2205.43
       611.70000  4.10848e-11      2204.20
       611.80000  4.10848e-11      2202.15
       611.90000  4.10848e-11      2198.86
       612.00000  4.10848e-11      2194.75
       612.10000  4.10848e-11      2189.41
       612.20000  4.10848e-11      2182.84
       612.30000  4.10848e-11      2175.44
       612.40000  4.10848e-11      2166.81
       612.50000  2.70296e-10      14193.3
       612.60000  2.70296e-10      14158.1
       612.70000  2.70296e-10      14125.7
       612.80000  2.70296e-10      14098.7
       612.90000  2.70296e-10      14077.0
       613.00000  2.70296e-10      14058.1
       613.10000  2.70296e-10      14044.6
       613.20000  2.70296e-10      14033.8
       613.30000  2.70296e-10      14028.4
       613.40000  2.70296e-10      14028.4
       613.50000  3.10225e-10      16103.8
       613.60000  3.10225e-10      16150.3
       613.70000  3.10225e-10      16190.6
       613.80000  3.10160e-10      16224.5
       613.90000  3.10160e-10      16261.7
       614.00000  3.10160e-10      16295.8
       614.10000  3.10160e-10      16323.7
       614.20000  3.10160e-10      16351.6
       614.30000  3.10160e-10      16376.4
       614.40000  3.10160e-10      16398.1
       614.50000  2.16182e-10      11442.5
       614.60000  2.16182e-10      11453.3
       614.70000  2.16182e-10      11462.0
       614.80000  2.16182e-10      11468.4
       614.90000  2.16182e-10      11472.8
       615.00000  2.16182e-10      11474.9
       615.10000  2.16182e-10      11477.1
       615.20000  2.16182e-10      11474.9
       615.30000  2.16182e-10      11472.8
       615.40000  2.16182e-10      11468.4
       615.50000  3.21335e-10      17034.0
       615.60000  3.21335e-10      16844.4
       615.70000  3.21335e-10      16670.9
       615.80000  3.21335e-10      16519.8
       615.90000  3.21335e-10      16391.3
       616.00000  3.21335e-10      16278.8
       616.10000  3.21335e-10      16188.9
       616.20000  3.21335e-10      16118.2
       616.30000  3.21837e-10      16091.9
       616.40000  3.21837e-10      16062.9
       616.50000  3.72710e-11      1858.70
       616.60000  3.72710e-11      1874.73
       616.70000  3.72710e-11      1889.64
       616.80000  3.72710e-11      1903.43
       616.90000  3.72710e-11      1916.47
       617.00000  3.72710e-11      1928.77
       617.10000  3.72710e-11      1939.95
       617.20000  3.72710e-11      1950.02
       617.30000  3.72710e-11      1959.33
       617.40000  3.72710e-11      1967.91
       617.50000  8.49877e-11      4504.35
       617.60000  8.49877e-11      4518.80
       617.70000  8.49877e-11      4531.55
       617.80000  8.49877e-11      4542.59
       617.90000  8.49877e-11      4550.24
       618.00000  8.49877e-11      4557.04
       618.10000  8.49877e-11      4561.29
       618.20000  8.49877e-11      4562.99
       618.30000  8.49877e-11      4562.99
       618.40000  8.49877e-11      4560.44
       618.50000  1.33976e-10      7182.44
       618.60000  1.33976e-10      7169.05
       618.70000  1.33976e-10      7155.65
       618.80000  1.34112e-10      7153.51
       618.90000  1.34112e-10      7144.13
       619.00000  1.34112e-10      7137.42
       619.10000  1.34112e-10      7132.06
       619.20000  1.34112e-10      7129.38
       619.30000  1.34112e-10      7128.03
       619.40000  1.34112e-10      7128.03
       619.50000  1.41927e-10      7546.29
       619.60000  1.41927e-10      7573.25
       619.70000  1.41927e-10      7597.38
       619.80000  1.41927e-10      7618.67
       619.90000  1.41927e-10      7637.12
       620.00000  1.41927e-10      7651.31
       620.10000  1.41927e-10      7662.67
       620.20000  1.41927e-10      7671.18
       620.30000  1.41927e-10      7676.86
       620.40000  1.41927e-10      7678.28
       620.50000  2.32333e-10      12569.2
       620.60000  2.32333e-10      12518.1
       620.70000  2.32333e-10      12469.3
       620.80000  2.32333e-10      12427.5
       620.90000  2.32333e-10      12390.3
       621.00000  2.32333e-10      12357.8
       621.10000  2.32333e-10      12329.9
       621.20000  2.32333e-10      12309.0
       621.30000  2.32414e-10      12294.7
       621.40000  2.32414e-10      12280.7
       621.50000  2.60312e-10      13747.1
       621.60000  2.60312e-10      13793.9
       621.70000  2.60312e-10      13835.6
       621.80000  2.60312e-10      13869.4
       621.90000  2.60312e-10      13900.7
       622.00000  2.60312e-10      13924.1
       622.10000  2.60312e-10      13942.3
       622.20000  2.60312e-10      13952.7
       622.30000  2.60312e-10      13960.5
       622.40000  2.60312e-10      13960.5
       622.50000  7.89932e-11      4234.82
       622.60000  7.89932e-11      4231.66
       622.70000  7.89932e-11      4226.92
       622.80000  7.89932e-11      4220.60
       622.90000  7.89932e-11      4211.92
       623.00000  7.89932e-11      4202.44
       623.10000  7.89932e-11      4190.59
       623.20000  7.89932e-11      4176.37
       623.30000  7.89932e-11      4161.36
       623.40000  7.89932e-11      4143.98
       623.50000  4.67700e-11      2442.80
       623.60000  4.67700e-11      2442.33
       623.70000  4.67700e-11      2442.33
       623.80000  4.67477e-11      2440.23
       623.90000  4.67477e-11      2439.76
       624.00000  4.67477e-11      2438.83
       624.10000  4.67477e-11      2437.43
       624.20000  4.67477e-11      2436.02
       624.30000  4.67477e-11      2434.62
       624.40000  4.67477e-11      2432.75
       624.50000  8.94551e-11      4651.67
       624.60000  8.94551e-11      4633.78
       624.70000  8.94551e-11      4619.46
       624.80000  8.94551e-11      4606.94
       624.90000  8.94551e-11      4597.10
       625.00000  8.94551e-11      4589.94
       625.10000  8.94551e-11      4585.47
       625.20000  8.94551e-11      4582.79
       625.30000  8.94551e-11      4583.68
       625.40000  8.94551e-11      4586.36
       625.50000  1.56355e-10      8025.71
       625.60000  1.56355e-10      8038.22
       625.70000  1.56355e-10      8056.98
       625.80000  1.56355e-10      8078.87
       625.90000  1.56355e-10      8105.45
       626.00000  1.56355e-10      8136.73
       626.10000  1.56355e-10      8172.69
       626.20000  1.56355e-10      8211.78
       626.30000  1.56175e-10      8247.61
       626.40000  1.56175e-10      8296.03
       626.50000  4.69278e-11      2508.29
       626.60000  4.69278e-11      2508.76
       626.70000  4.69278e-11      2509.23
       626.80000  4.69278e-11      2509.70
       626.90000  4.69278e-11      2510.17
       627.00000  4.69278e-11      2510.64
       627.10000  4.69278e-11      2511.11
       627.20000  4.69278e-11      2511.11
       627.30000  4.69278e-11      2511.58
       627.40000  4.69278e-11      2512.05
       627.50000  1.21262e-10      6492.36
       627.60000  1.21262e-10      6497.21
       627.70000  1.21262e-10      6500.85
       627.80000  1.21262e-10      6503.27
       627.90000  1.21262e-10      6505.70
       628.00000  1.21262e-10      6506.91
       628.10000  1.21262e-10      6508.13
       628.20000  1.21262e-10      6508.13
       628.30000  1.21262e-10      6506.91
       628.40000  1.21262e-10      6505.70
       628.50000  1.31986e-10      7078.42
       628.60000  1.31986e-10      7074.46
       628.70000  1.31986e-10      7070.50
       628.80000  1.31690e-10      7049.39
       628.90000  1.31690e-10      7042.81
       629.00000  1.31690e-10      7036.22
       629.10000  1.31690e-10      7028.32
       629.20000  1.31690e-10      7020.42
       629.30000  1.31690e-10      7011.20
       629.40000  1.31690e-10      7000.67
       629.50000  1.11860e-10      5937.50
       629.60000  1.11860e-10      5925.20
       629.70000  1.11860e-10      5912.90
       629.80000  1.11860e-10      5901.71
       629.90000  1.11860e-10      5891.64
       630.00000  1.11860e-10      5881.57
       630.10000  1.11860e-10      5871.51
       630.20000  1.11860e-10      5863.68
       630.30000  1.11860e-10      5854.73
       630.40000  1.11860e-10      5848.02
       630.50000  3.81413e-11      1991.74
       630.60000  3.81413e-11      1989.45
       630.70000  3.81413e-11      1987.54
       630.80000  3.81413e-11      1986.02
       630.90000  3.81413e-11      1984.49
       631.00000  3.81413e-11      1983.35
       631.10000  3.81413e-11      1984.49
       631.20000  3.81413e-11      1985.63
       631.30000  3.80377e-11      1981.76
       631.40000  3.80377e-11      1982.91
       631.50000  7.37984e-11      3849.33
       631.60000  7.37984e-11      3851.54
       631.70000  7.37984e-11      3853.75
       631.80000  7.37984e-11      3855.23
       631.90000  7.37984e-11      3857.44
       632.00000  7.37984e-11      3859.66
       632.10000  7.37984e-11      3861.87
       632.20000  7.37984e-11      3863.35
       632.30000  7.37984e-11      3865.56
       632.40000  7.37984e-11      3867.77
       632.50000  1.28172e-10      6720.03
       632.60000  1.28172e-10      6722.60
       632.70000  1.28172e-10      6726.44
       632.80000  1.28172e-10      6729.01
       632.90000  1.28172e-10      6731.57
       633.00000  1.28172e-10      6735.41
       633.10000  1.28172e-10      6737.98
       633.20000  1.28172e-10      6740.54
       633.30000  1.28172e-10      6743.10
       633.40000  1.28172e-10      6745.67
       633.50000  2.73627e-11      1440.65
       633.60000  2.73627e-11      1441.20
       633.70000  2.73627e-11      1441.74
       633.80000  2.72895e-11      1438.16
       633.90000  2.72895e-11      1438.70
       634.00000  2.72895e-11      1439.25
       634.10000  2.72895e-11      1439.52
       634.20000  2.72895e-11      1440.07
       634.30000  2.72895e-11      1440.34
       634.40000  2.72895e-11      1440.89
       634.50000  5.62315e-11      2969.59
       634.60000  5.62315e-11      2970.15
       634.70000  5.62315e-11      2971.27
       634.80000  5.62315e-11      2971.84
       634.90000  5.62315e-11      2972.40
       635.00000  5.62315e-11      2972.96
       635.10000  5.62315e-11      2973.52
       635.20000  5.62315e-11      2973.52
       635.30000  5.62315e-11      2974.09
       635.40000  5.62315e-11      2974.09
       635.50000  1.27741e-10      6757.53
       635.60000  1.27741e-10      6758.80
       635.70000  1.27741e-10      6758.80
       635.80000  1.27741e-10      6760.08
       635.90000  1.27741e-10      6760.08
       636.00000  1.27741e-10      6761.36
       636.10000  1.27741e-10      6761.36
       636.20000  1.27741e-10      6762.64
       636.30000  1.27281e-10      6738.25
       636.40000  1.27281e-10      6739.52
       636.50000  2.69350e-11      1426.21
       636.60000  2.69350e-11      1426.48
       636.70000  2.69350e-11      1426.48
       636.80000  2.69350e-11      1426.75
       636.90000  2.69350e-11      1426.75
       637.00000  2.69350e-11      1426.75
       637.10000  2.69350e-11      1427.02
       637.20000  2.69350e-11      1427.02
       637.30000  2.69350e-11      1427.29
       637.40000  2.69350e-11      1427.29
       637.50000  1.31685e-11      697.799
       637.60000  1.31685e-11      697.931
       637.70000  1.31685e-11      697.931
       637.80000  1.31685e-11      698.062
       637.90000  1.31685e-11      698.062
       638.00000  1.31685e-11      698.062
       638.10000  1.31685e-11      698.194
       638.20000  1.31685e-11      698.194
       638.30000  1.31685e-11      698.194
       638.40000  1.31685e-11      698.326
       638.50000  1.09692e-10      5816.96
       638.60000  1.09692e-10      5816.96
       638.70000  1.09692e-10      5818.06
       638.80000  1.09383e-10      5801.66
       638.90000  1.09383e-10      5801.66
       639.00000  1.09383e-10      5801.66
       639.10000  1.09383e-10      5792.91
       639.20000  1.09383e-10      5784.16
       639.30000  1.09383e-10      5775.41
       639.40000  1.09383e-10      5767.76
       639.50000  2.67306e-11      1407.37
       639.60000  2.67306e-11      1405.76
       639.70000  2.67306e-11      1403.89
       639.80000  2.67306e-11      1402.29
       639.90000  2.67306e-11      1400.95
       640.00000  2.67306e-11      1399.35
       640.10000  2.67306e-11      1398.01
       640.20000  2.67306e-11      1396.94
       640.30000  2.67306e-11      1395.87
       640.40000  2.67306e-11      1394.80
       640.50000  5.85874e-11      3054.75
       640.60000  5.85874e-11      3052.99
       640.70000  5.85874e-11      3051.23
       640.80000  5.85874e-11      3050.06
       640.90000  5.85874e-11      3048.30
       641.00000  5.85874e-11      3047.71
       641.10000  5.85874e-11      3048.89
       641.20000  5.85874e-11      3050.06
       641.30000  5.84031e-11      3041.63
       641.40000  5.84031e-11      3042.80
       641.50000  3.81866e-11      1990.28
       641.60000  3.81866e-11      1991.05
       641.70000  3.81866e-11      1991.81
       641.80000  3.81866e-11      1992.58
       641.90000  3.81866e-11      1993.34
       642.00000  3.81866e-11      1994.10
       642.10000  3.81866e-11      1994.48
       642.20000  3.81866e-11      1995.25
       642.30000  3.81866e-11      1996.01
       642.40000  3.81866e-11      1996.78
       642.50000  1.86127e-11      973.629
       642.60000  1.86127e-11      974.001
       642.70000  1.86127e-11      974.373
       642.80000  1.86127e-11      974.745
       642.90000  1.86127e-11      975.118
       643.00000  1.86127e-11      975.490
       643.10000  1.86127e-11      975.676
       643.20000  1.86127e-11      976.048
       643.30000  1.86127e-11      976.421
       643.40000  1.86127e-11      976.793
       643.50000  5.62830e-11      2954.86
       643.60000  5.62830e-11      2955.99
       643.70000  5.62830e-11      2956.55
       643.80000  5.60726e-11      2946.61
       643.90000  5.60726e-11      2947.73
       644.00000  5.60726e-11      2948.86
       644.10000  5.60726e-11      2949.98
       644.20000  5.60726e-11      2950.54
       644.30000  5.60726e-11      2951.66
       644.40000  5.60726e-11      2952.78
       644.50000  2.49629e-12      131.505
       644.60000  2.49629e-12      131.530
       644.70000  2.49629e-12      131.579
       644.80000  2.49629e-12      131.629
       644.90000  2.49629e-12      131.679
       645.00000  2.49629e-12      131.704
       645.10000  2.49629e-12      131.679
       645.20000  2.49629e-12      131.629
       645.30000  2.49629e-12      131.604
       645.40000  2.49629e-12      131.554
       645.50000  7.75524e-11      4084.68
       645.60000  7.75524e-11      4083.13
       645.70000  7.75524e-11      4081.58
       645.80000  7.75524e-11      4079.26
       645.90000  7.75524e-11      4076.93
       646.00000  7.75524e-11      4074.60
       646.10000  7.75524e-11      4072.28
       646.20000  7.75524e-11      4069.95
       646.30000  7.72309e-11      4049.99
       646.40000  7.72309e-11      4046.90
       646.50000  7.03125e-11      3682.27
       646.60000  7.03125e-11      3678.75
       646.70000  7.03125e-11      3675.94
       646.80000  7.03125e-11      3673.13
       646.90000  7.03125e-11      3669.61
       647.00000  7.03125e-11      3666.80
       647.10000  7.03125e-11      3656.95
       647.20000  7.03125e-11      3647.81
       647.30000  7.03125e-11      3639.38
       647.40000  7.03125e-11      3630.94
       647.50000  7.50164e-11      3865.59
       647.60000  7.50164e-11      3858.84
       647.70000  7.50164e-11      3851.34
       647.80000  7.50164e-11      3845.34
       647.90000  7.50164e-11      3839.34
       648.00000  7.50164e-11      3834.09
       648.10000  7.50164e-11      3829.59
       648.20000  7.50164e-11      3825.83
       648.30000  7.50164e-11      3822.08
       648.40000  7.50164e-11      3819.08
       648.50000  9.92143e-11      5048.02
       648.60000  9.92143e-11      5046.04
       648.70000  9.92143e-11      5044.06
       648.80000  9.88068e-11      5022.35
       648.90000  9.88068e-11      5022.35
       649.00000  9.88068e-11      5023.34
       649.10000  9.88068e-11      5024.32
       649.20000  9.88068e-11      5027.29
       649.30000  9.88068e-11      5029.27
       649.40000  9.88068e-11      5033.22
       649.50000  8.93363e-11      4555.26
       649.60000  8.93363e-11      4559.72
       649.70000  8.93363e-11      4565.08
       649.80000  8.93363e-11      4571.34
       649.90000  8.93363e-11      4577.59
       650.00000  8.93363e-11      4584.74
       650.10000  8.93363e-11      4592.78
       650.20000  8.93363e-11      4601.71
       650.30000  8.93363e-11      4611.54
       650.40000  8.93363e-11      4621.37
       650.50000  1.29341e-11      670.636
       650.60000  1.29341e-11      672.317
       650.70000  1.29341e-11      673.998
       650.80000  1.29341e-11      675.939
       650.90000  1.29341e-11      677.879
       651.00000  1.29341e-11      679.948
       651.10000  1.29341e-11      680.466
       651.20000  1.29341e-11      680.983
       651.30000  1.28769e-11      678.356
       651.40000  1.28769e-11      678.743
       651.50000  3.31761e-11      1749.71
       651.60000  3.31761e-11      1750.04
       651.70000  3.31761e-11      1750.70
       651.80000  3.31761e-11      1751.03
       651.90000  3.31761e-11      1751.03
       652.00000  3.31761e-11      1751.03
       652.10000  3.31761e-11      1750.70
       652.20000  3.31761e-11      1750.37
       652.30000  3.31761e-11      1750.04
       652.40000  3.31761e-11      1749.37
       652.50000  9.42065e-11      4964.68
       652.60000  9.42065e-11      4961.86
       652.70000  9.42065e-11      4959.03
       652.80000  9.42065e-11      4954.32
       652.90000  9.42065e-11      4950.55
       653.00000  9.42065e-11      4945.84
       653.10000  9.42065e-11      4942.07
       653.20000  9.42065e-11      4938.30
       653.30000  9.42065e-11      4932.65
       653.40000  9.42065e-11      4927.00
       653.50000  6.95603e-11      3633.83
       653.60000  6.95603e-11      3628.96
       653.70000  6.95603e-11      3623.40
       653.80000  6.93981e-11      3608.70
       653.90000  6.93981e-11      3602.46
       654.00000  6.93981e-11      3595.52
       654.10000  6.93981e-11      3588.58
       654.20000  6.93981e-11      3580.25
       654.30000  6.93981e-11      3571.92
       654.40000  6.93981e-11      3563.59
       654.50000  6.33058e-11      3242.52
       654.60000  6.33058e-11      3233.66
       654.70000  6.33058e-11      3224.16
       654.80000  6.33058e-11      3214.67
       654.90000  6.33058e-11      3204.54
       655.00000  6.33058e-11      3193.78
       655.10000  6.33058e-11      3163.39
       655.20000  6.33058e-11      3134.27
       655.30000  6.33058e-11      3107.05
       655.40000  6.33058e-11      3081.73
       655.50000  5.88510e-11      2842.50
       655.60000  5.88510e-11      2821.90
       655.70000  5.88510e-11      2802.48
       655.80000  5.88510e-11      2784.83
       655.90000  5.88510e-11      2768.35
       656.00000  5.88510e-11      2753.64
       656.10000  5.88510e-11      2740.69
       656.20000  5.88510e-11      2728.92
       656.30000  5.87759e-11      2715.45
       656.40000  5.87759e-11      2706.63
       656.50000  1.02758e-11      471.965
       656.60000  1.02758e-11      471.041
       656.70000  1.02758e-11      470.321
       656.80000  1.02758e-11      469.910
       656.90000  1.02758e-11      469.705
       657.00000  1.02758e-11      469.807
       657.10000  1.02758e-11      473.815
       657.20000  1.02758e-11      477.720
       657.30000  1.02758e-11      481.522
       657.40000  1.02758e-11      485.221
       657.50000  4.41263e-11      2098.65
       657.60000  4.41263e-11      2113.65
       657.70000  4.41263e-11      2127.77
       657.80000  4.41263e-11      2141.45
       657.90000  4.41263e-11      2154.25
       658.00000  4.41263e-11      2167.04
       658.10000  4.41263e-11      2179.40
       658.20000  4.41263e-11      2190.87
       658.30000  4.41263e-11      2201.90
       658.40000  4.41263e-11      2212.49
       658.50000  6.97080e-12      351.049
       658.60000  6.97080e-12      352.583
       658.70000  6.97080e-12      353.977
       658.80000  6.94749e-12      354.183
       658.90000  6.94749e-12      355.434
       659.00000  6.94749e-12      356.545
       659.10000  6.94749e-12      357.657
       659.20000  6.94749e-12      358.699
       659.30000  6.94749e-12      359.602
       659.40000  6.94749e-12      360.436
       659.50000  8.24311e-12      428.559
       659.60000  8.24311e-12      429.384
       659.70000  8.24311e-12      430.043
       659.80000  8.24311e-12      430.703
       659.90000  8.24311e-12      431.197
       660.00000  8.24311e-12      431.609
       660.10000  8.24311e-12      431.939
       660.20000  8.24311e-12      432.104
       660.30000  8.24311e-12      432.269
       660.40000  8.24311e-12      432.269
       660.50000  2.69649e-11      1413.77
       660.60000  2.69649e-11      1413.23
       660.70000  2.69649e-11      1412.42
       660.80000  2.69649e-11      1411.07
       660.90000  2.69649e-11      1409.73
       661.00000  2.69649e-11      1407.84
       661.10000  2.69649e-11      1407.03
       661.20000  2.69649e-11      1405.95
       661.30000  2.67675e-11      1394.85
       661.40000  2.67675e-11      1394.05
       661.50000  4.86373e-11      2531.57
       661.60000  4.86373e-11      2530.60
       661.70000  4.86373e-11      2529.14
       661.80000  4.86373e-11      2528.17
       661.90000  4.86373e-11      2527.20
       662.00000  4.86373e-11      2526.22
       662.10000  4.86373e-11      2525.25
       662.20000  4.86373e-11      2524.28
       662.30000  4.86373e-11      2523.79
       662.40000  4.86373e-11      2523.30
       662.50000  2.08877e-11      1083.24
       662.60000  2.08877e-11      1083.24
       662.70000  2.08877e-11      1083.03
       662.80000  2.08877e-11      1082.82
       662.90000  2.08877e-11      1082.82
       663.00000  2.08877e-11      1082.82
       663.10000  2.08877e-11      1083.66
       663.20000  2.08877e-11      1084.28
       663.30000  2.08877e-11      1085.12
       663.40000  2.08877e-11      1085.74
       663.50000  7.12267e-12      370.450
       663.60000  7.12267e-12      370.664
       663.70000  7.12267e-12      370.806
       663.80000  7.06410e-12      367.969
       663.90000  7.06410e-12      368.110
       664.00000  7.06410e-12      368.181
       664.10000  7.06410e-12      368.322
       664.20000  7.06410e-12      368.393
       664.30000  7.06410e-12      368.464
       664.40000  7.06410e-12      368.534
       664.50000  2.47012e-11      1288.66
       664.60000  2.47012e-11      1288.66
       664.70000  2.47012e-11      1288.66
       664.80000  2.47012e-11      1288.66
       664.90000  2.47012e-11      1288.66
       665.00000  2.47012e-11      1288.41
       665.10000  2.47012e-11      1288.17
       665.20000  2.47012e-11      1287.92
       665.30000  2.47012e-11      1287.43
       665.40000  2.47012e-11      1286.93
       665.50000  3.84930e-11      2004.72
       665.60000  3.84930e-11      2003.95
       665.70000  3.84930e-11      2002.79
       665.80000  3.84930e-11      2002.02
       665.90000  3.84930e-11      2000.87
       666.00000  3.84930e-11      1999.33
       666.10000  3.84930e-11      1998.17
       666.20000  3.84930e-11      1996.63
       666.30000  3.82442e-11      1982.20
       666.40000  3.82442e-11      1980.67
       666.50000  6.38111e-12      330.159
       666.60000  6.38111e-12      329.840
       666.70000  6.38111e-12      329.521
       666.80000  6.38111e-12      329.202
       666.90000  6.38111e-12      328.883
       667.00000  6.38111e-12      328.500
       667.10000  6.38111e-12      328.883
       667.20000  6.38111e-12      329.202
       667.30000  6.38111e-12      329.521
       667.40000  6.38111e-12      329.840
       667.50000  4.05820e-11      2099.71
       667.60000  4.05820e-11      2101.34
       667.70000  4.05820e-11      2102.96
       667.80000  4.05820e-11      2104.18
       667.90000  4.05820e-11      2105.40
       668.00000  4.05820e-11      2106.61
       668.10000  4.05820e-11      2107.83
       668.20000  4.05820e-11      2108.64
       668.30000  4.05820e-11      2109.45
       668.40000  4.05820e-11      2109.86
       668.50000  4.53294e-11      2357.13
       668.60000  4.53294e-11      2357.58
       668.70000  4.53294e-11      2357.58
       668.80000  4.50693e-11      2344.05
       668.90000  4.50693e-11      2344.05
       669.00000  4.50693e-11      2343.60
       669.10000  4.50693e-11      2340.45
       669.20000  4.50693e-11      2337.29
       669.30000  4.50693e-11      2334.59
       669.40000  4.50693e-11      2331.89
       669.50000  3.81769e-11      1972.98
       669.60000  3.81769e-11      1970.69
       669.70000  3.81769e-11      1968.78
       669.80000  3.81769e-11      1966.87
       669.90000  3.81769e-11      1964.96
       670.00000  3.81769e-11      1963.44
       670.10000  3.81769e-11      1961.91
       670.20000  3.81769e-11      1960.38
       670.30000  3.81769e-11      1958.85
       670.40000  3.81769e-11      1957.71
       670.50000  2.36113e-11      1210.08
       670.60000  2.36113e-11      1209.37
       670.70000  2.36113e-11      1208.90
       670.80000  2.36113e-11      1208.43
       670.90000  2.36113e-11      1207.96
       671.00000  2.36113e-11      1207.72
       671.10000  2.36113e-11      1207.25
       671.20000  2.36113e-11      1207.25
       671.30000  2.34776e-11      1200.17
       671.40000  2.34776e-11      1200.17
       671.50000  1.31197e-11      670.680
       671.60000  1.31197e-11      670.680
       671.70000  1.31197e-11      670.680
       671.80000  1.31197e-11      670.811
       671.90000  1.31197e-11      670.942
       672.00000  1.31197e-11      671.204
       672.10000  1.31197e-11      671.467
       672.20000  1.31197e-11      671.729
       672.30000  1.31197e-11      671.992
       672.40000  1.31197e-11      672.385
       672.50000  4.30182e-12      220.597
       672.60000  4.30182e-12      220.726
       672.70000  4.30182e-12      220.855
       672.80000  4.30182e-12      221.028
       672.90000  4.30182e-12      221.200
       673.00000  4.30182e-12      221.415
       673.10000  4.30182e-12      221.329
       673.20000  4.30182e-12      221.243
       673.30000  4.30182e-12      221.157
       673.40000  4.30182e-12      221.114
       673.50000  1.86849e-11      960.030
       673.60000  1.86849e-11      959.843
       673.70000  1.86849e-11      959.656
       673.80000  1.85687e-11      953.315
       673.90000  1.85687e-11      953.129
       674.00000  1.85687e-11      952.943
       674.10000  1.85687e-11      952.758
       674.20000  1.85687e-11      952.572
       674.30000  1.85687e-11      952.386
       674.40000  1.85687e-11      952.201
       674.50000  1.97114e-16    0.0101060
       674.60000  1.97114e-16    0.0101060
       674.70000  1.97114e-16    0.0101040
       674.80000  1.97114e-16    0.0101040
       674.90000  1.97114e-16    0.0101021
       675.00000  1.97114e-16    0.0101021
       675.10000  1.97114e-16    0.0101040
       675.20000  1.97114e-16    0.0101060
       675.30000  1.97114e-16    0.0101080
       675.40000  1.97114e-16    0.0101100
       675.50000  1.92705e-11      988.384
       675.60000  1.92705e-11      988.576
       675.70000  1.92705e-11      988.769
       675.80000  1.92705e-11      988.769
       675.90000  1.92705e-11      988.962
       676.00000  1.92705e-11      988.962
       676.10000  1.92705e-11      989.154
       676.20000  1.92705e-11      989.154
       676.30000  1.91248e-11      981.678
       676.40000  1.91248e-11      981.678
       676.50000  5.50052e-11      2823.97
       676.60000  5.50052e-11      2823.97
       676.70000  5.50052e-11      2823.97
       676.80000  5.50052e-11      2823.42
       676.90000  5.50052e-11      2823.42
       677.00000  5.50052e-11      2823.42
       677.10000  5.50052e-11      2823.42
       677.20000  5.50052e-11      2822.86
       677.30000  5.50052e-11      2822.86
       677.40000  5.50052e-11      2822.31
       677.50000  1.21333e-11      622.558
       677.60000  1.21333e-11      622.436
       677.70000  1.21333e-11      622.436
       677.80000  1.21333e-11      622.315
       677.90000  1.21333e-11      622.194
       678.00000  1.21333e-11      622.072
       678.10000  1.21333e-11      621.951
       678.20000  1.21333e-11      621.830
       678.30000  1.21333e-11      621.708
       678.40000  1.21333e-11      621.587
       678.50000  2.34893e-11      1202.88
       678.60000  2.34893e-11      1202.65
       678.70000  2.34893e-11      1202.41
       678.80000  2.33122e-11      1192.89
       678.90000  2.33122e-11      1192.65
       679.00000  2.33122e-11      1192.19
       679.10000  2.33122e-11      1192.19
       679.20000  2.33122e-11      1192.42
       679.30000  2.33122e-11      1192.42
       679.40000  2.33122e-11      1192.42
       679.50000  2.29872e-11      1175.79
       679.60000  2.29872e-11      1175.79
       679.70000  2.29872e-11      1175.79
       679.80000  2.29872e-11      1175.79
       679.90000  2.29872e-11      1175.79
       680.00000  2.29872e-11      1175.56
       680.10000  2.29872e-11      1175.56
       680.20000  2.29872e-11      1175.56
       680.30000  2.29872e-11      1175.33
       680.40000  2.29872e-11      1175.33
       680.50000  5.39643e-12      275.866
       680.60000  5.39643e-12      275.866
       680.70000  5.39643e-12      275.812
       680.80000  5.39643e-12      275.758
       680.90000  5.39643e-12      275.704
       681.00000  5.39643e-12      275.704
       681.10000  5.39643e-12      275.650
       681.20000  5.39643e-12      275.596
       681.30000  5.35087e-12      273.269
       681.40000  5.35087e-12      273.215
       681.50000  1.11471e-11      569.059
       681.60000  1.11471e-11      568.948
       681.70000  1.11471e-11      568.836
       681.80000  1.11471e-11      568.613
       681.90000  1.11471e-11      568.502
       682.00000  1.11471e-11      568.390
       682.10000  1.11471e-11      568.167
       682.20000  1.11471e-11      567.944
       682.30000  1.11471e-11      567.833
       682.40000  1.11471e-11      567.610
       682.50000  1.01148e-11      514.844
       682.60000  1.01148e-11      514.642
       682.70000  1.01148e-11      514.439
       682.80000  1.01148e-11      514.237
       682.90000  1.01148e-11      513.934
       683.00000  1.01148e-11      513.731
       683.10000  1.01148e-11      513.529
       683.20000  1.01148e-11      513.226
       683.30000  1.01148e-11      512.922
       683.40000  1.01148e-11      512.619
       683.50000  1.28675e-11      651.868
       683.60000  1.28675e-11      651.482
       683.70000  1.28675e-11      651.096
       683.80000  1.27453e-11      644.404
       683.90000  1.27453e-11      644.021
       684.00000  1.27453e-11      643.639
       684.10000  1.27453e-11      643.129
       684.20000  1.27453e-11      642.747
       684.30000  1.27453e-11      642.237
       684.40000  1.27453e-11      641.855
       684.50000  7.10451e-12      357.499
       684.60000  7.10451e-12      357.215
       684.70000  7.10451e-12      356.931
       684.80000  7.10451e-12      356.647
       684.90000  7.10451e-12      356.291
       685.00000  7.10451e-12      356.007
       685.10000  7.10451e-12      356.291
       685.20000  7.10451e-12      356.647
       685.30000  7.10451e-12      356.931
       685.40000  7.10451e-12      357.144
       685.50000  2.61062e-12      131.340
       685.60000  2.61062e-12      131.445
       685.70000  2.61062e-12      131.523
       685.80000  2.61062e-12      131.601
       685.90000  2.61062e-12      131.680
       686.00000  2.61062e-12      131.758
       686.10000  2.61062e-12      131.836
       686.20000  2.61062e-12      131.889
       686.30000  2.58597e-12      130.721
       686.40000  2.58597e-12      130.772
       686.50000  1.76253e-11      891.664
       686.60000  1.76253e-11      892.017
       686.70000  1.76253e-11      892.369
       686.80000  1.76253e-11      892.545
       686.90000  1.76253e-11      892.898
       687.00000  1.76253e-11      893.074
       687.10000  1.76253e-11      893.250
       687.20000  1.76253e-11      893.250
       687.30000  1.76253e-11      893.250
       687.40000  1.76253e-11      893.250
       687.50000  1.99124e-11      1009.16
       687.60000  1.99124e-11      1009.16
       687.70000  1.99124e-11      1009.16
       687.80000  1.99124e-11      1009.16
       687.90000  1.99124e-11      1009.16
       688.00000  1.99124e-11      1008.96
       688.10000  1.99124e-11      1008.96
       688.20000  1.99124e-11      1008.96
       688.30000  1.99124e-11      1008.76
       688.40000  1.99124e-11      1008.76
       688.50000  2.51062e-11      1271.63
       688.60000  2.51062e-11      1271.38
       688.70000  2.51062e-11      1271.38
       688.80000  2.49001e-11      1260.69
       688.90000  2.49001e-11      1260.44
       689.00000  2.49001e-11      1260.19
       689.10000  2.49001e-11      1259.95
       689.20000  2.49001e-11      1259.70
       689.30000  2.49001e-11      1259.45
       689.40000  2.49001e-11      1259.20
       689.50000  8.74321e-12      442.057
       689.60000  8.74321e-12      441.969
       689.70000  8.74321e-12      441.795
       689.80000  8.74321e-12      441.707
       689.90000  8.74321e-12      441.620
       690.00000  8.74321e-12      441.445
       690.10000  8.74321e-12      441.270
       690.20000  8.74321e-12      441.183
       690.30000  8.74321e-12      441.008
       690.40000  8.74321e-12      440.833
       690.50000  1.19699e-11      603.405
       690.60000  1.19699e-11      603.166
       690.70000  1.19699e-11      602.926
       690.80000  1.19699e-11      602.687
       690.90000  1.19699e-11      602.448
       691.00000  1.19699e-11      602.208
       691.10000  1.19699e-11      602.448
       691.20000  1.19699e-11      602.567
       691.30000  1.18793e-11      598.241
       691.40000  1.18793e-11      598.360
       691.50000  4.78139e-12      240.887
       691.60000  4.78139e-12      240.982
       691.70000  4.78139e-12      241.030
       691.80000  4.78139e-12      241.078
       691.90000  4.78139e-12      241.126
       692.00000  4.78139e-12      241.126
       692.10000  4.78139e-12      241.174
       692.20000  4.78139e-12      241.221
       692.30000  4.78139e-12      241.221
       692.40000  4.78139e-12      241.221
       692.50000  2.79132e-12      140.850
       692.60000  2.79132e-12      140.850
       692.70000  2.79132e-12      140.850
       692.80000  2.79132e-12      140.850
       692.90000  2.79132e-12      140.850
       693.00000  2.79132e-12      140.822
       693.10000  2.79132e-12      140.822
       693.20000  2.79132e-12      140.794
       693.30000  2.79132e-12      140.766
       693.40000  2.79132e-12      140.738
       693.50000  9.76323e-12      492.164
       693.60000  9.76323e-12      492.067
       693.70000  9.76323e-12      491.969
       693.80000  9.69589e-12      488.479
       693.90000  9.69589e-12      488.285
       694.00000  9.69589e-12      488.188
       694.10000  9.69589e-12      488.091
       694.20000  9.69589e-12      487.897
       694.30000  9.69589e-12      487.800
       694.40000  9.69589e-12      487.606
       694.50000  1.00515e-11      505.289
       694.60000  1.00515e-11      505.188
       694.70000  1.00515e-11      504.987
       694.80000  1.00515e-11      504.786
       694.90000  1.00515e-11      504.585
       695.00000  1.00515e-11      504.384
       695.10000  1.00515e-11      504.183
       695.20000  1.00515e-11      503.982
       695.30000  1.00515e-11      503.680
       695.40000  1.00515e-11      503.479
       695.50000  8.79721e-17   0.00440476
       695.60000  8.79721e-17   0.00440212
       695.70000  8.79721e-17   0.00440036
       695.80000  8.79721e-17   0.00439772
       695.90000  8.79721e-17   0.00439508
       696.00000  8.79721e-17   0.00439333
       696.10000  8.79721e-17   0.00439069
       696.20000  8.79721e-17   0.00438805
       696.30000  8.74573e-17   0.00435975
       696.40000  8.74573e-17   0.00435712
       696.50000  1.67478e-11      833.874
       696.60000  1.67478e-11      833.371
       696.70000  1.67478e-11      832.702
       696.80000  1.67478e-11      832.199
       696.90000  1.67478e-11      831.697
       697.00000  1.67478e-11      831.027
       697.10000  1.67478e-11      832.199
       697.20000  1.67478e-11      833.036
       697.30000  1.67478e-11      834.041
       697.40000  1.67478e-11      834.879
       697.50000  7.46285e-12      372.396
       697.60000  7.46285e-12      372.695
       697.70000  7.46285e-12      372.993
       697.80000  7.46285e-12      373.217
       697.90000  7.46285e-12      373.441
       698.00000  7.46285e-12      373.590
       698.10000  7.46285e-12      373.739
       698.20000  7.46285e-12      373.889
       698.30000  7.46285e-12      373.963
       698.40000  7.46285e-12      374.038
       698.50000  3.12569e-12      156.691
       698.60000  3.12569e-12      156.691
       698.70000  3.12569e-12      156.659
       698.80000  3.10652e-12      155.668
       698.90000  3.10652e-12      155.637
       699.00000  3.10652e-12      155.575
       699.10000  3.10652e-12      155.295
       699.20000  3.10652e-12      154.984
       699.30000  3.10652e-12      154.736
       699.40000  3.10652e-12      154.456
       699.50000  1.39054e-11      690.265
       699.60000  1.39054e-11      689.153
       699.70000  1.39054e-11      688.179
       699.80000  1.39054e-11      687.206
       699.90000  1.39054e-11      686.232
       700.00000  1.39054e-11      685.398
       700.10000  1.39054e-11      684.564
       700.20000  1.39054e-11      683.730
       700.30000  1.39054e-11      683.034
       700.40000  1.39054e-11      682.339
       700.50000  1.06932e-11      524.179
       700.60000  1.06932e-11      523.752
       700.70000  1.06932e-11      523.324
       700.80000  1.06932e-11      523.003
       700.90000  1.06932e-11      522.682
       701.00000  1.06932e-11      522.362
       701.10000  1.06932e-11      522.255
       701.20000  1.06932e-11      522.148
       701.30000  1.06139e-11      518.173
       701.40000  1.06139e-11      518.173
       701.50000  3.07899e-12      150.316
       701.60000  3.07899e-12      150.316
       701.70000  3.07899e-12      150.316
       701.80000  3.07899e-12      150.347
       701.90000  3.07899e-12      150.347
       702.00000  3.07899e-12      150.378
       702.10000  3.07899e-12      150.439
       702.20000  3.07899e-12      150.470
       702.30000  3.07899e-12      150.532
       702.40000  3.07899e-12      150.562
       702.50000  3.19260e-12      156.182
       702.60000  3.19260e-12      156.278
       702.70000  3.19260e-12      156.342
       702.80000  3.19260e-12      156.438
       702.90000  3.19260e-12      156.533
       703.00000  3.19260e-12      156.629
       703.10000  3.19260e-12      156.916
       703.20000  3.19260e-12      157.204
       703.30000  3.19260e-12      157.459
       703.40000  3.19260e-12      157.715
       703.50000  9.91467e-13      49.0479
       703.60000  9.91467e-13      49.1272
       703.70000  9.91467e-13      49.1867
       703.80000  9.82265e-13      48.7989
       703.90000  9.82265e-13      48.8578
       704.00000  9.82265e-13      48.9069
       704.10000  9.82265e-13      48.9659
       704.20000  9.82265e-13      49.0150
       704.30000  9.82265e-13      49.0543
       704.40000  9.82265e-13      49.0936
       704.50000  2.47275e-12      123.687
       704.60000  2.47275e-12      123.786
       704.70000  2.47275e-12      123.860
       704.80000  2.47275e-12      123.910
       704.90000  2.47275e-12      123.984
       705.00000  2.47275e-12      124.033
       705.10000  2.47275e-12      124.058
       705.20000  2.47275e-12      124.083
       705.30000  2.47275e-12      124.108
       705.40000  2.47275e-12      124.132
       705.50000  9.26983e-12      465.346
       705.60000  9.26983e-12      465.346
       705.70000  9.26983e-12      465.253
       705.80000  9.26983e-12      465.160
       705.90000  9.26983e-12      465.067
       706.00000  9.26983e-12      464.882
       706.10000  9.26983e-12      464.697
       706.20000  9.26983e-12      464.419
       706.30000  9.17840e-12      459.562
       706.40000  9.17840e-12      459.287
       706.50000  1.43149e-12      71.5743
       706.60000  1.43149e-12      71.5171
       706.70000  1.43149e-12      71.4598
       706.80000  1.43149e-12      71.3882
       706.90000  1.43149e-12      71.3167
       707.00000  1.43149e-12      71.2451
       707.10000  1.43149e-12      71.1878
       707.20000  1.43149e-12      71.1449
       707.30000  1.43149e-12      71.0876
       707.40000  1.43149e-12      71.0447
       707.50000  4.57659e-12      226.999
       707.60000  4.57659e-12      226.862
       707.70000  4.57659e-12      226.770
       707.80000  4.57659e-12      226.633
       707.90000  4.57659e-12      226.541
       708.00000  4.57659e-12      226.450
       708.10000  4.57659e-12      226.358
       708.20000  4.57659e-12      226.267
       708.30000  4.57659e-12      226.175
       708.40000  4.57659e-12      226.084
       708.50000  2.90407e-12      143.432
       708.60000  2.90407e-12      143.374
       708.70000  2.90407e-12      143.345
       708.80000  2.87080e-12      141.674
       708.90000  2.87080e-12      141.645
       709.00000  2.87080e-12      141.645
       709.10000  2.87080e-12      141.703
       709.20000  2.87080e-12      141.760
       709.30000  2.87080e-12      141.789
       709.40000  2.87080e-12      141.846
       709.50000  3.25859e-12      161.039
       709.60000  3.25859e-12      161.105
       709.70000  3.25859e-12      161.137
       709.80000  3.25859e-12      161.170
       709.90000  3.25859e-12      161.202
       710.00000  3.25859e-12      161.235
       710.10000  3.25859e-12      161.267
       710.20000  3.25859e-12      161.300
       710.30000  3.25859e-12      161.300
       710.40000  3.25859e-12      161.333
       710.50000  1.02690e-11      508.420
       710.60000  1.02690e-11      508.420
       710.70000  1.02690e-11      508.420
       710.80000  1.02690e-11      508.420
       710.90000  1.02690e-11      508.420
       711.00000  1.02690e-11      508.420
       711.10000  1.02690e-11      508.420
       711.20000  1.02690e-11      508.317
       711.30000  1.01190e-11      500.891
       711.40000  1.01190e-11      500.790
       711.50000  1.77187e-12      87.6722
       711.60000  1.77187e-12      87.6545
       711.70000  1.77187e-12      87.6368
       711.80000  1.77187e-12      87.6191
       711.90000  1.77187e-12      87.6013
       712.00000  1.77187e-12      87.5659
       712.10000  1.77187e-12      87.5482
       712.20000  1.77187e-12      87.5128
       712.30000  1.77187e-12      87.4950
       712.40000  1.77187e-12      87.4596
       712.50000  6.49738e-12      320.581
       712.60000  6.49738e-12      320.451
       712.70000  6.49738e-12      320.256
       712.80000  6.49738e-12      320.126
       712.90000  6.49738e-12      319.996
       713.00000  6.49738e-12      319.801
       713.10000  6.49738e-12      319.801
       713.20000  6.49738e-12      319.801
       713.30000  6.49738e-12      319.801
       713.40000  6.49738e-12      319.736
       713.50000  2.18415e-12      107.482
       713.60000  2.18415e-12      107.482
       713.70000  2.18415e-12      107.460
       713.80000  2.15438e-12      105.996
       713.90000  2.15438e-12      105.974
       714.00000  2.15438e-12      105.974
       714.10000  2.15438e-12      105.952
       714.20000  2.15438e-12      105.931
       714.30000  2.15438e-12      105.931
       714.40000  2.15438e-12      105.909
       714.50000  3.38874e-12      166.557
       714.60000  3.38874e-12      166.523
       714.70000  3.38874e-12      166.523
       714.80000  3.38874e-12      166.489
       714.90000  3.38874e-12      166.455
       715.00000  3.38874e-12      166.421
       715.10000  3.38874e-12      166.387
       715.20000  3.38874e-12      166.387
       715.30000  3.38874e-12      166.387
       715.40000  3.38874e-12      166.353
       715.50000  1.60636e-12      78.8399
       715.60000  1.60636e-12      78.8239
       715.70000  1.60636e-12      78.8078
       715.80000  1.60636e-12      78.7917
       715.90000  1.60636e-12      78.7757
       716.00000  1.60636e-12      78.7436
       716.10000  1.60636e-12      78.7275
       716.20000  1.60636e-12      78.6954
       716.30000  1.58489e-12      77.6122
       716.40000  1.58489e-12      77.5805
       716.50000  5.98520e-12      292.856
       716.60000  5.98520e-12      292.736
       716.70000  5.98520e-12      292.616
       716.80000  5.98520e-12      292.437
       716.90000  5.98520e-12      292.317
       717.00000  5.98520e-12      292.137
       717.10000  5.98520e-12      291.958
       717.20000  5.98520e-12      291.778
       717.30000  5.98520e-12      291.599
       717.40000  5.98520e-12      291.419
       717.50000  3.72190e-12      181.108
       717.60000  3.72190e-12      180.959
       717.70000  3.72190e-12      180.847
       717.80000  3.72190e-12      180.698
       717.90000  3.72190e-12      180.550
       718.00000  3.72190e-12      180.401
       718.10000  3.72190e-12      180.252
       718.20000  3.72190e-12      180.103
       718.30000  3.72190e-12      179.954
       718.40000  3.72190e-12      179.768
       718.50000  6.22299e-13      30.0322
       718.60000  6.22299e-13      30.0010
       718.70000  6.22299e-13      29.9699
       718.80000  6.14826e-13      29.5793
       718.90000  6.14826e-13      29.5485
       719.00000  6.14826e-13      29.5178
       719.10000  6.14826e-13      29.5178
       719.20000  6.14826e-13      29.5178
       719.30000  6.14826e-13      29.5178
       719.40000  6.14826e-13      29.5239
       719.50000  1.29578e-12      62.2234
       719.60000  1.29578e-12      62.2364
       719.70000  1.29578e-12      62.2364
       719.80000  1.29578e-12      62.2494
       719.90000  1.29578e-12      62.2623
       720.00000  1.29578e-12      62.2882
       720.10000  1.29578e-12      62.3012
       720.20000  1.29578e-12      62.3141
       720.30000  1.29578e-12      62.3401
       720.40000  1.29578e-12      62.3530
       720.50000  5.12441e-12      246.689
       720.60000  5.12441e-12      246.792
       720.70000  5.12441e-12      246.894
       720.80000  5.12441e-12      246.997
       720.90000  5.12441e-12      247.150
       721.00000  5.12441e-12      247.253
       721.10000  5.12441e-12      247.509
       721.20000  5.12441e-12      247.765
       721.30000  5.06662e-12      245.224
       721.40000  5.06662e-12      245.427
       721.50000  2.25775e-12      109.478
       721.60000  2.25775e-12      109.569
       721.70000  2.25775e-12      109.659
       721.80000  2.25775e-12      109.772
       721.90000  2.25775e-12      109.862
       722.00000  2.25775e-12      109.930
       722.10000  2.25775e-12      110.020
       722.20000  2.25775e-12      110.111
       722.30000  2.25775e-12      110.178
       722.40000  2.25775e-12      110.246
       722.50000  7.02474e-12      343.229
       722.60000  7.02474e-12      343.510
       722.70000  7.02474e-12      343.650
       722.80000  7.02474e-12      343.861
       722.90000  7.02474e-12      344.072
       723.00000  7.02474e-12      344.212
       723.10000  7.02474e-12      344.423
       723.20000  7.02474e-12      344.563
       723.30000  7.02474e-12      344.704
       723.40000  7.02474e-12      344.844
       723.50000  1.27676e-12      62.7017
       723.60000  1.27676e-12      62.7145
       723.70000  1.27676e-12      62.7400
       723.80000  1.26235e-12      62.0445
       723.90000  1.26235e-12      62.0571
       724.00000  1.26235e-12      62.0697
       724.10000  1.26235e-12      62.0823
       724.20000  1.26235e-12      62.0950
       724.30000  1.26235e-12      62.1076
       724.40000  1.26235e-12      62.1202
       724.50000  5.60290e-12      275.719
       724.60000  5.60290e-12      275.719
       724.70000  5.60290e-12      275.719
       724.80000  5.60290e-12      275.719
       724.90000  5.60290e-12      275.719
       725.00000  5.60290e-12      275.719
       725.10000  5.60290e-12      275.831
       725.20000  5.60290e-12      275.943
       725.30000  5.60290e-12      275.999
       725.40000  5.60290e-12      276.111
       725.50000  1.99697e-12      98.4309
       725.60000  1.99697e-12      98.4509
       725.70000  1.99697e-12      98.4509
       725.80000  1.99697e-12      98.4708
       725.90000  1.99697e-12      98.4708
       726.00000  1.99697e-12      98.4708
       726.10000  1.99697e-12      98.4708
       726.20000  1.99697e-12      98.4708
       726.30000  1.97471e-12      97.3530
       726.40000  1.97471e-12      97.3332
       726.50000  2.91498e-12      143.650
       726.60000  2.91498e-12      143.621
       726.70000  2.91498e-12      143.592
       726.80000  2.91498e-12      143.534
       726.90000  2.91498e-12      143.475
       727.00000  2.91498e-12      143.417
       727.10000  2.91498e-12      143.213
       727.20000  2.91498e-12      143.009
       727.30000  2.91498e-12      142.805
       727.40000  2.91498e-12      142.630
       727.50000  1.76343e-13      8.61789
       727.60000  1.76343e-13      8.60731
       727.70000  1.76343e-13      8.59849
       727.80000  1.76343e-13      8.58967
       727.90000  1.76343e-13      8.58086
       728.00000  1.76343e-13      8.57380
       728.10000  1.76343e-13      8.56675
       728.20000  1.76343e-13      8.55970
       728.30000  1.76343e-13      8.55264
       728.40000  1.76343e-13      8.54735
       728.50000  1.30239e-12      63.0878
       728.60000  1.30239e-12      63.0618
       728.70000  1.30239e-12      63.0227
       728.80000  1.28787e-12      62.3070
       728.90000  1.28787e-12      62.2812
       729.00000  1.28787e-12      62.2683
       729.10000  1.28787e-12      62.2555
       729.20000  1.28787e-12      62.2426
       729.30000  1.28787e-12      62.2426
       729.40000  1.28787e-12      62.2297
       729.50000  2.54937e-12      123.211
       729.60000  2.54937e-12      123.211
       729.70000  2.54937e-12      123.237
       729.80000  2.54937e-12      123.262
       729.90000  2.54937e-12      123.313
       730.00000  2.54937e-12      123.364
       730.10000  2.54937e-12      123.415
       730.20000  2.54937e-12      123.466
       730.30000  2.54937e-12      123.542
       730.40000  2.54937e-12      123.619
       730.50000  1.49041e-12      72.3146
       730.60000  1.49041e-12      72.3742
       730.70000  1.49041e-12      72.4338
       730.80000  1.49041e-12      72.4934
       730.90000  1.49041e-12      72.5680
       731.00000  1.49041e-12      72.6425
       731.10000  1.49041e-12      72.6276
       731.20000  1.49041e-12      72.6127
       731.30000  1.47193e-12      71.6979
       731.40000  1.47193e-12      71.6979
       731.50000  1.11880e-12      54.4854
       731.60000  1.11880e-12      54.4742
       731.70000  1.11880e-12      54.4630
       731.80000  1.11880e-12      54.4630
       731.90000  1.11880e-12      54.4518
       732.00000  1.11880e-12      54.4406
       732.10000  1.11880e-12      54.4294
       732.20000  1.11880e-12      54.4183
       732.30000  1.11880e-12      54.4183
       732.40000  1.11880e-12      54.4071
       732.50000  1.52284e-12      74.0404
       732.60000  1.52284e-12      74.0252
       732.70000  1.52284e-12      74.0100
       732.80000  1.52284e-12      73.9948
       732.90000  1.52284e-12      73.9795
       733.00000  1.52284e-12      73.9643
       733.10000  1.52284e-12      73.9491
       733.20000  1.52284e-12      73.9186
       733.30000  1.52284e-12      73.9034
       733.40000  1.52284e-12      73.8729
       733.50000  5.92317e-12      287.273
       733.60000  5.92317e-12      287.214
       733.70000  5.92317e-12      287.096
       733.80000  5.84189e-12      283.098
       733.90000  5.84189e-12      283.040
       734.00000  5.84189e-12      282.981
       734.10000  5.84189e-12      282.923
       734.20000  5.84189e-12      282.864
       734.30000  5.84189e-12      282.806
       734.40000  5.84189e-12      282.806
       734.50000  2.54349e-12      123.105
       734.60000  2.54349e-12      123.079
       734.70000  2.54349e-12      123.079
       734.80000  2.54349e-12      123.054
       734.90000  2.54349e-12      123.054
       735.00000  2.54349e-12      123.028
       735.10000  2.54349e-12      123.028
       735.20000  2.54349e-12      123.028
       735.30000  2.54349e-12      123.028
       735.40000  2.54349e-12      123.003
       735.50000  4.89769e-12      236.852
       735.60000  4.89769e-12      236.852
       735.70000  4.89769e-12      236.852
       735.80000  4.89769e-12      236.901
       735.90000  4.89769e-12      236.901
       736.00000  4.89769e-12      236.901
       736.10000  4.89769e-12      236.901
       736.20000  4.89769e-12      236.950
       736.30000  4.82058e-12      233.220
       736.40000  4.82058e-12      233.268
       736.50000  1.27834e-12      61.8590
       736.60000  1.27834e-12      61.8718
       736.70000  1.27834e-12      61.8846
       736.80000  1.27834e-12      61.8846
       736.90000  1.27834e-12      61.8974
       737.00000  1.27834e-12      61.9101
       737.10000  1.27834e-12      61.8462
       737.20000  1.27834e-12      61.7695
       737.30000  1.27834e-12      61.7056
       737.40000  1.27834e-12      61.6417
       737.50000  3.70957e-12      178.653
       737.60000  3.70957e-12      178.467
       737.70000  3.70957e-12      178.282
       737.80000  3.70957e-12      178.097
       737.90000  3.70957e-12      177.948
       738.00000  3.70957e-12      177.763
       738.10000  3.70957e-12      177.577
       738.20000  3.70957e-12      177.392
       738.30000  3.70957e-12      177.243
       738.40000  3.70957e-12      177.095
       738.50000  3.97125e-12      189.389
       738.60000  3.97125e-12      189.230
       738.70000  3.97125e-12      189.071
       738.80000  3.90292e-12      185.662
       738.90000  3.90292e-12      185.506
       739.00000  3.90292e-12      185.350
       739.10000  3.90292e-12      185.037
       739.20000  3.90292e-12      184.764
       739.30000  3.90292e-12      184.530
       739.40000  3.90292e-12      184.296
       739.50000  1.52782e-12      72.0522
       739.60000  1.52782e-12      71.9758
       739.70000  1.52782e-12      71.9147
       739.80000  1.52782e-12      71.8383
       739.90000  1.52782e-12      71.7925
       740.00000  1.52782e-12      71.7314
       740.10000  1.52782e-12      71.7008
       740.20000  1.52782e-12      71.6550
       740.30000  1.52782e-12      71.6244
       740.40000  1.52782e-12      71.6091
       740.50000  1.26573e-12      59.3119
       740.60000  1.26573e-12      59.2992
       740.70000  1.26573e-12      59.2992
       740.80000  1.26573e-12      59.2992
       740.90000  1.26573e-12      59.3119
       741.00000  1.26573e-12      59.3246
       741.10000  1.26573e-12      59.3499
       741.20000  1.26573e-12      59.3752
       741.30000  1.24385e-12      58.3736
       741.40000  1.24385e-12      58.4110
       741.50000  1.37761e-12      64.7341
       741.60000  1.37761e-12      64.7892
       741.70000  1.37761e-12      64.8581
       741.80000  1.37761e-12      64.9132
       741.90000  1.37761e-12      64.9959
       742.00000  1.37761e-12      65.0647
       742.10000  1.37761e-12      65.1474
       742.20000  1.37761e-12      65.2438
       742.30000  1.37761e-12      65.3403
       742.40000  1.37761e-12      65.4367
       742.50000  1.37249e-13      6.53033
       742.60000  1.37249e-13      6.54131
       742.70000  1.37249e-13      6.55366
       742.80000  1.37249e-13      6.56601
       742.90000  1.37249e-13      6.57974
       743.00000  1.37249e-13      6.59346
       743.10000  1.37249e-13      6.59072
       743.20000  1.37249e-13      6.58935
       743.30000  1.37249e-13      6.58797
       743.40000  1.37249e-13      6.58523
       743.50000  1.20426e-12      57.7682
       743.60000  1.20426e-12      57.7561
       743.70000  1.20426e-12      57.7441
       743.80000  1.18567e-12      56.8410
       743.90000  1.18567e-12      56.8291
       744.00000  1.18567e-12      56.8173
       744.10000  1.18567e-12      56.8173
       744.20000  1.18567e-12      56.8054
       744.30000  1.18567e-12      56.8054
       744.40000  1.18567e-12      56.8054
       744.50000  1.40650e-12      67.3711
       744.60000  1.40650e-12      67.3711
       744.70000  1.40650e-12      67.3711
       744.80000  1.40650e-12      67.3711
       744.90000  1.40650e-12      67.3852
       745.00000  1.40650e-12      67.3852
       745.10000  1.40650e-12      67.4274
       745.20000  1.40650e-12      67.4696
       745.30000  1.40650e-12      67.4977
       745.40000  1.40650e-12      67.5399
       745.50000  5.37971e-12      258.441
       745.60000  5.37971e-12      258.549
       745.70000  5.37971e-12      258.656
       745.80000  5.37971e-12      258.764
       745.90000  5.37971e-12      258.818
       746.00000  5.37971e-12      258.925
       746.10000  5.37971e-12      258.979
       746.20000  5.37971e-12      259.033
       746.30000  5.31794e-12      256.112
       746.40000  5.31794e-12      256.165
       746.50000  3.96826e-12      191.191
       746.60000  3.96826e-12      191.191
       746.70000  3.96826e-12      191.230
       746.80000  3.96826e-12      191.230
       746.90000  3.96826e-12      191.230
       747.00000  3.96826e-12      191.230
       747.10000  3.96826e-12      191.111
       747.20000  3.96826e-12      191.032
       747.30000  3.96826e-12      190.953
       747.40000  3.96826e-12      190.873
       747.50000  9.63589e-13      46.3294
       747.60000  9.63589e-13      46.3101
       747.70000  9.63589e-13      46.2908
       747.80000  9.63589e-13      46.2715
       747.90000  9.63589e-13      46.2523
       748.00000  9.63589e-13      46.2330
       748.10000  9.63589e-13      46.2234
       748.20000  9.63589e-13      46.2041
       748.30000  9.63589e-13      46.1848
       748.40000  9.63589e-13      46.1752
       748.50000  1.55168e-12      74.3255
       748.60000  1.55168e-12      74.2945
       748.70000  1.55168e-12      74.2790
       748.80000  1.53396e-12      73.4001
       748.90000  1.53396e-12      73.3848
       749.00000  1.53396e-12      73.3694
       749.10000  1.53396e-12      73.3388
       749.20000  1.53396e-12      73.3234
       749.30000  1.53396e-12      73.3081
       749.40000  1.53396e-12      73.2927
       749.50000  3.35415e-12      160.228
       749.60000  3.35415e-12      160.194
       749.70000  3.35415e-12      160.127
       749.80000  3.35415e-12      160.094
       749.90000  3.35415e-12      160.094
       750.00000  3.35415e-12      160.060
       750.10000  3.35415e-12      160.027
       750.20000  3.35415e-12      159.993
       750.30000  3.35415e-12      159.960
       750.40000  3.35415e-12      159.960
       750.50000  8.49011e-13      40.4809
       750.60000  8.49011e-13      40.4724
       750.70000  8.49011e-13      40.4724
       750.80000  8.49011e-13      40.4639
       750.90000  8.49011e-13      40.4639
       751.00000  8.49011e-13      40.4554
       751.10000  8.49011e-13      40.4554
       751.20000  8.49011e-13      40.4554
       751.30000  8.38122e-13      39.9282
       751.40000  8.38122e-13      39.9282
       751.50000  3.78871e-13      18.0494
       751.60000  3.78871e-13      18.0494
       751.70000  3.78871e-13      18.0494
       751.80000  3.78871e-13      18.0494
       751.90000  3.78871e-13      18.0494
       752.00000  3.78871e-13      18.0494
       752.10000  3.78871e-13      18.0494
       752.20000  3.78871e-13      18.0494
       752.30000  3.78871e-13      18.0494
       752.40000  3.78871e-13      18.0494
       752.50000  7.97667e-13      38.0089
       752.60000  7.97667e-13      38.0089
       752.70000  7.97667e-13      38.0089
       752.80000  7.97667e-13      38.0168
       752.90000  7.97667e-13      38.0168
       753.00000  7.97667e-13      38.0248
       753.10000  7.97667e-13      38.0248
       753.20000  7.97667e-13      38.0248
       753.30000  7.97667e-13      38.0248
       753.40000  7.97667e-13      38.0248
       753.50000  1.32668e-13      6.32427
       753.60000  1.32668e-13      6.32427
       753.70000  1.32668e-13      6.32427
       753.80000  1.30800e-13      6.23525
       753.90000  1.30800e-13      6.23525
       754.00000  1.30800e-13      6.23525
       754.10000  1.30800e-13      6.23525
       754.20000  1.30800e-13      6.23394
       754.30000  1.30800e-13      6.23394
       754.40000  1.30800e-13      6.23394
       754.50000  3.05530e-12      145.616
       754.60000  3.05530e-12      145.616
       754.70000  3.05530e-12      145.585
       754.80000  3.05530e-12      145.585
       754.90000  3.05530e-12      145.555
       755.00000  3.05530e-12      145.555
       755.10000  3.05530e-12      145.524
       755.20000  3.05530e-12      145.524
       755.30000  3.05530e-12      145.494
       755.40000  3.05530e-12      145.494
       755.50000  3.98107e-12      189.539
       755.60000  3.98107e-12      189.499
       755.70000  3.98107e-12      189.499
       755.80000  3.98107e-12      189.459
       755.90000  3.98107e-12      189.419
       756.00000  3.98107e-12      189.419
       756.10000  3.98107e-12      189.380
       756.20000  3.98107e-12      189.340
       756.30000  3.92380e-12      186.577
       756.40000  3.92380e-12      186.577
       756.50000  4.95962e-13      23.5781
       756.60000  4.95962e-13      23.5731
       756.70000  4.95962e-13      23.5681
       756.80000  4.95962e-13      23.5681
       756.90000  4.95962e-13      23.5632
       757.00000  4.95962e-13      23.5582
       757.10000  4.95962e-13      23.5533
       757.20000  4.95962e-13      23.5483
       757.30000  4.95962e-13      23.5483
       757.40000  4.95962e-13      23.5433
       757.50000  1.26434e-13      6.00056
       757.60000  1.26434e-13      5.99930
       757.70000  1.26434e-13      5.99803
       757.80000  1.26434e-13      5.99677
       757.90000  1.26434e-13      5.99551
       758.00000  1.26434e-13      5.99551
       758.10000  1.26434e-13      5.99424
       758.20000  1.26434e-13      5.99298
       758.30000  1.26434e-13      5.99171
       758.40000  1.26434e-13      5.99045
       758.50000  2.62664e-12      124.424
       758.60000  2.62664e-12      124.398
       758.70000  2.62664e-12      124.372
       758.80000  2.58016e-12      122.145
       758.90000  2.58016e-12      122.119
       759.00000  2.58016e-12      122.093
       759.10000  2.58016e-12      122.093
       759.20000  2.58016e-12      122.068
       759.30000  2.58016e-12      122.068
       759.40000  2.58016e-12      122.042
       759.50000  3.08701e-12      146.015
       759.60000  3.08701e-12      146.015
       759.70000  3.08701e-12      145.985
       759.80000  3.08701e-12      145.985
       759.90000  3.08701e-12      145.985
       760.00000  3.08701e-12      145.985
       760.10000  3.08701e-12      145.985
       760.20000  3.08701e-12      145.985
       760.30000  3.08701e-12      146.015
       760.40000  3.08701e-12      146.015
       760.50000  2.65793e-12      125.720
       760.60000  2.65793e-12      125.747
       760.70000  2.65793e-12      125.747
       760.80000  2.65793e-12      125.773
       760.90000  2.65793e-12      125.773
       761.00000  2.65793e-12      125.800
       761.10000  2.65793e-12      125.906
       761.20000  2.65793e-12      125.986
       761.30000  2.60315e-12      123.467
       761.40000  2.60315e-12      123.546
       761.50000  6.19395e-13      29.4151
       761.60000  6.19395e-13      29.4275
       761.70000  6.19395e-13      29.4399
       761.80000  6.19395e-13      29.4522
       761.90000  6.19395e-13      29.4646
       762.00000  6.19395e-13      29.4708
       762.10000  6.19395e-13      29.4832
       762.20000  6.19395e-13      29.4894
       762.30000  6.19395e-13      29.4956
       762.40000  6.19395e-13      29.4956
       762.50000  6.68867e-13      31.8514
       762.60000  6.68867e-13      31.8581
       762.70000  6.68867e-13      31.8581
       762.80000  6.68867e-13      31.8514
       762.90000  6.68867e-13      31.8514
       763.00000  6.68867e-13      31.8447
       763.10000  6.68867e-13      31.8380
       763.20000  6.68867e-13      31.8314
       763.30000  6.68867e-13      31.8180
       763.40000  6.68867e-13      31.8046
       763.50000  2.75269e-12      130.835
       763.60000  2.75269e-12      130.780
       763.70000  2.75269e-12      130.725
       763.80000  2.68386e-12      127.376
       763.90000  2.68386e-12      127.296
       764.00000  2.68386e-12      127.215
       764.10000  2.68386e-12      127.135
       764.20000  2.68386e-12      127.027
       764.30000  2.68386e-12      126.920
       764.40000  2.68386e-12      126.813
       764.50000  1.94617e-12      91.8787
       764.60000  1.94617e-12      91.8008
       764.70000  1.94617e-12      91.7035
       764.80000  1.94617e-12      91.6062
       764.90000  1.94617e-12      91.5089
       765.00000  1.94617e-12      91.3921
       765.10000  1.94617e-12      91.1780
       765.20000  1.94617e-12      90.9640
       765.30000  1.94617e-12      90.7693
       765.40000  1.94617e-12      90.5747
       765.50000  1.12655e-12      52.3284
       765.60000  1.12655e-12      52.2382
       765.70000  1.12655e-12      52.1368
       765.80000  1.12655e-12      52.0580
       765.90000  1.12655e-12      51.9791
       766.00000  1.12655e-12      51.9003
       766.10000  1.12655e-12      51.8327
       766.20000  1.12655e-12      51.7651
       766.30000  1.09874e-12      50.4322
       766.40000  1.09874e-12      50.3883
       766.50000  1.05707e-13      4.84348
       766.60000  1.05707e-13      4.83926
       766.70000  1.05707e-13      4.83714
       766.80000  1.05707e-13      4.83397
       766.90000  1.05707e-13      4.83186
       767.00000  1.05707e-13      4.83080
       767.10000  1.05707e-13      4.83608
       767.20000  1.05707e-13      4.84243
       767.30000  1.05707e-13      4.84771
       767.40000  1.05707e-13      4.85300
       767.50000  3.03471e-13      13.9475
       767.60000  3.03471e-13      13.9627
       767.70000  3.03471e-13      13.9779
       767.80000  3.03471e-13      13.9900
       767.90000  3.03471e-13      14.0052
       768.00000  3.03471e-13      14.0173
       768.10000  3.03471e-13      14.0295
       768.20000  3.03471e-13      14.0416
       768.30000  3.03471e-13      14.0507
       768.40000  3.03471e-13      14.0629
       768.50000  4.97973e-13      23.0910
       768.60000  4.97973e-13      23.1059
       768.70000  4.97973e-13      23.1209
       768.80000  4.86648e-13      22.6097
       768.90000  4.86648e-13      22.6243
       769.00000  4.86648e-13      22.6340
       769.10000  4.86648e-13      22.6486
       769.20000  4.86648e-13      22.6583
       769.30000  4.86648e-13      22.6681
       769.40000  4.86648e-13      22.6778
       769.50000  4.03361e-13      18.8006
       769.60000  4.03361e-13      18.8087
       769.70000  4.03361e-13      18.8127
       769.80000  4.03361e-13      18.8208
       769.90000  4.03361e-13      18.8248
       770.00000  4.03361e-13      18.8248
       770.10000  4.03361e-13      18.8289
       770.20000  4.03361e-13      18.8329
       770.30000  4.03361e-13      18.8329
       770.40000  4.03361e-13      18.8329
       770.50000  5.44596e-13      25.4272
       770.60000  5.44596e-13      25.4272
       770.70000  5.44596e-13      25.4272
       770.80000  5.44596e-13      25.4272
       770.90000  5.44596e-13      25.4217
       771.00000  5.44596e-13      25.4163
       771.10000  5.44596e-13      25.4381
       771.20000  5.44596e-13      25.4544
       771.30000  5.34329e-13      24.9906
       771.40000  5.34329e-13      25.0066
       771.50000  2.53733e-12      118.823
       771.60000  2.53733e-12      118.874
       771.70000  2.53733e-12      118.950
       771.80000  2.53733e-12      119.001
       771.90000  2.53733e-12      119.026
       772.00000  2.53733e-12      119.077
       772.10000  2.53733e-12      119.102
       772.20000  2.53733e-12      119.128
       772.30000  2.53733e-12      119.153
       772.40000  2.53733e-12      119.179
       772.50000  1.53498e-12      72.0979
       772.60000  1.53498e-12      72.0979
       772.70000  1.53498e-12      72.0979
       772.80000  1.53498e-12      72.0825
       772.90000  1.53498e-12      72.0825
       773.00000  1.53498e-12      72.0671
       773.10000  1.53498e-12      71.9751
       773.20000  1.53498e-12      71.8983
       773.30000  1.53498e-12      71.8062
       773.40000  1.53498e-12      71.7295
       773.50000  4.91179e-12      229.282
       773.60000  4.91179e-12      229.086
       773.70000  4.91179e-12      228.890
       773.80000  4.83513e-12      225.123
       773.90000  4.83513e-12      224.930
       774.00000  4.83513e-12      224.737
       774.10000  4.83513e-12      224.592
       774.20000  4.83513e-12      224.447
       774.30000  4.83513e-12      224.350
       774.40000  4.83513e-12      224.205
       774.50000  2.70659e-12      125.450
       774.60000  2.70659e-12      125.423
       774.70000  2.70659e-12      125.369
       774.80000  2.70659e-12      125.342
       774.90000  2.70659e-12      125.315
       775.00000  2.70659e-12      125.288
       775.10000  2.70659e-12      125.288
       775.20000  2.70659e-12      125.288
       775.30000  2.70659e-12      125.288
       775.40000  2.70659e-12      125.288
       775.50000  2.25231e-12      104.282
       775.60000  2.25231e-12      104.304
       775.70000  2.25231e-12      104.327
       775.80000  2.25231e-12      104.349
       775.90000  2.25231e-12      104.394
       776.00000  2.25231e-12      104.439
       776.10000  2.25231e-12      104.485
       776.20000  2.25231e-12      104.552
       776.30000  2.21970e-12      103.105
       776.40000  2.21970e-12      103.172
       776.50000  2.06804e-12      96.1845
       776.60000  2.06804e-12      96.2673
       776.70000  2.06804e-12      96.3500
       776.80000  2.06804e-12      96.4327
       776.90000  2.06804e-12      96.5361
       777.00000  2.06804e-12      96.6188
       777.10000  2.06804e-12      96.5775
       777.20000  2.06804e-12      96.5568
       777.30000  2.06804e-12      96.5154
       777.40000  2.06804e-12      96.4741
       777.50000  1.94836e-12      90.8521
       777.60000  1.94836e-12      90.8326
       777.70000  1.94836e-12      90.7937
       777.80000  1.94836e-12      90.7742
       777.90000  1.94836e-12      90.7547
       778.00000  1.94836e-12      90.7157
       778.10000  1.94836e-12      90.6963
       778.20000  1.94836e-12      90.6768
       778.30000  1.94836e-12      90.6573
       778.40000  1.94836e-12      90.6378
       778.50000  2.81597e-12      130.999
       778.60000  2.81597e-12      130.971
       778.70000  2.81597e-12      130.943
       778.80000  2.78422e-12      129.466
       778.90000  2.78422e-12      129.466
       779.00000  2.78422e-12      129.438
       779.10000  2.78422e-12      129.494
       779.20000  2.78422e-12      129.522
       779.30000  2.78422e-12      129.578
       779.40000  2.78422e-12      129.605
       779.50000  3.44003e-13      16.0168
       779.60000  3.44003e-13      16.0202
       779.70000  3.44003e-13      16.0236
       779.80000  3.44003e-13      16.0271
       779.90000  3.44003e-13      16.0305
       780.00000  3.44003e-13      16.0340
       780.10000  3.44003e-13      16.0340
       780.20000  3.44003e-13      16.0374
       780.30000  3.44003e-13      16.0374
       780.40000  3.44003e-13      16.0374
       780.50000  1.08436e-12      50.5527
       780.60000  1.08436e-12      50.5527
       780.70000  1.08436e-12      50.5527
       780.80000  1.08436e-12      50.5527
       780.90000  1.08436e-12      50.5527
       781.00000  1.08436e-12      50.5419
       781.10000  1.08436e-12      50.5419
       781.20000  1.08436e-12      50.5310
       781.30000  1.07458e-12      50.0645
       781.40000  1.07458e-12      50.0537
       781.50000  4.38498e-12      204.208
       781.60000  4.38498e-12      204.164
       781.70000  4.38498e-12      204.121
       781.80000  4.38498e-12      204.077
       781.90000  4.38498e-12      203.989
       782.00000  4.38498e-12      203.945
       782.10000  4.38498e-12      203.858
       782.20000  4.38498e-12      203.770
       782.30000  4.38498e-12      203.726
       782.40000  4.38498e-12      203.638
       782.50000  3.50667e-12      162.780
       782.60000  3.50667e-12      162.674
       782.70000  3.50667e-12      162.604
       782.80000  3.50667e-12      162.534
       782.90000  3.50667e-12      162.429
       783.00000  3.50667e-12      162.359
       783.10000  3.50667e-12      162.429
       783.20000  3.50667e-12      162.499
       783.30000  3.50667e-12      162.569
       783.40000  3.50667e-12      162.604
       783.50000  3.53252e-12      163.874
       783.60000  3.53252e-12      163.944
       783.70000  3.53252e-12      163.980
       783.80000  3.50030e-12      162.554
       783.90000  3.50030e-12      162.624
       784.00000  3.50030e-12      162.659
       784.10000  3.50030e-12      162.694
       784.20000  3.50030e-12      162.764
       784.30000  3.50030e-12      162.799
       784.40000  3.50030e-12      162.834
       784.50000  2.54536e-12      118.436
       784.60000  2.54536e-12      118.461
       784.70000  2.54536e-12      118.487
       784.80000  2.54536e-12      118.512
       784.90000  2.54536e-12      118.538
       785.00000  2.54536e-12      118.538
       785.10000  2.54536e-12      118.538
       785.20000  2.54536e-12      118.538
       785.30000  2.54536e-12      118.538
       785.40000  2.54536e-12      118.538
       785.50000  2.39409e-12      111.493
       785.60000  2.39409e-12      111.493
       785.70000  2.39409e-12      111.493
       785.80000  2.39409e-12      111.493
       785.90000  2.39409e-12      111.493
       786.00000  2.39409e-12      111.493
       786.10000  2.39409e-12      111.493
       786.20000  2.39409e-12      111.493
       786.30000  2.36589e-12      110.180
       786.40000  2.36589e-12      110.180
       786.50000  5.25870e-12      244.898
       786.60000  5.25870e-12      244.898
       786.70000  5.25870e-12      244.898
       786.80000  5.25870e-12      244.898
       786.90000  5.25870e-12      244.898
       787.00000  5.25870e-12      244.898
       787.10000  5.25870e-12      244.898
       787.20000  5.25870e-12      244.898
       787.30000  5.25870e-12      244.898
       787.40000  5.25870e-12      244.898
       787.50000  2.10479e-12      98.0199
       787.60000  2.10479e-12      98.0199
       787.70000  2.10479e-12      98.0199
       787.80000  2.10479e-12      98.0199
       787.90000  2.10479e-12      98.0199
       788.00000  2.10479e-12      98.0199
       788.10000  2.10479e-12      98.0199
       788.20000  2.10479e-12      98.0199
       788.30000  2.10479e-12      98.0199
       788.40000  2.10479e-12      98.0199
       788.50000  3.11559e-12      145.093
       788.60000  3.11559e-12      145.093
       788.70000  3.11559e-12      145.093
       788.80000  3.07762e-12      143.325
       788.90000  3.07762e-12      143.325
       789.00000  3.07762e-12      143.325
       789.10000  3.07762e-12      143.263
       789.20000  3.07762e-12      143.171
       789.30000  3.07762e-12      143.078
       789.40000  3.07762e-12      143.017
       789.50000  2.71459e-12      126.065
       789.60000  2.71459e-12      125.984
       789.70000  2.71459e-12      125.930
       789.80000  2.71459e-12      125.848
       789.90000  2.71459e-12      125.767
       790.00000  2.71459e-12      125.713
       790.10000  2.71459e-12      125.631
       790.20000  2.71459e-12      125.577
       790.30000  2.71459e-12      125.495
       790.40000  2.71459e-12      125.441
       790.50000  4.88127e-12      225.417
       790.60000  4.88127e-12      225.271
       790.70000  4.88127e-12      225.173
       790.80000  4.88127e-12      225.027
       790.90000  4.88127e-12      224.929
       791.00000  4.88127e-12      224.783
       791.10000  4.88127e-12      224.636
       791.20000  4.88127e-12      224.539
       791.30000  4.80739e-12      220.996
       791.40000  4.80739e-12      220.851
       791.50000  3.50809e-12      161.057
       791.60000  3.50809e-12      160.951
       791.70000  3.50809e-12      160.881
       791.80000  3.50809e-12      160.776
       791.90000  3.50809e-12      160.706
       792.00000  3.50809e-12      160.601
       792.10000  3.50809e-12      160.530
       792.20000  3.50809e-12      160.460
       792.30000  3.50809e-12      160.355
       792.40000  3.50809e-12      160.285
       792.50000  1.64670e-12      75.2048
       792.60000  1.64670e-12      75.1719
       792.70000  1.64670e-12      75.1389
       792.80000  1.64670e-12      75.1060
       792.90000  1.64670e-12      75.0731
       793.00000  1.64670e-12      75.0401
       793.10000  1.64670e-12      74.9907
       793.20000  1.64670e-12      74.9249
       793.30000  1.64670e-12      74.8755
       793.40000  1.64670e-12      74.8260
       793.50000  5.78969e-12      262.910
       793.60000  5.78969e-12      262.794
       793.70000  5.78969e-12      262.621
       793.80000  5.68954e-12      258.021
       793.90000  5.68954e-12      257.907
       794.00000  5.68954e-12      257.850
       794.10000  5.68954e-12      257.736
       794.20000  5.68954e-12      257.736
       794.30000  5.68954e-12      257.679
       794.40000  5.68954e-12      257.679
       794.50000  3.76748e-12      170.629
       794.60000  3.76748e-12      170.629
       794.70000  3.76748e-12      170.667
       794.80000  3.76748e-12      170.667
       794.90000  3.76748e-12      170.705
       795.00000  3.76748e-12      170.780
       795.10000  3.76748e-12      171.044
       795.20000  3.76748e-12      171.307
       795.30000  3.76748e-12      171.571
       795.40000  3.76748e-12      171.835
       795.50000  6.37820e-12      291.293
       795.60000  6.37820e-12      291.675
       795.70000  6.37820e-12      291.994
       795.80000  6.37820e-12      292.313
       795.90000  6.37820e-12      292.632
       796.00000  6.37820e-12      292.887
       796.10000  6.37820e-12      293.142
       796.20000  6.37820e-12      293.397
       796.30000  6.24473e-12      287.445
       796.40000  6.24473e-12      287.632
       796.50000  3.22079e-12      148.446
       796.60000  3.22079e-12      148.510
       796.70000  3.22079e-12      148.575
       796.80000  3.22079e-12      148.607
       796.90000  3.22079e-12      148.639
       797.00000  3.22079e-12      148.672
       797.10000  3.22079e-12      148.704
       797.20000  3.22079e-12      148.704
       797.30000  3.22079e-12      148.704
       797.40000  3.22079e-12      148.672
       797.50000  2.93594e-12      135.494
       797.60000  2.93594e-12      135.464
       797.70000  2.93594e-12      135.405
       797.80000  2.93594e-12      135.347
       797.90000  2.93594e-12      135.288
       798.00000  2.93594e-12      135.200
       798.10000  2.93594e-12      135.112
       798.20000  2.93594e-12      135.024
       798.30000  2.93594e-12      134.906
       798.40000  2.93594e-12      134.789
       798.50000  4.32659e-12      198.461
       798.60000  4.32659e-12      198.244
       798.70000  4.32659e-12      198.028
       798.80000  4.22587e-12      193.207
       798.90000  4.22587e-12      192.953
       799.00000  4.22587e-12      192.700
       799.10000  4.22587e-12      192.826
       799.20000  4.22587e-12      192.995
       799.30000  4.22587e-12      193.164
       799.40000  4.22587e-12      193.291
       799.50000  5.76917e-12      264.055
       799.60000  5.76917e-12      264.228
       799.70000  5.76917e-12      264.401
       799.80000  5.76917e-12      264.517
       799.90000  5.76917e-12      264.632
       800.00000  5.76917e-12      264.747
       800.10000  5.76917e-12      264.863
       800.20000  5.76917e-12      264.978
       800.30000  5.76917e-12      265.093
       800.40000  5.76917e-12      265.151
       800.50000  5.27777e-12      242.619
       800.60000  5.27777e-12      242.672
       800.70000  5.27777e-12      242.672
       800.80000  5.27777e-12      242.725
       800.90000  5.27777e-12      242.725
       801.00000  5.27777e-12      242.725
       801.10000  5.27777e-12      242.619
       801.20000  5.27777e-12      242.514
       801.30000  5.15611e-12      236.820
       801.40000  5.15611e-12      236.717
       801.50000  3.30184e-12      151.521
       801.60000  3.30184e-12      151.455
       801.70000  3.30184e-12      151.389
       801.80000  3.30184e-12      151.323
       801.90000  3.30184e-12      151.257
       802.00000  3.30184e-12      151.191
       802.10000  3.30184e-12      151.125
       802.20000  3.30184e-12      151.059
       802.30000  3.30184e-12      150.993
       802.40000  3.30184e-12      150.927
       802.50000  2.58807e-12      118.249
       802.60000  2.58807e-12      118.197
       802.70000  2.58807e-12      118.145
       802.80000  2.58807e-12      118.068
       802.90000  2.58807e-12      118.016
       803.00000  2.58807e-12      117.964
       803.10000  2.58807e-12      117.912
       803.20000  2.58807e-12      117.861
       803.30000  2.58807e-12      117.809
       803.40000  2.58807e-12      117.731
       803.50000  4.97259e-12      226.104
       803.60000  4.97259e-12      226.004
       803.70000  4.97259e-12      225.905
       803.80000  4.85606e-12      220.513
       803.90000  4.85606e-12      220.368
       804.00000  4.85606e-12      220.271
       804.10000  4.85606e-12      220.174
       804.20000  4.85606e-12      220.076
       804.30000  4.85606e-12      219.931
       804.40000  4.85606e-12      219.834
       804.50000  4.89907e-12      221.683
       804.60000  4.89907e-12      221.536
       804.70000  4.89907e-12      221.438
       804.80000  4.89907e-12      221.340
       804.90000  4.89907e-12      221.193
       805.00000  4.89907e-12      221.095
       805.10000  4.89907e-12      221.291
       805.20000  4.89907e-12      221.536
       805.30000  4.89907e-12      221.683
       805.40000  4.89907e-12      221.879
       805.50000  5.00160e-12      226.672
       805.60000  5.00160e-12      226.822
       805.70000  5.00160e-12      226.972
       805.80000  5.00160e-12      227.072
       805.90000  5.00160e-12      227.173
       806.00000  5.00160e-12      227.273
       806.10000  5.00160e-12      227.323
       806.20000  5.00160e-12      227.373
       806.30000  4.87639e-12      221.730
       806.40000  4.87639e-12      221.778
       806.50000  3.36163e-12      152.887
       806.60000  3.36163e-12      152.887
       806.70000  3.36163e-12      152.853
       806.80000  3.36163e-12      152.853
       806.90000  3.36163e-12      152.820
       807.00000  3.36163e-12      152.753
       807.10000  3.36163e-12      152.484
       807.20000  3.36163e-12      152.181
       807.30000  3.36163e-12      151.912
       807.40000  3.36163e-12      151.677
       807.50000  1.79692e-12      80.9514
       807.60000  1.79692e-12      80.8256
       807.70000  1.79692e-12      80.7178
       807.80000  1.79692e-12      80.6279
       807.90000  1.79692e-12      80.5381
       808.00000  1.79692e-12      80.4482
       808.10000  1.79692e-12      80.3764
       808.20000  1.79692e-12      80.3045
       808.30000  1.79692e-12      80.2326
       808.40000  1.79692e-12      80.1787
       808.50000  3.36572e-12      150.111
       808.60000  3.36572e-12      150.044
       808.70000  3.36572e-12      149.977
       808.80000  3.28180e-12      146.204
       808.90000  3.28180e-12      146.171
       809.00000  3.28180e-12      146.171
       809.10000  3.28180e-12      146.171
       809.20000  3.28180e-12      146.204
       809.30000  3.28180e-12      146.237
       809.40000  3.28180e-12      146.270
       809.50000  5.17069e-12      230.561
       809.60000  5.17069e-12      230.716
       809.70000  5.17069e-12      230.871
       809.80000  5.17069e-12      231.026
       809.90000  5.17069e-12      231.233
       810.00000  5.17069e-12      231.440
       810.10000  5.17069e-12      231.699
       810.20000  5.17069e-12      231.957
       810.30000  5.17069e-12      232.216
       810.40000  5.17069e-12      232.526
       810.50000  6.29303e-12      283.438
       810.60000  6.29303e-12      283.816
       810.70000  6.29303e-12      284.319
       810.80000  6.29303e-12      284.823
       810.90000  6.29303e-12      285.326
       811.00000  6.29303e-12      285.892
       811.10000  6.29303e-12      285.955
       811.20000  6.29303e-12      286.081
       811.30000  6.13391e-12      278.909
       811.40000  6.13391e-12      279.032
       811.50000  1.83247e-12      83.3772
       811.60000  1.83247e-12      83.3955
       811.70000  1.83247e-12      83.4138
       811.80000  1.83247e-12      83.4322
       811.90000  1.83247e-12      83.4505
       812.00000  1.83247e-12      83.4688
       812.10000  1.83247e-12      83.4688
       812.20000  1.83247e-12      83.4871
       812.30000  1.83247e-12      83.5055
       812.40000  1.83247e-12      83.5055
       812.50000  2.16629e-12      98.7179
       812.60000  2.16629e-12      98.7396
       812.70000  2.16629e-12      98.7396
       812.80000  2.16629e-12      98.7396
       812.90000  2.16629e-12      98.7396
       813.00000  2.16629e-12      98.7396
       813.10000  2.16629e-12      98.6962
       813.20000  2.16629e-12      98.6746
       813.30000  2.16629e-12      98.6312
       813.40000  2.16629e-12      98.6096
       813.50000  2.73616e-12      124.495
       813.60000  2.73616e-12      124.468
       813.70000  2.73616e-12      124.441
       813.80000  2.66960e-12      121.387
       813.90000  2.66960e-12      121.360
       814.00000  2.66960e-12      121.307
       814.10000  2.66960e-12      121.280
       814.20000  2.66960e-12      121.253
       814.30000  2.66960e-12      121.227
       814.40000  2.66960e-12      121.227
       814.50000  1.62913e-12      73.9626
       814.60000  1.62913e-12      73.9464
       814.70000  1.62913e-12      73.9301
       814.80000  1.62913e-12      73.9138
       814.90000  1.62913e-12      73.9138
       815.00000  1.62913e-12      73.8975
       815.10000  1.62913e-12      73.9626
       815.20000  1.62913e-12      74.0115
       815.30000  1.62913e-12      74.0604
       815.40000  1.62913e-12      74.0930
       815.50000  3.88714e-12      176.904
       815.60000  3.88714e-12      176.943
       815.70000  3.88714e-12      177.021
       815.80000  3.88714e-12      177.021
       815.90000  3.88714e-12      177.059
       816.00000  3.88714e-12      177.059
       816.10000  3.88714e-12      177.059
       816.20000  3.88714e-12      177.021
       816.30000  3.78944e-12      172.533
       816.40000  3.78944e-12      172.495
       816.50000  4.36221e-12      198.481
       816.60000  4.36221e-12      198.393
       816.70000  4.36221e-12      198.262
       816.80000  4.36221e-12      198.132
       816.90000  4.36221e-12      198.001
       817.00000  4.36221e-12      197.826
       817.10000  4.36221e-12      197.216
       817.20000  4.36221e-12      196.648
       817.30000  4.36221e-12      196.125
       817.40000  4.36221e-12      195.602
       817.50000  3.88199e-12      173.641
       817.60000  3.88199e-12      173.253
       817.70000  3.88199e-12      172.865
       817.80000  3.88199e-12      172.477
       817.90000  3.88199e-12      172.166
       818.00000  3.88199e-12      171.817
       818.10000  3.88199e-12      171.545
       818.20000  3.88199e-12      171.273
       818.30000  3.88199e-12      171.002
       818.40000  3.88199e-12      170.808
       818.50000  1.56795e-12      68.8957
       818.60000  1.56795e-12      68.8330
       818.70000  1.56795e-12      68.7703
       818.80000  1.52823e-12      66.9669
       818.90000  1.52823e-12      66.9363
       819.00000  1.52823e-12      66.8905
       819.10000  1.52823e-12      66.8752
       819.20000  1.52823e-12      66.8599
       819.30000  1.52823e-12      66.8446
       819.40000  1.52823e-12      66.8446
       819.50000  3.33314e-12      145.825
       819.60000  3.33314e-12      145.858
       819.70000  3.33314e-12      145.925
       819.80000  3.33314e-12      146.025
       819.90000  3.33314e-12      146.125
       820.00000  3.33314e-12      146.258
       820.10000  3.33314e-12      146.392
       820.20000  3.33314e-12      146.558
       820.30000  3.33314e-12      146.758
       820.40000  3.33314e-12      146.958
       820.50000  1.56305e-12      69.0244
       820.60000  1.56305e-12      69.1338
       820.70000  1.56305e-12      69.2588
       820.80000  1.56305e-12      69.3839
       820.90000  1.56305e-12      69.5246
       821.00000  1.56305e-12      69.6809
       821.10000  1.56305e-12      69.6496
       821.20000  1.56305e-12      69.6340
       821.30000  1.52700e-12      67.9975
       821.40000  1.52700e-12      67.9822
       821.50000  3.12978e-12      139.275
       821.60000  3.12978e-12      139.244
       821.70000  3.12978e-12      139.213
       821.80000  3.12978e-12      139.150
       821.90000  3.12978e-12      139.119
       822.00000  3.12978e-12      139.087
       822.10000  3.12978e-12      139.087
       822.20000  3.12978e-12      139.056
       822.30000  3.12978e-12      139.025
       822.40000  3.12978e-12      139.025
       822.50000  2.57741e-12      114.463
       822.60000  2.57741e-12      114.463
       822.70000  2.57741e-12      114.437
       822.80000  2.57741e-12      114.437
       822.90000  2.57741e-12      114.437
       823.00000  2.57741e-12      114.437
       823.10000  2.57741e-12      114.437
       823.20000  2.57741e-12      114.437
       823.30000  2.57741e-12      114.437
       823.40000  2.57741e-12      114.437
       823.50000  2.72788e-12      121.145
       823.60000  2.72788e-12      121.145
       823.70000  2.72788e-12      121.173
       823.80000  2.66724e-12      118.479
       823.90000  2.66724e-12      118.506
       824.00000  2.66724e-12      118.532
       824.10000  2.66724e-12      118.559
       824.20000  2.66724e-12      118.586
       824.30000  2.66724e-12      118.612
       824.40000  2.66724e-12      118.666
       824.50000  2.90408e-12      129.231
       824.60000  2.90408e-12      129.289
       824.70000  2.90408e-12      129.318
       824.80000  2.90408e-12      129.377
       824.90000  2.90408e-12      129.435
       825.00000  2.90408e-12      129.493
       825.10000  2.90408e-12      129.551
       825.20000  2.90408e-12      129.609
       825.30000  2.90408e-12      129.696
       825.40000  2.90408e-12      129.754
       825.50000  2.51543e-12      112.465
       825.60000  2.51543e-12      112.515
       825.70000  2.51543e-12      112.591
       825.80000  2.51543e-12      112.666
       825.90000  2.51543e-12      112.742
       826.00000  2.51543e-12      112.817
       826.10000  2.51543e-12      112.892
       826.20000  2.51543e-12      112.943
       826.30000  2.46423e-12      110.718
       826.40000  2.46423e-12      110.767
       826.50000  3.89817e-12      175.262
       826.60000  3.89817e-12      175.340
       826.70000  3.89817e-12      175.418
       826.80000  3.89817e-12      175.457
       826.90000  3.89817e-12      175.496
       827.00000  3.89817e-12      175.535
       827.10000  3.89817e-12      175.535
       827.20000  3.89817e-12      175.574
       827.30000  3.89817e-12      175.574
       827.40000  3.89817e-12      175.574
       827.50000  3.80111e-12      171.202
       827.60000  3.80111e-12      171.202
       827.70000  3.80111e-12      171.164
       827.80000  3.80111e-12      171.126
       827.90000  3.80111e-12      171.088
       828.00000  3.80111e-12      171.050
       828.10000  3.80111e-12      170.936
       828.20000  3.80111e-12      170.784
       828.30000  3.80111e-12      170.632
       828.40000  3.80111e-12      170.480
       828.50000  1.73688e-12      77.8468
       828.60000  1.73688e-12      77.7774
       828.70000  1.73688e-12      77.7252
       828.80000  1.70277e-12      76.1480
       828.90000  1.70277e-12      76.0799
       829.00000  1.70277e-12      76.0288
       829.10000  1.70277e-12      75.9777
       829.20000  1.70277e-12      75.9266
       829.30000  1.70277e-12      75.8755
       829.40000  1.70277e-12      75.8245
       829.50000  3.06475e-12      136.382
       829.60000  3.06475e-12      136.290
       829.70000  3.06475e-12      136.198
       829.80000  3.06475e-12      136.106
       829.90000  3.06475e-12      136.044
       830.00000  3.06475e-12      135.952
       830.10000  3.06475e-12      135.891
       830.20000  3.06475e-12      135.799
       830.30000  3.06475e-12      135.738
       830.40000  3.06475e-12      135.646
       830.50000  2.51861e-12      111.423
       830.60000  2.51861e-12      111.373
       830.70000  2.51861e-12      111.298
       830.80000  2.51861e-12      111.247
       830.90000  2.51861e-12      111.197
       831.00000  2.51861e-12      111.146
       831.10000  2.51861e-12      111.096
       831.20000  2.51861e-12      111.046
       831.30000  2.46843e-12      108.808
       831.40000  2.46843e-12      108.759
       831.50000  2.31024e-12      101.743
       831.60000  2.31024e-12      101.720
       831.70000  2.31024e-12      101.674
       831.80000  2.31024e-12      101.627
       831.90000  2.31024e-12      101.604
       832.00000  2.31024e-12      101.581
       832.10000  2.31024e-12      101.489
       832.20000  2.31024e-12      101.396
       832.30000  2.31024e-12      101.327
       832.40000  2.31024e-12      101.258
       832.50000  2.03801e-12      89.2649
       832.60000  2.03801e-12      89.2242
       832.70000  2.03801e-12      89.1834
       832.80000  2.03801e-12      89.1222
       832.90000  2.03801e-12      89.1019
       833.00000  2.03801e-12      89.0611
       833.10000  2.03801e-12      89.0204
       833.20000  2.03801e-12      89.0000
       833.30000  2.03801e-12      88.9796
       833.40000  2.03801e-12      88.9592
       833.50000  1.38578e-12      60.4894
       833.60000  1.38578e-12      60.4756
       833.70000  1.38578e-12      60.4756
       833.80000  1.35992e-12      59.3470
       833.90000  1.35992e-12      59.3606
       834.00000  1.35992e-12      59.3606
       834.10000  1.35992e-12      59.4286
       834.20000  1.35992e-12      59.4830
       834.30000  1.35992e-12      59.5509
       834.40000  1.35992e-12      59.6053
       834.50000  2.37538e-12      104.208
       834.60000  2.37538e-12      104.303
       834.70000  2.37538e-12      104.374
       834.80000  2.37538e-12      104.445
       834.90000  2.37538e-12      104.540
       835.00000  2.37538e-12      104.612
       835.10000  2.37538e-12      104.659
       835.20000  2.37538e-12      104.730
       835.30000  2.37538e-12      104.778
       835.40000  2.37538e-12      104.825
       835.50000  1.39503e-12      61.5907
       835.60000  1.39503e-12      61.6186
       835.70000  1.39503e-12      61.6325
       835.80000  1.39503e-12      61.6604
       835.90000  1.39503e-12      61.6744
       836.00000  1.39503e-12      61.6883
       836.10000  1.39503e-12      61.6604
       836.20000  1.39503e-12      61.6465
       836.30000  1.37248e-12      60.6227
       836.40000  1.37248e-12      60.6089
       836.50000  9.63757e-13      42.5499
       836.60000  9.63757e-13      42.5306
       836.70000  9.63757e-13      42.5210
       836.80000  9.63757e-13      42.5113
       836.90000  9.63757e-13      42.4921
       837.00000  9.63757e-13      42.4824
       837.10000  9.63757e-13      42.4728
       837.20000  9.63757e-13      42.4632
       837.30000  9.63757e-13      42.4535
       837.40000  9.63757e-13      42.4439
       837.50000  2.47210e-12      108.847
       837.60000  2.47210e-12      108.822
       837.70000  2.47210e-12      108.797
       837.80000  2.47210e-12      108.773
       837.90000  2.47210e-12      108.773
       838.00000  2.47210e-12      108.748
       838.10000  2.47210e-12      108.723
       838.20000  2.47210e-12      108.723
       838.30000  2.47210e-12      108.723
       838.40000  2.47210e-12      108.723
       838.50000  1.92149e-12      84.4880
       838.60000  1.92149e-12      84.4880
       838.70000  1.92149e-12      84.4880
       838.80000  1.89324e-12      83.2269
       838.90000  1.89324e-12      83.2269
       839.00000  1.89324e-12      83.2269
       839.10000  1.89324e-12      83.2080
       839.20000  1.89324e-12      83.2080
       839.30000  1.89324e-12      83.2080
       839.40000  1.89324e-12      83.1890
       839.50000  2.27750e-12      100.073
       839.60000  2.27750e-12      100.073
       839.70000  2.27750e-12      100.051
       839.80000  2.27750e-12      100.051
       839.90000  2.27750e-12      100.051
       840.00000  2.27750e-12      100.028
       840.10000  2.27750e-12      100.028
       840.20000  2.27750e-12      100.028
       840.30000  2.27750e-12      100.005
       840.40000  2.27750e-12      100.005
       840.50000  2.45952e-12      107.997
       840.60000  2.45952e-12      107.973
       840.70000  2.45952e-12      107.973
       840.80000  2.45952e-12      107.973
       840.90000  2.45952e-12      107.948
       841.00000  2.45952e-12      107.948
       841.10000  2.45952e-12      107.948
       841.20000  2.45952e-12      107.948
       841.30000  2.41969e-12      106.176
       841.40000  2.41969e-12      106.176
       841.50000  1.76469e-12      77.4346
       841.60000  1.76469e-12      77.4170
       841.70000  1.76469e-12      77.4170
       841.80000  1.76469e-12      77.4170
       841.90000  1.76469e-12      77.3993
       842.00000  1.76469e-12      77.3993
       842.10000  1.76469e-12      77.3287
       842.20000  1.76469e-12      77.2758
       842.30000  1.76469e-12      77.2229
       842.40000  1.76469e-12      77.1523
       842.50000  2.96045e-12      129.342
       842.60000  2.96045e-12      129.283
       842.70000  2.96045e-12      129.194
       842.80000  2.96045e-12      129.135
       842.90000  2.96045e-12      129.046
       843.00000  2.96045e-12      128.987
       843.10000  2.96045e-12      128.928
       843.20000  2.96045e-12      128.868
       843.30000  2.96045e-12      128.839
       843.40000  2.96045e-12      128.780
       843.50000  2.31049e-12      100.483
       843.60000  2.31049e-12      100.460
       843.70000  2.31049e-12      100.437
       843.80000  2.27019e-12      98.6626
       843.90000  2.27019e-12      98.6626
       844.00000  2.27019e-12      98.6399
       844.10000  2.27019e-12      98.7080
       844.20000  2.27019e-12      98.7534
       844.30000  2.27019e-12      98.7988
       844.40000  2.27019e-12      98.8442
       844.50000  2.60421e-12      113.439
       844.60000  2.60421e-12      113.491
       844.70000  2.60421e-12      113.517
       844.80000  2.60421e-12      113.569
       844.90000  2.60421e-12      113.595
       845.00000  2.60421e-12      113.648
       845.10000  2.60421e-12      113.674
       845.20000  2.60421e-12      113.700
       845.30000  2.60421e-12      113.752
       845.40000  2.60421e-12      113.778
       845.50000  2.00888e-12      87.7679
       845.60000  2.00888e-12      87.7880
       845.70000  2.00888e-12      87.8081
       845.80000  2.00888e-12      87.8282
       845.90000  2.00888e-12      87.8282
       846.00000  2.00888e-12      87.8483
       846.10000  2.00888e-12      87.8483
       846.20000  2.00888e-12      87.8483
       846.30000  1.97127e-12      86.2036
       846.40000  1.97127e-12      86.2234
       846.50000  1.56475e-12      68.4421
       846.60000  1.56475e-12      68.4264
       846.70000  1.56475e-12      68.4264
       846.80000  1.56475e-12      68.4264
       846.90000  1.56475e-12      68.4108
       847.00000  1.56475e-12      68.4108
       847.10000  1.56475e-12      68.3951
       847.20000  1.56475e-12      68.3951
       847.30000  1.56475e-12      68.3795
       847.40000  1.56475e-12      68.3638
       847.50000  2.57877e-12      112.641
       847.60000  2.57877e-12      112.615
       847.70000  2.57877e-12      112.589
       847.80000  2.57877e-12      112.563
       847.90000  2.57877e-12      112.512
       848.00000  2.57877e-12      112.486
       848.10000  2.57877e-12      111.944
       848.20000  2.57877e-12      111.454
       848.30000  2.57877e-12      110.965
       848.40000  2.57877e-12      110.500
       848.50000  1.53089e-12      65.3386
       848.60000  1.53089e-12      65.1090
       848.70000  1.53089e-12      64.8793
       848.80000  1.50290e-12      63.4823
       848.90000  1.50290e-12      63.2869
       849.00000  1.50290e-12      63.1066
       849.10000  1.50290e-12      62.9262
       849.20000  1.50290e-12      62.7759
       849.30000  1.50290e-12      62.6407
       849.40000  1.50290e-12      62.5054
       849.50000  6.20507e-12      257.635
       849.60000  6.20507e-12      257.200
       849.70000  6.20507e-12      256.890
       849.80000  6.20507e-12      256.580
       849.90000  6.20507e-12      256.331
       850.00000  6.20507e-12      256.145
       850.10000  6.20507e-12      257.510
       850.20000  6.20507e-12      258.813
       850.30000  6.20507e-12      259.992
       850.40000  6.20507e-12      261.047
       850.50000  7.29288e-12      307.978
       850.60000  7.29288e-12      308.999
       850.70000  7.29288e-12      309.874
       850.80000  7.29288e-12      310.676
       850.90000  7.29288e-12      311.333
       851.00000  7.29288e-12      311.916
       851.10000  7.29288e-12      312.354
       851.20000  7.29288e-12      312.719
       851.30000  7.16721e-12      307.545
       851.40000  7.16721e-12      307.617
       851.50000  5.55241e-12      238.310
       851.60000  5.55241e-12      238.198
       851.70000  5.55241e-12      238.032
       851.80000  5.55241e-12      237.754
       851.90000  5.55241e-12      237.366
       852.00000  5.55241e-12      236.921
       852.10000  5.55241e-12      236.366
       852.20000  5.55241e-12      235.755
       852.30000  5.55241e-12      235.034
       852.40000  5.55241e-12      234.256
       852.50000  4.40638e-12      185.156
       852.60000  4.40638e-12      184.407
       852.70000  4.40638e-12      183.526
       852.80000  4.40638e-12      182.645
       852.90000  4.40638e-12      181.631
       853.00000  4.40638e-12      180.574
       853.10000  4.40638e-12      179.428
       853.20000  4.40638e-12      178.238
       853.30000  4.40638e-12      176.960
       853.40000  4.40638e-12      175.638
       853.50000  5.24492e-12      207.384
       853.60000  5.24492e-12      205.601
       853.70000  5.24492e-12      203.765
       853.80000  5.15516e-12      198.371
       853.90000  5.15516e-12      196.412
       854.00000  5.15516e-12      194.350
       854.10000  5.15516e-12      195.793
       854.20000  5.15516e-12      197.237
       854.30000  5.15516e-12      198.628
       854.40000  5.15516e-12      199.969
       854.50000  5.75232e-12      224.571
       854.60000  5.75232e-12      226.009
       854.70000  5.75232e-12      227.389
       854.80000  5.75232e-12      228.712
       854.90000  5.75232e-12      230.035
       855.00000  5.75232e-12      231.301
       855.10000  5.75232e-12      232.509
       855.20000  5.75232e-12      233.659
       855.30000  5.75232e-12      234.810
       855.40000  5.75232e-12      235.845
       855.50000  4.40252e-12      181.340
       855.60000  4.40252e-12      182.088
       855.70000  4.40252e-12      182.837
       855.80000  4.40252e-12      183.541
       855.90000  4.40252e-12      184.201
       856.00000  4.40252e-12      184.818
       856.10000  4.40252e-12      185.302
       856.20000  4.40252e-12      185.742
       856.30000  4.31359e-12      182.422
       856.40000  4.31359e-12      182.853
       856.50000  6.35812e-12      270.093
       856.60000  6.35812e-12      270.665
       856.70000  6.35812e-12      271.174
       856.80000  6.35812e-12      271.682
       856.90000  6.35812e-12      272.127
       857.00000  6.35812e-12      272.573
       857.10000  6.35812e-12      273.018
       857.20000  6.35812e-12      273.399
       857.30000  6.35812e-12      273.781
       857.40000  6.35812e-12      274.098
       857.50000  3.46119e-12      149.385
       857.60000  3.46119e-12      149.558
       857.70000  3.46119e-12      149.696
       857.80000  3.46119e-12      149.835
       857.90000  3.46119e-12      149.939
       858.00000  3.46119e-12      150.077
       858.10000  3.46119e-12      150.146
       858.20000  3.46119e-12      150.215
       858.30000  3.46119e-12      150.285
       858.40000  3.46119e-12      150.319
       858.50000  5.65297e-12      245.565
       858.60000  5.65297e-12      245.621
       858.70000  5.65297e-12      245.621
       858.80000  5.53206e-12      240.368
       858.90000  5.53206e-12      240.313
       859.00000  5.53206e-12      240.258
       859.10000  5.53206e-12      240.202
       859.20000  5.53206e-12      240.092
       859.30000  5.53206e-12      239.981
       859.40000  5.53206e-12      239.815
       859.50000  2.32063e-12      100.530
       859.60000  2.32063e-12      100.460
       859.70000  2.32063e-12      100.367
       859.80000  2.32063e-12      100.251
       859.90000  2.32063e-12      100.158
       860.00000  2.32063e-12      100.042
       860.10000  2.32063e-12      100.019
       860.20000  2.32063e-12      99.9960
       860.30000  2.32063e-12      99.9960
       860.40000  2.32063e-12      99.9960
       860.50000  5.22159e-12      224.946
       860.60000  5.22159e-12      224.946
       860.70000  5.22159e-12      224.946
       860.80000  5.22159e-12      224.946
       860.90000  5.22159e-12      224.946
       861.00000  5.22159e-12      224.946
       861.10000  5.22159e-12      224.946
       861.20000  5.22159e-12      224.946
       861.30000  5.11058e-12      220.164
       861.40000  5.11058e-12      220.215
       861.50000  6.78392e-12      292.319
       861.60000  6.78392e-12      292.319
       861.70000  6.78392e-12      292.387
       861.80000  6.78392e-12      292.455
       861.90000  6.78392e-12      292.455
       862.00000  6.78392e-12      292.522
       862.10000  6.78392e-12      293.472
       862.20000  6.78392e-12      294.286
       862.30000  6.78392e-12      295.033
       862.40000  6.78392e-12      295.711
       862.50000  6.53804e-12      285.516
       862.60000  6.53804e-12      285.974
       862.70000  6.53804e-12      286.366
       862.80000  6.53804e-12      286.693
       862.90000  6.53804e-12      286.889
       863.00000  6.53804e-12      287.020
       863.10000  6.53804e-12      287.085
       863.20000  6.53804e-12      287.085
       863.30000  6.53804e-12      286.955
       863.40000  6.53804e-12      286.759
       863.50000  5.36955e-12      235.294
       863.60000  5.36955e-12      234.971
       863.70000  5.36955e-12      234.595
       863.80000  5.25474e-12      229.159
       863.90000  5.25474e-12      228.686
       864.00000  5.25474e-12      228.108
       864.10000  5.25474e-12      227.478
       864.20000  5.25474e-12      226.795
       864.30000  5.25474e-12      226.006
       864.40000  5.25474e-12      225.218
       864.50000  2.69381e-12      114.972
       864.60000  2.69381e-12      114.487
       864.70000  2.69381e-12      113.948
       864.80000  2.69381e-12      113.409
       864.90000  2.69381e-12      112.790
       865.00000  2.69381e-12      112.170
       865.10000  2.69381e-12      111.497
       865.20000  2.69381e-12      110.796
       865.30000  2.69381e-12      110.069
       865.40000  2.69381e-12      109.288
       865.50000  4.27169e-12      172.021
       865.60000  4.27169e-12      170.697
       865.70000  4.27169e-12      169.330
       865.80000  4.27169e-12      167.877
       865.90000  4.27169e-12      166.382
       866.00000  4.27169e-12      164.844
       866.10000  4.27169e-12      165.442
       866.20000  4.27169e-12      165.998
       866.30000  4.18083e-12      163.052
       866.40000  4.18083e-12      163.596
       866.50000  3.45261e-12      135.549
       866.60000  3.45261e-12      135.998
       866.70000  3.45261e-12      136.447
       866.80000  3.45261e-12      136.896
       866.90000  3.45261e-12      137.310
       867.00000  3.45261e-12      137.725
       867.10000  3.45261e-12      138.139
       867.20000  3.45261e-12      138.553
       867.30000  3.45261e-12      138.968
       867.40000  3.45261e-12      139.347
       867.50000  7.52669e-12      304.605
       867.60000  7.52669e-12      305.433
       867.70000  7.52669e-12      306.261
       867.80000  7.52669e-12      307.089
       867.90000  7.52669e-12      307.842
       868.00000  7.52669e-12      308.594
       868.10000  7.52669e-12      309.422
       868.20000  7.52669e-12      310.250
       868.30000  7.52669e-12      311.003
       868.40000  7.52669e-12      311.755
       868.50000  3.38973e-12      140.742
       868.60000  3.38973e-12      141.047
       868.70000  3.38973e-12      141.386
       868.80000  3.31553e-12      138.556
       868.90000  3.31553e-12      138.854
       869.00000  3.31553e-12      139.119
       869.10000  3.31553e-12      139.385
       869.20000  3.31553e-12      139.650
       869.30000  3.31553e-12      139.915
       869.40000  3.31553e-12      140.147
       869.50000  2.46348e-12      104.304
       869.60000  2.46348e-12      104.452
       869.70000  2.46348e-12      104.600
       869.80000  2.46348e-12      104.747
       869.90000  2.46348e-12      104.895
       870.00000  2.46348e-12      105.043
       870.10000  2.46348e-12      105.166
       870.20000  2.46348e-12      105.289
       870.30000  2.46348e-12      105.388
       870.40000  2.46348e-12      105.486
       870.50000  6.50779e-13      27.8924
       870.60000  6.50779e-13      27.9184
       870.70000  6.50779e-13      27.9380
       870.80000  6.50779e-13      27.9640
       870.90000  6.50779e-13      27.9770
       871.00000  6.50779e-13      27.9965
       871.10000  6.50779e-13      28.0095
       871.20000  6.50779e-13      28.0226
       871.30000  6.37135e-13      27.4478
       871.40000  6.37135e-13      27.4542
       871.50000  4.41793e-12      190.413
       871.60000  4.41793e-12      190.457
       871.70000  4.41793e-12      190.457
       871.80000  4.41793e-12      190.501
       871.90000  4.41793e-12      190.457
       872.00000  4.41793e-12      190.457
       872.10000  4.41793e-12      190.324
       872.20000  4.41793e-12      190.236
       872.30000  4.41793e-12      190.104
       872.40000  4.41793e-12      190.015
       872.50000  1.87528e-12      80.5996
       872.60000  1.87528e-12      80.5621
       872.70000  1.87528e-12      80.5246
       872.80000  1.87528e-12      80.4871
       872.90000  1.87528e-12      80.4309
       873.00000  1.87528e-12      80.3934
       873.10000  1.87528e-12      80.3559
       873.20000  1.87528e-12      80.3184
       873.30000  1.87528e-12      80.2808
       873.40000  1.87528e-12      80.2433
       873.50000  3.09517e-13      13.2380
       873.60000  3.09517e-13      13.2318
       873.70000  3.09517e-13      13.2256
       873.80000  3.02492e-13      12.9225
       873.90000  3.02492e-13      12.9164
       874.00000  3.02492e-13      12.9104
       877.00000  5.01667e-12      213.961
       877.10000  5.01667e-12      214.111
       877.20000  5.01667e-12      214.262
       877.30000  5.01667e-12      214.412
       877.40000  5.01667e-12      214.613
       877.50000  1.02172e-11      437.499
       877.60000  1.02172e-11      437.908
       877.70000  1.02172e-11      438.317
       877.80000  1.02172e-11      438.725
       877.90000  1.02172e-11      439.236
       878.00000  1.02172e-11      439.747
       878.10000  1.02172e-11      439.134
       878.20000  1.02172e-11      438.623
       878.30000  1.02172e-11      438.112
       878.40000  1.02172e-11      437.602
       878.50000  3.37104e-12      144.213
       878.60000  3.37104e-12      144.078
       878.70000  3.37104e-12      143.910
       878.80000  3.28879e-12      140.267
       878.90000  3.28879e-12      140.135
       879.00000  3.28879e-12      140.004
       883.00000  2.43761e-12      103.647
       883.10000  2.43761e-12      103.696
       883.20000  2.43761e-12      103.744
       883.30000  2.43761e-12      103.769
       883.40000  2.43761e-12      103.793
       883.50000  5.45796e-12      232.454
       883.60000  5.45796e-12      232.454
       883.70000  5.45796e-12      232.454
       883.80000  5.33119e-12      227.055
       883.90000  5.33119e-12      227.002
       884.00000  5.33119e-12      226.949
       886.00000  1.15247e-11      481.734
       888.00000  1.25283e-11      528.195
       890.00000  1.26677e-11      540.150
       890.10000  1.26677e-11      539.770
       890.20000  1.26677e-11      539.390
       890.30000  1.26677e-11      539.010
       890.40000  1.26677e-11      538.630
       890.50000  1.73558e-11      737.448
       890.60000  1.73558e-11      736.928
       890.70000  1.73558e-11      736.407
       890.80000  1.73558e-11      735.886
       890.90000  1.73558e-11      735.366
       891.00000  1.73558e-11      735.019
       893.00000  5.05748e-12      212.414
       899.00000  6.21163e-12      260.143
       899.10000  6.21163e-12      259.895
       899.20000  6.21163e-12      259.646
       899.30000  6.21163e-12      259.398
       899.40000  6.21163e-12      259.149
       899.50000  3.94471e-11      1644.16
       899.60000  3.94471e-11      1642.18
       899.70000  3.94471e-11      1640.61
       899.80000  3.94471e-11      1638.63
       899.90000  3.94471e-11      1636.66
       900.00000  3.94471e-11      1634.69
       900.10000  3.94471e-11      1629.96
       900.20000  3.94471e-11      1626.01
       900.30000  3.94471e-11      1621.67
       900.40000  3.94471e-11      1618.12
       900.50000  4.55091e-11      1862.69
       900.60000  4.55091e-11      1859.05
       900.70000  4.55091e-11      1855.41
       900.80000  4.55091e-11      1852.67
       900.90000  4.55091e-11      1849.94
       901.00000  4.55091e-11      1847.21
       901.10000  4.55091e-11      1845.39
       901.20000  4.55091e-11      1843.57
       901.30000  4.48627e-11      1815.59
       901.40000  4.48627e-11      1814.70
       901.50000  3.90891e-11      1580.37
       901.60000  3.90891e-11      1579.98
       901.70000  3.90891e-11      1579.59
       901.80000  3.90891e-11      1579.59
       901.90000  3.90891e-11      1579.98
       902.00000  3.90891e-11      1580.76
       902.10000  3.90891e-11      1586.24
       902.20000  3.90891e-11      1591.32
       902.30000  3.90891e-11      1596.40
       902.40000  3.90891e-11      1601.09
       902.50000  3.63270e-11      1492.31
       902.60000  3.63270e-11      1496.31
       902.70000  3.63270e-11      1500.31
       902.80000  3.63270e-11      1503.94
       902.90000  3.63270e-11      1507.57
       903.00000  3.63270e-11      1510.84
       903.10000  3.63270e-11      1514.11
       903.20000  3.63270e-11      1517.02
       903.30000  3.63270e-11      1519.56
       903.40000  3.63270e-11      1522.10
       903.50000  3.70964e-11      1556.57
       903.60000  3.70964e-11      1558.79
       903.70000  3.70964e-11      1561.02
       903.80000  3.65795e-11      1540.73
       903.90000  3.65795e-11      1542.56
       904.00000  3.65795e-11      1543.65
       904.10000  3.65795e-11      1544.75
       904.20000  3.65795e-11      1545.85
       904.30000  3.65795e-11      1546.58
       904.40000  3.65795e-11      1546.95
       904.50000  4.16888e-11      1763.44
       904.60000  4.16888e-11      1763.85
       904.70000  4.16888e-11      1763.85
       904.80000  4.16888e-11      1763.44
       904.90000  4.16888e-11      1763.02
       905.00000  4.16888e-11      1762.18
       905.10000  4.16888e-11      1761.35
       905.20000  4.16888e-11      1760.10
       905.30000  4.16888e-11      1758.85
       905.40000  4.16888e-11      1757.18
       905.50000  3.73060e-11      1570.58
       905.60000  3.73060e-11      1568.72
       905.70000  3.73060e-11      1566.85
       905.80000  3.73060e-11      1564.61
       905.90000  3.73060e-11      1562.00
       906.00000  3.73060e-11      1559.39
       906.10000  3.73060e-11      1557.90
       906.20000  3.73060e-11      1556.78
       906.30000  3.67669e-11      1533.18
       906.40000  3.67669e-11      1531.71
       906.50000  4.09274e-11      1703.81
       906.60000  4.09274e-11      1702.58
       906.70000  4.09274e-11      1701.35
       906.80000  4.09274e-11      1700.12
       906.90000  4.09274e-11      1698.89
       907.00000  4.09274e-11      1697.67
       907.10000  4.09274e-11      1696.44
       907.20000  4.09274e-11      1695.21
       907.30000  4.09274e-11      1693.98
       907.40000  4.09274e-11      1692.76
       907.50000  2.38774e-11      986.854
       907.60000  2.38774e-11      986.377
       907.70000  2.38774e-11      985.660
       907.80000  2.38774e-11      984.944
       907.90000  2.38774e-11      984.466
       908.00000  2.38774e-11      983.750
       908.10000  2.38774e-11      982.795
       908.20000  2.38774e-11      982.078
       908.30000  2.38774e-11      981.123
       908.40000  2.38774e-11      980.407
       908.50000  3.06545e-11      1257.75
       908.60000  3.06545e-11      1256.84
       908.70000  3.06545e-11      1256.22
       908.80000  3.01919e-11      1236.36
       908.90000  3.01919e-11      1235.75
       909.00000  3.01919e-11      1235.15
       909.10000  3.01919e-11      1234.55
       909.20000  3.01919e-11      1233.94
       909.30000  3.01919e-11      1233.34
       909.40000  3.01919e-11      1233.04
       909.50000  2.39777e-11      979.008
       909.60000  2.39777e-11      978.769
       909.70000  2.39777e-11      978.529
       909.80000  2.39777e-11      978.289
       909.90000  2.39777e-11      978.289
       910.00000  2.39777e-11      978.049
       910.10000  2.39777e-11      978.049
       910.20000  2.39777e-11      978.049
       910.30000  2.39777e-11      978.289
       910.40000  2.39777e-11      978.289
       910.50000  3.10441e-11      1266.91
       910.60000  3.10441e-11      1266.91
       910.70000  3.10441e-11      1267.22
       910.80000  3.10441e-11      1267.84
       910.90000  3.10441e-11      1268.15
       911.00000  3.10441e-11      1268.46
       911.10000  3.10441e-11      1269.08
       911.20000  3.10441e-11      1269.70
       911.30000  3.05492e-11      1250.07
       911.40000  3.05492e-11      1250.68
       911.50000  2.34041e-11      958.865
       911.60000  2.34041e-11      959.333
       911.70000  2.34041e-11      960.035
       911.80000  2.34041e-11      960.737
       911.90000  2.34041e-11      961.439
       912.00000  2.34041e-11      962.375
       912.10000  2.34041e-11      963.545
       912.20000  2.34041e-11      964.482
       912.30000  2.34041e-11      965.418
       912.40000  2.34041e-11      966.354
       912.50000  2.21796e-11      916.684
       912.60000  2.21796e-11      917.572
       912.70000  2.21796e-11      918.459
       912.80000  2.21796e-11      919.124
       912.90000  2.21796e-11      919.789
       913.00000  2.21796e-11      920.455
       913.10000  2.21796e-11      921.120
       913.20000  2.21796e-11      921.564
       913.30000  2.21796e-11      922.229
       913.40000  2.21796e-11      922.673
       913.50000  2.94299e-11      1224.87
       913.60000  2.94299e-11      1225.46
       913.70000  2.94299e-11      1225.76
       913.80000  2.89255e-11      1205.04
       913.90000  2.89255e-11      1205.62
       914.00000  2.89255e-11      1205.91
       914.10000  2.89255e-11      1205.33
       914.20000  2.89255e-11      1205.04
       914.30000  2.89255e-11      1204.75
       914.40000  2.89255e-11      1204.46
       914.50000  2.98346e-11      1242.01
       914.60000  2.98346e-11      1241.42
       914.70000  2.98346e-11      1241.12
       914.80000  2.98346e-11      1240.82
       914.90000  2.98346e-11      1240.52
       915.00000  2.98346e-11      1240.22
       915.10000  2.98346e-11      1239.92
       915.20000  2.98346e-11      1239.63
       915.30000  2.98346e-11      1239.33
       915.40000  2.98346e-11      1239.03
       915.50000  2.01652e-11      837.260
       915.60000  2.01652e-11      837.058
       915.70000  2.01652e-11      836.856
       915.80000  2.01652e-11      836.655
       915.90000  2.01652e-11      836.453
       916.00000  2.01652e-11      836.251
       916.10000  2.01652e-11      836.050
       916.20000  2.01652e-11      835.848
       916.30000  1.97904e-11      820.114
       916.40000  1.97904e-11      819.916
       916.50000  2.17137e-11      899.380
       916.60000  2.17137e-11      899.380
       916.70000  2.17137e-11      899.163
       916.80000  2.17137e-11      898.945
       916.90000  2.17137e-11      898.728
       917.00000  2.17137e-11      898.511
       917.10000  2.17137e-11      898.511
       917.20000  2.17137e-11      898.294
       917.30000  2.17137e-11      898.077
       917.40000  2.17137e-11      897.860
       917.50000  2.28359e-11      944.264
       917.60000  2.28359e-11      944.036
       917.70000  2.28359e-11      943.808
       917.80000  2.28359e-11      943.808
       917.90000  2.28359e-11      943.579
       918.00000  2.28359e-11      943.351
       918.10000  2.28359e-11      943.808
       918.20000  2.28359e-11      944.264
       918.30000  2.28359e-11      944.721
       918.40000  2.28359e-11      944.949
       918.50000  2.27780e-11      942.782
       918.60000  2.27780e-11      943.010
       918.70000  2.27780e-11      943.010
       918.80000  2.23519e-11      925.370
       918.90000  2.23519e-11      925.370
       919.00000  2.23519e-11      925.370
       919.10000  2.23519e-11      925.146
       919.20000  2.23519e-11      924.923
       919.30000  2.23519e-11      924.700
       919.40000  2.23519e-11      924.252
       919.50000  1.37649e-11      568.902
       919.60000  1.37649e-11      568.627
       919.70000  1.37649e-11      568.352
       919.80000  1.37649e-11      567.939
       919.90000  1.37649e-11      567.663
       920.00000  1.37649e-11      567.250
       920.10000  1.37649e-11      566.012
       920.20000  1.37649e-11      564.910
       920.30000  1.37649e-11      563.809
       920.40000  1.37649e-11      562.708
       920.50000  2.23533e-11      912.013
       920.60000  2.23533e-11      910.448
       920.70000  2.23533e-11      908.884
       920.80000  2.23533e-11      907.543
       920.90000  2.23533e-11      905.978
       921.00000  2.23533e-11      904.637
       921.10000  2.23533e-11      903.295
       921.20000  2.23533e-11      902.178
       921.30000  2.19240e-11      883.537
       921.40000  2.19240e-11      882.441
       921.50000  1.93401e-11      777.470
       921.60000  1.93401e-11      776.696
       921.70000  1.93401e-11      775.923
       921.80000  1.93401e-11      775.149
       921.90000  1.93401e-11      774.376
       922.00000  1.93401e-11      773.795
       922.10000  1.93401e-11      773.022
       922.20000  1.93401e-11      772.635
       922.30000  1.93401e-11      772.055
       922.40000  1.93401e-11      771.668
       922.50000  2.40739e-11      959.827
       922.60000  2.40739e-11      959.587
       922.70000  2.40739e-11      959.105
       922.80000  2.40739e-11      958.864
       922.90000  2.40739e-11      958.624
       923.00000  2.40739e-11      958.383
       923.10000  2.40739e-11      958.383
       923.20000  2.40739e-11      958.142
       923.30000  2.40739e-11      958.142
       923.40000  2.40739e-11      958.383
       923.50000  2.35362e-11      936.975
       923.60000  2.35362e-11      937.210
       923.70000  2.35362e-11      937.446
       923.80000  2.30782e-11      919.666
       923.90000  2.30782e-11      919.897
       924.00000  2.30782e-11      920.358
       924.10000  2.30782e-11      920.358
       924.20000  2.30782e-11      920.358
       924.30000  2.30782e-11      920.358
       924.40000  2.30782e-11      920.358
       924.50000  1.80441e-11      719.597
       924.60000  1.80441e-11      719.597
       924.70000  1.80441e-11      719.777
       924.80000  1.80441e-11      719.958
       924.90000  1.80441e-11      719.958
       925.00000  1.80441e-11      720.138
       925.10000  1.80441e-11      720.499
       925.20000  1.80441e-11      720.679
       925.30000  1.80441e-11      720.860
       925.40000  1.80441e-11      721.221
       925.50000  1.52397e-11      609.438
       925.60000  1.52397e-11      609.742
       925.70000  1.52397e-11      610.047
       925.80000  1.52397e-11      610.352
       925.90000  1.52397e-11      610.657
       926.00000  1.52397e-11      611.114
       926.10000  1.52397e-11      612.028
       926.20000  1.52397e-11      613.095
       926.30000  1.49428e-11      602.044
       926.40000  1.49428e-11      602.940
       926.50000  1.70255e-11      688.001
       926.60000  1.70255e-11      688.852
       926.70000  1.70255e-11      689.703
       926.80000  1.70255e-11      690.555
       926.90000  1.70255e-11      691.406
       927.00000  1.70255e-11      692.087
       927.10000  1.70255e-11      692.768
       927.20000  1.70255e-11      693.449
       927.30000  1.70255e-11      693.960
       927.40000  1.70255e-11      694.470
       927.50000  1.91065e-11      779.929
       927.60000  1.91065e-11      780.311
       927.70000  1.91065e-11      780.884
       927.80000  1.91065e-11      781.266
       927.90000  1.91065e-11      781.457
       928.00000  1.91065e-11      781.648
       928.10000  1.91065e-11      781.266
       928.20000  1.91065e-11      780.884
       928.30000  1.91065e-11      780.311
       928.40000  1.91065e-11      779.929
       928.50000  1.58165e-11      645.312
       928.60000  1.58165e-11      644.995
       928.70000  1.58165e-11      644.679
       928.80000  1.55105e-11      631.898
       928.90000  1.55105e-11      631.587
       929.00000  1.55105e-11      631.432
       929.10000  1.55105e-11      631.122
       929.20000  1.55105e-11      630.812
       929.30000  1.55105e-11      630.657
       929.40000  1.55105e-11      630.347
       929.50000  2.14126e-11      869.995
       929.60000  2.14126e-11      869.781
       929.70000  2.14126e-11      869.352
       929.80000  2.14126e-11      869.138
       929.90000  2.14126e-11      868.924
       930.00000  2.14126e-11      868.710
       930.10000  2.14126e-11      868.710
       930.20000  2.14126e-11      868.710
       930.30000  2.14126e-11      868.496
       930.40000  2.14126e-11      868.496
       930.50000  1.62143e-11      657.652
       930.60000  1.62143e-11      657.652
       930.70000  1.62143e-11      657.490
       930.80000  1.62143e-11      657.490
       930.90000  1.62143e-11      657.490
       931.00000  1.62143e-11      657.490
       931.10000  1.62143e-11      657.490
       931.20000  1.62143e-11      657.328
       931.30000  1.59177e-11      645.305
       931.40000  1.59177e-11      645.305
       931.50000  1.55504e-11      630.411
       931.60000  1.55504e-11      630.411
       931.70000  1.55504e-11      630.411
       931.80000  1.55504e-11      630.411
       931.90000  1.55504e-11      630.411
       932.00000  1.55504e-11      630.411
       932.10000  1.55504e-11      630.411
       932.20000  1.55504e-11      630.411
       932.30000  1.55504e-11      630.411
       932.40000  1.55504e-11      630.411
       932.50000  1.42787e-11      578.858
       932.60000  1.42787e-11      578.858
       932.70000  1.42787e-11      578.858
       932.80000  1.42787e-11      579.001
       932.90000  1.42787e-11      579.001
       933.00000  1.42787e-11      579.001
       933.10000  1.42787e-11      579.001
       933.20000  1.42787e-11      579.001
       933.30000  1.42787e-11      579.144
       933.40000  1.42787e-11      579.144
       933.50000  1.46292e-11      593.359
       933.60000  1.46292e-11      593.505
       933.70000  1.46292e-11      593.505
       933.80000  1.43811e-11      583.442
       933.90000  1.43811e-11      583.586
       934.00000  1.43811e-11      583.586
       934.10000  1.43811e-11      583.155
       934.20000  1.43811e-11      582.723
       934.30000  1.43811e-11      582.292
       934.40000  1.43811e-11      581.860
       934.50000  1.69301e-11      684.483
       934.60000  1.69301e-11      684.144
       934.70000  1.69301e-11      683.806
       934.80000  1.69301e-11      683.298
       934.90000  1.69301e-11      682.959
       935.00000  1.69301e-11      682.790
       935.10000  1.69301e-11      682.451
       935.20000  1.69301e-11      682.113
       935.30000  1.69301e-11      681.943
       935.40000  1.69301e-11      681.774
       935.50000  1.70704e-11      687.253
       935.60000  1.70704e-11      687.083
       935.70000  1.70704e-11      686.912
       935.80000  1.70704e-11      686.741
       935.90000  1.70704e-11      686.741
       936.00000  1.70704e-11      686.570
       936.10000  1.70704e-11      687.083
       936.20000  1.70704e-11      687.595
       936.30000  1.67897e-11      676.791
       936.40000  1.67897e-11      677.295
       936.50000  1.45189e-11      585.982
       936.60000  1.45189e-11      586.272
       936.70000  1.45189e-11      586.563
       936.80000  1.45189e-11      586.853
       936.90000  1.45189e-11      586.998
       937.00000  1.45189e-11      587.289
       937.10000  1.45189e-11      587.434
       937.20000  1.45189e-11      587.579
       937.30000  1.45189e-11      587.579
       937.40000  1.45189e-11      587.724
       937.50000  1.25803e-11      509.251
       937.60000  1.25803e-11      509.251
       937.70000  1.25803e-11      509.251
       937.80000  1.25803e-11      509.251
       937.90000  1.25803e-11      509.126
       938.00000  1.25803e-11      509.126
       938.10000  1.25803e-11      509.000
       938.20000  1.25803e-11      508.748
       938.30000  1.25803e-11      508.622
       938.40000  1.25803e-11      508.371
       938.50000  1.69147e-11      683.356
       938.60000  1.69147e-11      683.017
       938.70000  1.69147e-11      682.510
       938.80000  1.66511e-11      671.537
       938.90000  1.66511e-11      671.038
       939.00000  1.66511e-11      670.705
       939.10000  1.66511e-11      670.205
       939.20000  1.66511e-11      669.539
       939.30000  1.66511e-11      669.040
       939.40000  1.66511e-11      668.374
       939.50000  1.32320e-11      530.602
       939.60000  1.32320e-11      530.073
       939.70000  1.32320e-11      529.544
       939.80000  1.32320e-11      529.014
       939.90000  1.32320e-11      528.353
       940.00000  1.32320e-11      527.691
       940.10000  1.32320e-11      526.765
       940.20000  1.32320e-11      525.839
       940.30000  1.32320e-11      525.045
       940.40000  1.32320e-11      524.251
       940.50000  1.10639e-11      437.688
       940.60000  1.10639e-11      437.135
       940.70000  1.10639e-11      436.582
       940.80000  1.10639e-11      436.029
       940.90000  1.10639e-11      435.476
       941.00000  1.10639e-11      435.033
       941.10000  1.10639e-11      434.590
       941.20000  1.10639e-11      434.259
       941.30000  1.08990e-11      427.460
       941.40000  1.08990e-11      427.133
       941.50000  1.26363e-11      494.838
       941.60000  1.26363e-11      494.585
       941.70000  1.26363e-11      494.332
       941.80000  1.26363e-11      494.079
       941.90000  1.26363e-11      493.827
       942.00000  1.26363e-11      493.700
       942.10000  1.26363e-11      494.079
       942.20000  1.26363e-11      494.332
       942.30000  1.26363e-11      494.711
       942.40000  1.26363e-11      494.964
       942.50000  1.59867e-11      626.518
       942.60000  1.59867e-11      626.997
       942.70000  1.59867e-11      627.317
       942.80000  1.59867e-11      627.637
       942.90000  1.59867e-11      627.956
       943.00000  1.59867e-11      628.276
       943.10000  1.59867e-11      628.756
       943.20000  1.59867e-11      629.076
       943.30000  1.59867e-11      629.395
       943.40000  1.59867e-11      629.715
       943.50000  1.05678e-10      4164.75
       943.60000  1.05678e-10      4166.87
       943.70000  1.05678e-10      4168.98
       943.80000  1.04066e-10      4107.48
       943.90000  1.04066e-10      4109.56
       944.00000  1.04066e-10      4111.64
       944.10000  1.04066e-10      4113.72
       944.20000  1.04066e-10      4115.80
       944.30000  1.04066e-10      4116.84
       944.40000  1.04066e-10      4118.92
       944.50000  2.27585e-10      9012.37
       944.60000  2.27585e-10      9016.92
       944.70000  2.27585e-10      9019.20
       944.80000  2.27585e-10      9023.75
       944.90000  2.27585e-10      9028.30
       945.00000  2.27585e-10      9030.58
       945.10000  2.27585e-10      9035.13
       945.20000  2.27585e-10      9039.68
       945.30000  2.27585e-10      9041.96
       945.40000  2.27585e-10      9046.51
       945.50000  3.10716e-10      12354.1
       945.60000  3.10716e-10      12360.3
       945.70000  3.10716e-10      12363.4
       945.80000  3.10716e-10      12369.6
       945.90000  3.10716e-10      12372.7
       946.00000  3.10716e-10      12375.8
       946.10000  3.10716e-10      12382.0
       946.20000  3.10716e-10      12388.2
       946.30000  3.06053e-10      12208.5
       946.40000  3.06053e-10      12214.6
       946.50000  3.78742e-10      15123.1
       946.60000  3.78742e-10      15126.9
       946.70000  3.78742e-10      15134.5
       946.80000  3.78742e-10      15138.3
       946.90000  3.78742e-10      15142.1
       947.00000  3.78742e-10      15149.7
       947.10000  3.78742e-10      15153.4
       947.20000  3.78742e-10      15157.2
       947.30000  3.78742e-10      15161.0
       947.40000  3.78742e-10      15164.8
       947.50000  1.27494e-09      51048.7
       947.60000  1.27494e-09      51061.4
       947.70000  1.27494e-09      51074.2
       947.80000  1.27494e-09      51074.2
       947.90000  1.27494e-09      51086.9
       948.00000  1.27494e-09      51086.9
       948.10000  1.27494e-09      51086.9
       948.20000  1.27494e-09      51086.9
       948.30000  1.27494e-09      51074.2
       948.40000  1.27494e-09      51074.2
       948.50000  1.16312e-09      46583.1
       948.60000  1.16312e-09      46583.1
       948.70000  1.16312e-09      46583.1
       948.80000  1.14445e-09      45823.6
       948.90000  1.14445e-09      45823.6
       949.00000  1.14445e-09      45812.2
       949.10000  1.14445e-09      45812.2
       949.20000  1.14445e-09      45800.7
       949.30000  1.14445e-09      45800.7
       949.40000  1.14445e-09      45789.3
       949.50000  1.70756e-09      68319.3
       949.60000  1.70756e-09      68302.2
       949.70000  1.70756e-09      68285.2
       949.80000  1.70756e-09      68285.2
       949.90000  1.70756e-09      68268.1
       950.00000  1.70756e-09      68251.0
       950.10000  1.70756e-09      68251.0
       950.20000  1.70756e-09      68233.9
       950.30000  1.70756e-09      68216.9
       950.40000  1.70756e-09      68216.9
       950.50000  1.93278e-09      77195.1
       950.60000  1.93278e-09      77175.8
       950.70000  1.93278e-09      77156.4
       950.80000  1.93278e-09      77156.4
       950.90000  1.93278e-09      77137.1
       951.00000  1.93278e-09      77117.8
       951.10000  1.93278e-09      77098.4
       951.20000  1.93278e-09      77079.1
       951.30000  1.90185e-09      75846.0
       951.40000  1.90185e-09      75827.0
       951.50000  1.41786e-09      56515.9
       951.60000  1.41786e-09      56501.7
       951.70000  1.41786e-09      56487.6
       951.80000  1.41786e-09      56473.4
       951.90000  1.41786e-09      56459.2
       952.00000  1.41786e-09      56445.0
       952.10000  1.41786e-09      56331.6
       952.20000  1.41786e-09      56218.2
       952.30000  1.41786e-09      56118.9
       952.40000  1.41786e-09      56019.7
       952.50000  3.48826e-09      137577.
       952.60000  3.48826e-09      137333.
       952.70000  3.48826e-09      137123.
       952.80000  3.48826e-09      136914.
       952.90000  3.48826e-09      136705.
       953.00000  3.48826e-09      136530.
       953.10000  3.48826e-09      136356.
       953.20000  3.48826e-09      136182.
       953.30000  3.48826e-09      136042.
       953.40000  3.48826e-09      135868.
       953.50000  2.71290e-09      105559.
       953.60000  2.71290e-09      105478.
       953.70000  2.71290e-09      105369.
       953.80000  2.66785e-09      103539.
       953.90000  2.66785e-09      103459.
       954.00000  2.66785e-09      103406.
       954.10000  2.66785e-09      103379.
       954.20000  2.66785e-09      103353.
       954.30000  2.66785e-09      103353.
       954.40000  2.66785e-09      103353.
       954.50000  2.39726e-09      92845.8
       954.60000  2.39726e-09      92845.8
       954.70000  2.39726e-09      92845.8
       954.80000  2.39726e-09      92845.8
       954.90000  2.39726e-09      92869.7
       955.00000  2.39726e-09      92869.7
       955.10000  2.39726e-09      92893.7
       955.20000  2.39726e-09      92893.7
       955.30000  2.39726e-09      92917.7
       955.40000  2.39726e-09      92941.7
       955.50000  1.74584e-09      67703.8
       955.60000  1.74584e-09      67721.2
       955.70000  1.74584e-09      67738.7
       955.80000  1.74584e-09      67773.6
       955.90000  1.74584e-09      67791.0
       956.00000  1.74584e-09      67826.0
       956.10000  1.74584e-09      67860.9
       956.20000  1.74584e-09      67878.3
       956.30000  1.71734e-09      66804.6
       956.40000  1.71734e-09      66856.1
       956.50000  2.15842e-09      84070.7
       956.60000  2.15842e-09      84113.8
       956.70000  2.15842e-09      84178.6
       956.80000  2.15842e-09      84221.7
       956.90000  2.15842e-09      84286.5
       957.00000  2.15842e-09      84351.2
       957.10000  2.15842e-09      84416.0
       957.20000  2.15842e-09      84480.8
       957.30000  2.15842e-09      84567.1
       957.40000  2.15842e-09      84631.8
       957.50000  2.38218e-09      93476.7
       957.60000  2.38218e-09      93571.9
       957.70000  2.38218e-09      93667.2
       957.80000  2.38218e-09      93762.5
       957.90000  2.38218e-09      93857.8
       958.00000  2.38218e-09      93953.1
       958.10000  2.38218e-09      93953.1
       958.20000  2.38218e-09      93929.3
       958.30000  2.38218e-09      93929.3
       958.40000  2.38218e-09      93929.3
       958.50000  2.10634e-09      83053.1
       958.60000  2.10634e-09      83032.0
       958.70000  2.10634e-09      83032.0
       958.80000  2.06921e-09      81568.3
       958.90000  2.06921e-09      81547.6
       959.00000  2.06921e-09      81547.6
       959.10000  2.06921e-09      81527.0
       959.20000  2.06921e-09      81527.0
       959.30000  2.06921e-09      81506.3
       959.40000  2.06921e-09      81485.6
       959.50000  2.28075e-09      89815.9
       959.60000  2.28075e-09      89793.1
       959.70000  2.28075e-09      89793.1
       959.80000  2.28075e-09      89770.3
       959.90000  2.28075e-09      89747.5
       960.00000  2.28075e-09      89724.7
       960.10000  2.28075e-09      89701.9
       960.20000  2.28075e-09      89679.1
       960.30000  2.28075e-09      89656.3
       960.40000  2.28075e-09      89633.5
       960.50000  4.08870e-09      160645.
       960.60000  4.08870e-09      160604.
       960.70000  4.08870e-09      160563.
       960.80000  4.08870e-09      160523.
       960.90000  4.08870e-09      160482.
       961.00000  4.08870e-09      160441.
       961.10000  4.08870e-09      160400.
       961.20000  4.08870e-09      160359.
       961.30000  4.01767e-09      157533.
       961.40000  4.01767e-09      157493.
       961.50000  4.48212e-09      175654.
       961.60000  4.48212e-09      175565.
       961.70000  4.48212e-09      175520.
       961.80000  4.48212e-09      175475.
       961.90000  4.48212e-09      175430.
       962.00000  4.48212e-09      175385.
       962.10000  4.48212e-09      175296.
       962.20000  4.48212e-09      175251.
       962.30000  4.48212e-09      175206.
       962.40000  4.48212e-09      175116.
       962.50000  4.44927e-09      173788.
       962.60000  4.44927e-09      173744.
       962.70000  4.44927e-09      173655.
       962.80000  4.44927e-09      173611.
       962.90000  4.44927e-09      173522.
       963.00000  4.44927e-09      173477.
       963.10000  4.44927e-09      173433.
       963.20000  4.44927e-09      173344.
       963.30000  4.44927e-09      173299.
       963.40000  4.44927e-09      173210.
       963.50000  6.18490e-09      240716.
       963.60000  6.18490e-09      240593.
       963.70000  6.18490e-09      240531.
       963.80000  6.07258e-09      236041.
       963.90000  6.07258e-09      235920.
       964.00000  6.07258e-09      235859.
       964.10000  6.07258e-09      235738.
       964.20000  6.07258e-09      235555.
       964.30000  6.07258e-09      235434.
       964.40000  6.07258e-09      235373.
       964.50000  8.35479e-09      323664.
       964.60000  8.35479e-09      323497.
       964.70000  8.35479e-09      323414.
       964.80000  8.35479e-09      323247.
       964.90000  8.35479e-09      323163.
       965.00000  8.35479e-09      322996.
       965.10000  8.35479e-09      322912.
       965.20000  8.35479e-09      322829.
       965.30000  8.35479e-09      322745.
       965.40000  8.35479e-09      322745.
       965.50000  7.84439e-09      302950.
       965.60000  7.84439e-09      302872.
       965.70000  7.84439e-09      302872.
       965.80000  7.84439e-09      302793.
       965.90000  7.84439e-09      302793.
       966.00000  7.84439e-09      302793.
       966.10000  7.84439e-09      302872.
       966.20000  7.84439e-09      302950.
       966.30000  7.69932e-09      297502.
       966.40000  7.69932e-09      297579.
       966.50000  1.08580e-08      419770.
       966.60000  1.08580e-08      419879.
       966.70000  1.08580e-08      419987.
       966.80000  1.08580e-08      420096.
       966.90000  1.08580e-08      420204.
       967.00000  1.08580e-08      420313.
       967.10000  1.08580e-08      420422.
       967.20000  1.08580e-08      420530.
       967.30000  1.08580e-08      420639.
       967.40000  1.08580e-08      420747.
       967.50000  1.17626e-08      455800.
       967.60000  1.17626e-08      455918.
       967.70000  1.17626e-08      456036.
       967.80000  1.17626e-08      456036.
       967.90000  1.17626e-08      456153.
       968.00000  1.17626e-08      456271.
       968.10000  1.17626e-08      456271.
       968.20000  1.17626e-08      456389.
       968.30000  1.17626e-08      456389.
       968.40000  1.17626e-08      456389.
       968.50000  1.26379e-08      490477.
       968.60000  1.26379e-08      490477.
       968.70000  1.26379e-08      490477.
       968.80000  1.24037e-08      481513.
       968.90000  1.24037e-08      481513.
       969.00000  1.24037e-08      481513.
       969.10000  1.24037e-08      481513.
       969.20000  1.24037e-08      481513.
       969.30000  1.24037e-08      481513.
       969.40000  1.24037e-08      481513.
       969.50000  1.98566e-08      770832.
       969.60000  1.98566e-08      770832.
       969.70000  1.98566e-08      770832.
       969.80000  1.98566e-08      770832.
       969.90000  1.98566e-08      770832.
       970.00000  1.98566e-08      770832.
       970.10000  1.98566e-08      771031.
       970.20000  1.98566e-08      771229.
       970.30000  1.98566e-08      771229.
       970.40000  1.98566e-08      771428.
       970.50000  2.82889e-08  1.09902e+06
       970.60000  2.82889e-08  1.09931e+06
       970.70000  2.82889e-08  1.09931e+06
       970.80000  2.82889e-08  1.09931e+06
       970.90000  2.82889e-08  1.09931e+06
       971.00000  2.82889e-08  1.09931e+06
       971.10000  2.82889e-08  1.09931e+06
       971.20000  2.82889e-08  1.09902e+06
       971.30000  2.77659e-08  1.07871e+06
       971.40000  2.77659e-08  1.07843e+06
       971.50000  4.10820e-08  1.59563e+06
       971.60000  4.10820e-08  1.59522e+06
       971.70000  4.10820e-08  1.59481e+06
       971.80000  4.10820e-08  1.59439e+06
       971.90000  4.10820e-08  1.59398e+06
       972.00000  4.10820e-08  1.59316e+06
       972.10000  4.10820e-08  1.59152e+06
       972.20000  4.10820e-08  1.58988e+06
       972.30000  4.10820e-08  1.58864e+06
       972.40000  4.10820e-08  1.58700e+06
       972.50000  4.45167e-08  1.71835e+06
       972.60000  4.45167e-08  1.71657e+06
       972.70000  4.45167e-08  1.71523e+06
       972.80000  4.45167e-08  1.71389e+06
       972.90000  4.45167e-08  1.71256e+06
       973.00000  4.45167e-08  1.71167e+06
       973.10000  4.45167e-08  1.71033e+06
       973.20000  4.45167e-08  1.70944e+06
       973.30000  4.45167e-08  1.70855e+06
       973.40000  4.45167e-08  1.70766e+06
       973.50000  7.18843e-08  2.75604e+06
       973.60000  7.18843e-08  2.75461e+06
       973.70000  7.18843e-08  2.75389e+06
       973.80000  7.04841e-08  2.69884e+06
       973.90000  7.04841e-08  2.69813e+06
       974.00000  7.04841e-08  2.69743e+06
       974.10000  7.04841e-08  2.69813e+06
       974.20000  7.04841e-08  2.69954e+06
       974.30000  7.04841e-08  2.70024e+06
       974.40000  7.04841e-08  2.70095e+06
       974.50000  1.13222e-07  4.33979e+06
       974.60000  1.13222e-07  4.34092e+06
       974.70000  1.13222e-07  4.34206e+06
       974.80000  1.13222e-07  4.34319e+06
       974.90000  1.13222e-07  4.34319e+06
       975.00000  1.13222e-07  4.34432e+06
       975.10000  1.13222e-07  4.34545e+06
       975.20000  1.13222e-07  4.34545e+06
       975.30000  1.13222e-07  4.34658e+06
       975.40000  1.13222e-07  4.34658e+06
       975.50000  1.52908e-07  5.87014e+06
       975.60000  1.52908e-07  5.87167e+06
       975.70000  1.52908e-07  5.87167e+06
       975.80000  1.52908e-07  5.87167e+06
       975.90000  1.52908e-07  5.87167e+06
       976.00000  1.52908e-07  5.87167e+06
       976.10000  1.52908e-07  5.87014e+06
       976.20000  1.52908e-07  5.86861e+06
       976.30000  1.49984e-07  5.75489e+06
       976.40000  1.49984e-07  5.75339e+06
       976.50000  1.76188e-07  6.75858e+06
       976.60000  1.76188e-07  6.75682e+06
       976.70000  1.76188e-07  6.75505e+06
       976.80000  1.76188e-07  6.75329e+06
       976.90000  1.76188e-07  6.75329e+06
       977.00000  1.76188e-07  6.75153e+06
       977.10000  1.76188e-07  6.74977e+06
       977.20000  1.76188e-07  6.74801e+06
       977.30000  1.76188e-07  6.74801e+06
       977.40000  1.76188e-07  6.74624e+06
       977.50000  3.64829e-07  1.39656e+07
       977.60000  3.64829e-07  1.39656e+07
       977.70000  3.64829e-07  1.39620e+07
       977.80000  3.64829e-07  1.39584e+07
       977.90000  3.64829e-07  1.39584e+07
       978.00000  3.64829e-07  1.39547e+07
       978.10000  3.64829e-07  1.39547e+07
       978.20000  3.64829e-07  1.39511e+07
       978.30000  3.64829e-07  1.39511e+07
       978.40000  3.64829e-07  1.39474e+07
       978.50000  3.60769e-07  1.37886e+07
       978.60000  3.60769e-07  1.37886e+07
       978.70000  3.60769e-07  1.37886e+07
       978.80000  3.53746e-07  1.35167e+07
       978.90000  3.53746e-07  1.35167e+07
       979.00000  3.53746e-07  1.35131e+07
       979.10000  3.53746e-07  1.35131e+07
       979.20000  3.53746e-07  1.35096e+07
       979.30000  3.53746e-07  1.35096e+07
       979.40000  3.53746e-07  1.35096e+07
       979.50000  3.34991e-07  1.27899e+07
       979.60000  3.34991e-07  1.27899e+07
       979.70000  3.34991e-07  1.27899e+07
       979.80000  3.34991e-07  1.27866e+07
       979.90000  3.34991e-07  1.27866e+07
       980.00000  3.34991e-07  1.27866e+07
       980.10000  3.34991e-07  1.27933e+07
       980.20000  3.34991e-07  1.27966e+07
       980.30000  3.34991e-07  1.28033e+07
       980.40000  3.34991e-07  1.28067e+07
       980.50000  5.69611e-07  2.17876e+07
       980.60000  5.69611e-07  2.17933e+07
       980.70000  5.69611e-07  2.17990e+07
       980.80000  5.69611e-07  2.18047e+07
       980.90000  5.69611e-07  2.18104e+07
       981.00000  5.69611e-07  2.18161e+07
       981.10000  5.69611e-07  2.18218e+07
       981.20000  5.69611e-07  2.18275e+07
       981.30000  5.58085e-07  2.13858e+07
       981.40000  5.58085e-07  2.13914e+07
       981.50000  7.37524e-07  2.82693e+07
       981.60000  7.37524e-07  2.82693e+07
       981.70000  7.37524e-07  2.82767e+07
       981.80000  7.37524e-07  2.82767e+07
       981.90000  7.37524e-07  2.82767e+07
       982.00000  7.37524e-07  2.82693e+07
       982.10000  7.37524e-07  2.82619e+07
       982.20000  7.37524e-07  2.82472e+07
       982.30000  7.37524e-07  2.82398e+07
       982.40000  7.37524e-07  2.82251e+07
       982.50000  7.97140e-07  3.04986e+07
       982.60000  7.97140e-07  3.04826e+07
       982.70000  7.97140e-07  3.04747e+07
       982.80000  7.97140e-07  3.04667e+07
       982.90000  7.97140e-07  3.04507e+07
       983.00000  7.97140e-07  3.04428e+07
       983.10000  7.97140e-07  3.04348e+07
       983.20000  7.97140e-07  3.04268e+07
       983.30000  7.97140e-07  3.04189e+07
       983.40000  7.97140e-07  3.04029e+07
       983.50000  9.09697e-07  3.46867e+07
       983.60000  9.09697e-07  3.46776e+07
       983.70000  9.09697e-07  3.46685e+07
       983.80000  8.91755e-07  3.39758e+07
       983.90000  8.91755e-07  3.39669e+07
       984.00000  8.91755e-07  3.39580e+07
       984.10000  8.91755e-07  3.39580e+07
       984.20000  8.91755e-07  3.39491e+07
       984.30000  8.91755e-07  3.39402e+07
       984.40000  8.91755e-07  3.39313e+07
       984.50000  1.17703e-06  4.47861e+07
       984.60000  1.17703e-06  4.47744e+07
       984.70000  1.17703e-06  4.47626e+07
       984.80000  1.17703e-06  4.47626e+07
       984.90000  1.17703e-06  4.47508e+07
       985.00000  1.17703e-06  4.47390e+07
       985.10000  1.17703e-06  4.47390e+07
       985.20000  1.17703e-06  4.47273e+07
       985.30000  1.17703e-06  4.47273e+07
       985.40000  1.17703e-06  4.47273e+07
       985.50000  1.06662e-06  4.05208e+07
       985.60000  1.06662e-06  4.05208e+07
       985.70000  1.06662e-06  4.05208e+07
       985.80000  1.06662e-06  4.05101e+07
       985.90000  1.06662e-06  4.05101e+07
       986.00000  1.06662e-06  4.05101e+07
       986.10000  1.06662e-06  4.04995e+07
       986.20000  1.06662e-06  4.04995e+07
       986.30000  1.04560e-06  3.97013e+07
       986.40000  1.04560e-06  3.96908e+07
       986.50000  8.03673e-07  3.04994e+07
       986.60000  8.03673e-07  3.04994e+07
       986.70000  8.03673e-07  3.04913e+07
       986.80000  8.03673e-07  3.04913e+07
       986.90000  8.03673e-07  3.04833e+07
       987.00000  8.03673e-07  3.04753e+07
       987.10000  8.03673e-07  3.04672e+07
       987.20000  8.03673e-07  3.04672e+07
       987.30000  8.03673e-07  3.04592e+07
       987.40000  8.03673e-07  3.04512e+07
       987.50000  7.67428e-07  2.90702e+07
       987.60000  7.67428e-07  2.90625e+07
       987.70000  7.67428e-07  2.90548e+07
       987.80000  7.67428e-07  2.90471e+07
       987.90000  7.67428e-07  2.90395e+07
       988.00000  7.67428e-07  2.90318e+07
       988.10000  7.67428e-07  2.90088e+07
       988.20000  7.67428e-07  2.89934e+07
       988.30000  7.67428e-07  2.89704e+07
       988.40000  7.67428e-07  2.89551e+07
       988.50000  1.18537e-06  4.47003e+07
       988.60000  1.18537e-06  4.46766e+07
       988.70000  1.18537e-06  4.46529e+07
       988.80000  1.16227e-06  4.37596e+07
       988.90000  1.16227e-06  4.37363e+07
       989.00000  1.16227e-06  4.37247e+07
       989.10000  1.16227e-06  4.37131e+07
       989.20000  1.16227e-06  4.36898e+07
       989.30000  1.16227e-06  4.36782e+07
       989.40000  1.16227e-06  4.36666e+07
       989.50000  1.05948e-06  3.97941e+07
       989.60000  1.05948e-06  3.97835e+07
       989.70000  1.05948e-06  3.97835e+07
       989.80000  1.05948e-06  3.97729e+07
       989.90000  1.05948e-06  3.97729e+07
       990.00000  1.05948e-06  3.97729e+07
       990.10000  1.05948e-06  3.97623e+07
       990.20000  1.05948e-06  3.97623e+07
       990.30000  1.05948e-06  3.97729e+07
       990.40000  1.05948e-06  3.97729e+07
       990.50000  8.43023e-07  3.16471e+07
       990.60000  8.43023e-07  3.16555e+07
       990.70000  8.43023e-07  3.16555e+07
       990.80000  8.43023e-07  3.16639e+07
       990.90000  8.43023e-07  3.16724e+07
       991.00000  8.43023e-07  3.16808e+07
       991.10000  8.43023e-07  3.16892e+07
       991.20000  8.43023e-07  3.16977e+07
       991.30000  8.27401e-07  3.11185e+07
       991.40000  8.27401e-07  3.11351e+07
       991.50000  9.85127e-07  3.70802e+07
       991.60000  9.85127e-07  3.70999e+07
       991.70000  9.85127e-07  3.71196e+07
       991.80000  9.85127e-07  3.71393e+07
       991.90000  9.85127e-07  3.71590e+07
       992.00000  9.85127e-07  3.71787e+07
       992.10000  9.85127e-07  3.71885e+07
       992.20000  9.85127e-07  3.71885e+07
       992.30000  9.85127e-07  3.71885e+07
       992.40000  9.85127e-07  3.71885e+07
       992.50000  4.18977e-07  1.58206e+07
       992.60000  4.18977e-07  1.58206e+07
       992.70000  4.18977e-07  1.58206e+07
       992.80000  4.18977e-07  1.58206e+07
       992.90000  4.18977e-07  1.58206e+07
       993.00000  4.18977e-07  1.58247e+07
       993.10000  4.18977e-07  1.58247e+07
       993.20000  4.18977e-07  1.58247e+07
       993.30000  4.18977e-07  1.58247e+07
       993.40000  4.18977e-07  1.58247e+07
       993.50000  7.48341e-07  2.82649e+07
       993.60000  7.48341e-07  2.82649e+07
       993.70000  7.48341e-07  2.82649e+07
       993.80000  7.35427e-07  2.77771e+07
       993.90000  7.35427e-07  2.77697e+07
       994.00000  7.35427e-07  2.77697e+07
       994.10000  7.35427e-07  2.77697e+07
       994.20000  7.35427e-07  2.77624e+07
       994.30000  7.35427e-07  2.77624e+07
       994.40000  7.35427e-07  2.77550e+07
       994.50000  8.77202e-07  3.31056e+07
       994.60000  8.77202e-07  3.30968e+07
       994.70000  8.77202e-07  3.30968e+07
       994.80000  8.77202e-07  3.30880e+07
       994.90000  8.77202e-07  3.30880e+07
       995.00000  8.77202e-07  3.30793e+07
       995.10000  8.77202e-07  3.30793e+07
       995.20000  8.77202e-07  3.30793e+07
       995.30000  8.77202e-07  3.30705e+07
       995.40000  8.77202e-07  3.30705e+07
       995.50000  7.04438e-07  2.65573e+07
       995.60000  7.04438e-07  2.65503e+07
       995.70000  7.04438e-07  2.65503e+07
       995.80000  7.04438e-07  2.65503e+07
       995.90000  7.04438e-07  2.65503e+07
       996.00000  7.04438e-07  2.65432e+07
       996.10000  7.04438e-07  2.65503e+07
       996.20000  7.04438e-07  2.65503e+07
       996.30000  6.92631e-07  2.61053e+07
       996.40000  6.92631e-07  2.61053e+07
       996.50000  7.84761e-07  2.95776e+07
       996.60000  7.84761e-07  2.95776e+07
       996.70000  7.84761e-07  2.95776e+07
       996.80000  7.84761e-07  2.95776e+07
       996.90000  7.84761e-07  2.95776e+07
       997.00000  7.84761e-07  2.95776e+07
       997.10000  7.84761e-07  2.95776e+07
       997.20000  7.84761e-07  2.95776e+07
       997.30000  7.84761e-07  2.95776e+07
       997.40000  7.84761e-07  2.95776e+07
       997.50000  6.66400e-07  2.51166e+07
       997.60000  6.66400e-07  2.51166e+07
       997.70000  6.66400e-07  2.51166e+07
       997.80000  6.66400e-07  2.51166e+07
       997.90000  6.66400e-07  2.51166e+07
       998.00000  6.66400e-07  2.51099e+07
       998.10000  6.66400e-07  2.51099e+07
       998.20000  6.66400e-07  2.51033e+07
       998.30000  6.66400e-07  2.51033e+07
       998.40000  6.66400e-07  2.50966e+07
       998.50000  5.03872e-07  1.89708e+07
       998.60000  5.03872e-07  1.89708e+07
       998.70000  5.03872e-07  1.89657e+07
       998.80000  4.96192e-07  1.86767e+07
       998.90000  4.96192e-07  1.86767e+07
       999.00000  4.96192e-07  1.86717e+07
       999.10000  4.96192e-07  1.86717e+07
       999.20000  4.96192e-07  1.86668e+07
       999.30000  4.96192e-07  1.86668e+07
       999.40000  4.96192e-07  1.86668e+07
       999.50000  5.77082e-07  2.17041e+07
       999.60000  5.77082e-07  2.17041e+07
       999.70000  5.77082e-07  2.17041e+07
       999.80000  5.77082e-07  2.17041e+07
       999.90000  5.77082e-07  2.17041e+07
       1000.0000  5.77082e-07  2.16983e+07
       1000.1000  5.77082e-07  2.16983e+07
       1000.2000  5.77082e-07  2.16983e+07
       1000.3000  5.77082e-07  2.16983e+07
       1000.4000  5.77082e-07  2.16983e+07
       1000.5000  4.73813e-07  1.78154e+07
       1000.6000  4.73813e-07  1.78154e+07
       1000.7000  4.73813e-07  1.78154e+07
       1000.8000  4.73813e-07  1.78154e+07
       1000.9000  4.73813e-07  1.78154e+07
       1001.0000  4.73813e-07  1.78154e+07
       1001.1000  4.73813e-07  1.78154e+07
       1001.2000  4.73813e-07  1.78201e+07
       1001.3000  4.66820e-07  1.75571e+07
       1001.4000  4.66820e-07  1.75571e+07
       1001.5000  5.61946e-07  2.11348e+07
       1001.6000  5.61946e-07  2.11348e+07
       1001.7000  5.61946e-07  2.11404e+07
       1001.8000  5.61946e-07  2.11404e+07
       1001.9000  5.61946e-07  2.11404e+07
       1002.0000  5.61946e-07  2.11460e+07
       1002.1000  5.61946e-07  2.11123e+07
       1002.2000  5.61946e-07  2.10786e+07
       1002.3000  5.61946e-07  2.10505e+07
       1002.4000  5.61946e-07  2.10168e+07
       1002.5000  6.19628e-07  2.31431e+07
       1002.6000  6.19628e-07  2.31059e+07
       1002.7000  6.19628e-07  2.30749e+07
       1002.8000  6.19628e-07  2.30440e+07
       1002.9000  6.19628e-07  2.30130e+07
       1003.0000  6.19628e-07  2.29820e+07
       1003.1000  6.19628e-07  2.29510e+07
       1003.2000  6.19628e-07  2.29200e+07
       1003.3000  6.19628e-07  2.28952e+07
       1003.4000  6.19628e-07  2.28643e+07
       1003.5000  6.52028e-07  2.40337e+07
       1003.6000  6.52028e-07  2.40077e+07
       1003.7000  6.52028e-07  2.39751e+07
       1003.8000  6.43147e-07  2.36228e+07
       1003.9000  6.43147e-07  2.35970e+07
       1004.0000  6.43147e-07  2.35713e+07
       1004.1000  6.43147e-07  2.35327e+07
       1004.2000  6.43147e-07  2.34877e+07
       1004.3000  6.43147e-07  2.34556e+07
       1004.4000  6.43147e-07  2.34170e+07
       1004.5000  4.58048e-07  1.66546e+07
       1004.6000  4.58048e-07  1.66317e+07
       1004.7000  4.58048e-07  1.66134e+07
       1004.8000  4.58048e-07  1.65951e+07
       1004.9000  4.58048e-07  1.65813e+07
       1005.0000  4.58048e-07  1.65676e+07
       1005.1000  4.58048e-07  1.65539e+07
       1005.2000  4.58048e-07  1.65447e+07
       1005.3000  4.58048e-07  1.65355e+07
       1005.4000  4.58048e-07  1.65310e+07
       1005.5000  5.07403e-07  1.83071e+07
       1005.6000  5.07403e-07  1.83020e+07
       1005.7000  5.07403e-07  1.83020e+07
       1005.8000  5.07403e-07  1.83071e+07
       1005.9000  5.07403e-07  1.83071e+07
       1006.0000  5.07403e-07  1.83122e+07
       1006.1000  5.07403e-07  1.83223e+07
       1006.2000  5.07403e-07  1.83325e+07
       1006.3000  5.00948e-07  1.81093e+07
       1006.4000  5.00948e-07  1.81243e+07
       1006.5000  3.81247e-07  1.38050e+07
       1006.6000  3.81247e-07  1.38202e+07
       1006.7000  3.81247e-07  1.38355e+07
       1006.8000  3.81247e-07  1.38507e+07
       1006.9000  3.81247e-07  1.38698e+07
       1007.0000  3.81247e-07  1.38888e+07
       1007.1000  3.81247e-07  1.39117e+07
       1007.2000  3.81247e-07  1.39346e+07
       1007.3000  3.81247e-07  1.39575e+07
       1007.4000  3.81247e-07  1.39841e+07
       1007.5000  3.88964e-07  1.42944e+07
       1007.6000  3.88964e-07  1.43256e+07
       1007.7000  3.88964e-07  1.43567e+07
       1007.8000  3.88964e-07  1.43878e+07
       1007.9000  3.88964e-07  1.44228e+07
       1008.0000  3.88964e-07  1.44578e+07
       1008.1000  3.88964e-07  1.44617e+07
       1008.2000  3.88964e-07  1.44617e+07
       1008.3000  3.88964e-07  1.44617e+07
       1008.4000  3.88964e-07  1.44617e+07
       1008.5000  4.00150e-07  1.48776e+07
       1008.6000  4.00150e-07  1.48776e+07
       1008.7000  4.00150e-07  1.48776e+07
       1008.8000  3.95467e-07  1.47035e+07
       1008.9000  3.95467e-07  1.47035e+07
       1009.0000  3.95467e-07  1.46995e+07
       1009.1000  3.95467e-07  1.46995e+07
       1009.2000  3.95467e-07  1.46995e+07
       1009.3000  3.95467e-07  1.46995e+07
       1009.4000  3.95467e-07  1.46955e+07
       1009.5000  4.92599e-07  1.83050e+07
       1009.6000  4.92599e-07  1.83050e+07
       1009.7000  4.92599e-07  1.83001e+07
       1009.8000  4.92599e-07  1.83001e+07
       1009.9000  4.92599e-07  1.82951e+07
       1010.0000  4.92599e-07  1.82951e+07
       1010.1000  4.92599e-07  1.82902e+07
       1010.2000  4.92599e-07  1.82853e+07
       1010.3000  4.92599e-07  1.82804e+07
       1010.4000  4.92599e-07  1.82754e+07
       1010.5000  5.07843e-07  1.88359e+07
       1010.6000  5.07843e-07  1.88308e+07
       1010.7000  5.07843e-07  1.88257e+07
       1010.8000  5.07843e-07  1.88207e+07
       1010.9000  5.07843e-07  1.88156e+07
       1011.0000  5.07843e-07  1.88105e+07
       1011.1000  5.07843e-07  1.88105e+07
       1011.2000  5.07843e-07  1.88054e+07
       1011.3000  5.02241e-07  1.85930e+07
       1011.4000  5.02241e-07  1.85879e+07
       1011.5000  4.45925e-07  1.64992e+07
       1011.6000  4.45925e-07  1.64948e+07
       1011.7000  4.45925e-07  1.64903e+07
       1011.8000  4.45925e-07  1.64859e+07
       1011.9000  4.45925e-07  1.64814e+07
       1012.0000  4.45925e-07  1.64769e+07
       1012.1000  4.45925e-07  1.64725e+07
       1012.2000  4.45925e-07  1.64680e+07
       1012.3000  4.45925e-07  1.64636e+07
       1012.4000  4.45925e-07  1.64591e+07
       1012.5000  6.23990e-07  2.30252e+07
       1012.6000  6.23990e-07  2.30190e+07
       1012.7000  6.23990e-07  2.30128e+07
       1012.8000  6.23990e-07  2.30065e+07
       1012.9000  6.23990e-07  2.30065e+07
       1013.0000  6.23990e-07  2.30003e+07
       1013.1000  6.23990e-07  2.29940e+07
       1013.2000  6.23990e-07  2.29878e+07
       1013.3000  6.23990e-07  2.29816e+07
       1013.4000  6.23990e-07  2.29753e+07
       1013.5000  3.39797e-07  1.25079e+07
       1013.6000  3.39797e-07  1.25045e+07
       1013.7000  3.39797e-07  1.25011e+07
       1013.8000  3.36303e-07  1.23692e+07
       1013.9000  3.36303e-07  1.23659e+07
       1014.0000  3.36303e-07  1.23625e+07
       1014.1000  3.36303e-07  1.23558e+07
       1014.2000  3.36303e-07  1.23491e+07
       1014.3000  3.36303e-07  1.23423e+07
       1014.4000  3.36303e-07  1.23356e+07
       1014.5000  2.64601e-07  9.70291e+06
       1014.6000  2.64601e-07  9.69762e+06
       1014.7000  2.64601e-07  9.69233e+06
       1014.8000  2.64601e-07  9.68968e+06
       1014.9000  2.64601e-07  9.68439e+06
       1015.0000  2.64601e-07  9.68175e+06
       1015.1000  2.64601e-07  9.67645e+06
       1015.2000  2.64601e-07  9.67381e+06
       1015.3000  2.64601e-07  9.67116e+06
       1015.4000  2.64601e-07  9.66587e+06
       1015.5000  3.19438e-07  1.16659e+07
       1015.6000  3.19438e-07  1.16627e+07
       1015.7000  3.19438e-07  1.16595e+07
       1015.8000  3.19438e-07  1.16563e+07
       1015.9000  3.19438e-07  1.16531e+07
       1016.0000  3.19438e-07  1.16499e+07
       1016.1000  3.19438e-07  1.16499e+07
       1016.2000  3.19438e-07  1.16499e+07
       1016.3000  3.16402e-07  1.15392e+07
       1016.4000  3.16402e-07  1.15360e+07
       1016.5000  3.22552e-07  1.17602e+07
       1016.6000  3.22552e-07  1.17602e+07
       1016.7000  3.22552e-07  1.17602e+07
       1016.8000  3.22552e-07  1.17570e+07
       1016.9000  3.22552e-07  1.17570e+07
       1017.0000  3.22552e-07  1.17538e+07
       1017.1000  3.22552e-07  1.17538e+07
       1017.2000  3.22552e-07  1.17506e+07
       1017.3000  3.22552e-07  1.17506e+07
       1017.4000  3.22552e-07  1.17473e+07
       1017.5000  3.69804e-07  1.34683e+07
       1017.6000  3.69804e-07  1.34646e+07
       1017.7000  3.69804e-07  1.34609e+07
       1017.8000  3.69804e-07  1.34572e+07
       1017.9000  3.69804e-07  1.34535e+07
       1018.0000  3.69804e-07  1.34535e+07
       1018.1000  3.69804e-07  1.34461e+07
       1018.2000  3.69804e-07  1.34387e+07
       1018.3000  3.69804e-07  1.34313e+07
       1018.4000  3.69804e-07  1.34239e+07
       1018.5000  3.09089e-07  1.12168e+07
       1018.6000  3.09089e-07  1.12107e+07
       1018.7000  3.09089e-07  1.12076e+07
       1018.8000  3.06259e-07  1.10988e+07
       1018.9000  3.06259e-07  1.10958e+07
       1019.0000  3.06259e-07  1.10896e+07
       1019.1000  3.06259e-07  1.10866e+07
       1019.2000  3.06259e-07  1.10835e+07
       1019.3000  3.06259e-07  1.10804e+07
       1019.4000  3.06259e-07  1.10743e+07
       1019.5000  2.85933e-07  1.03365e+07
       1019.6000  2.85933e-07  1.03336e+07
       1019.7000  2.85933e-07  1.03308e+07
       1019.8000  2.85933e-07  1.03308e+07
       1019.9000  2.85933e-07  1.03279e+07
       1020.0000  2.85933e-07  1.03250e+07
       1020.1000  2.85933e-07  1.03222e+07
       1020.2000  2.85933e-07  1.03193e+07
       1020.3000  2.85933e-07  1.03193e+07
       1020.4000  2.85933e-07  1.03165e+07
       1020.5000  2.64382e-07  9.53892e+06
       1020.6000  2.64382e-07  9.53627e+06
       1020.7000  2.64382e-07  9.53627e+06
       1020.8000  2.64382e-07  9.53363e+06
       1020.9000  2.64382e-07  9.53363e+06
       1021.0000  2.64382e-07  9.53363e+06
       1021.1000  2.64382e-07  9.53363e+06
       1021.2000  2.64382e-07  9.53363e+06
       1021.3000  2.62418e-07  9.46279e+06
       1021.4000  2.62418e-07  9.46279e+06
       1021.5000  2.32340e-07  8.37817e+06
       1021.6000  2.32340e-07  8.37817e+06
       1021.7000  2.32340e-07  8.37817e+06
       1021.8000  2.32340e-07  8.38049e+06
       1021.9000  2.32340e-07  8.38049e+06
       1022.0000  2.32340e-07  8.38281e+06
       1022.1000  2.32340e-07  8.38281e+06
       1022.2000  2.32340e-07  8.38514e+06
       1022.3000  2.32340e-07  8.38746e+06
       1022.4000  2.32340e-07  8.38746e+06
       1022.5000  2.32719e-07  8.40350e+06
       1022.6000  2.32719e-07  8.40583e+06
       1022.7000  2.32719e-07  8.40815e+06
       1022.8000  2.32719e-07  8.41048e+06
       1022.9000  2.32719e-07  8.41281e+06
       1023.0000  2.32719e-07  8.41514e+06
       1023.1000  2.32719e-07  8.41979e+06
       1023.2000  2.32719e-07  8.42212e+06
       1023.3000  2.32719e-07  8.42444e+06
       1023.4000  2.32719e-07  8.42910e+06
       1023.5000  2.95919e-07  1.07211e+07
       1023.6000  2.95919e-07  1.07271e+07
       1023.7000  2.95919e-07  1.07300e+07
       1023.8000  2.94062e-07  1.06686e+07
       1023.9000  2.94062e-07  1.06745e+07
       1024.0000  2.94062e-07  1.06803e+07
       1024.1000  2.94062e-07  1.06803e+07
       1024.2000  2.94062e-07  1.06774e+07
       1024.3000  2.94062e-07  1.06774e+07
       1024.4000  2.94062e-07  1.06774e+07
       1024.5000  2.84434e-07  1.03278e+07
       1024.6000  2.84434e-07  1.03249e+07
       1024.7000  2.84434e-07  1.03249e+07
       1024.8000  2.84434e-07  1.03249e+07
       1024.9000  2.84434e-07  1.03221e+07
       1025.0000  2.84434e-07  1.03221e+07
       1025.1000  2.84434e-07  1.03221e+07
       1025.2000  2.84434e-07  1.03192e+07
       1025.3000  2.84434e-07  1.03192e+07
       1025.4000  2.84434e-07  1.03192e+07
       1025.5000  2.53528e-07  9.19545e+06
       1025.6000  2.53528e-07  9.19545e+06
       1025.7000  2.53528e-07  9.19292e+06
       1025.8000  2.53528e-07  9.19292e+06
       1025.9000  2.53528e-07  9.19038e+06
       1026.0000  2.53528e-07  9.19038e+06
       1026.1000  2.53528e-07  9.19038e+06
       1026.2000  2.53528e-07  9.18784e+06
       1026.3000  2.51947e-07  9.13055e+06
       1026.4000  2.51947e-07  9.12803e+06
       1026.5000  2.00183e-07  7.25262e+06
       1026.6000  2.00183e-07  7.25062e+06
       1026.7000  2.00183e-07  7.24861e+06
       1026.8000  2.00183e-07  7.24861e+06
       1026.9000  2.00183e-07  7.24661e+06
       1027.0000  2.00183e-07  7.24661e+06
       1027.1000  2.00183e-07  7.24461e+06
       1027.2000  2.00183e-07  7.24261e+06
       1027.3000  2.00183e-07  7.24261e+06
       1027.4000  2.00183e-07  7.24061e+06
       1027.5000  2.19686e-07  7.94384e+06
       1027.6000  2.19686e-07  7.94384e+06
       1027.7000  2.19686e-07  7.94164e+06
       1027.8000  2.19686e-07  7.93944e+06
       1027.9000  2.19686e-07  7.93725e+06
       1028.0000  2.19686e-07  7.93505e+06
       1028.1000  2.19686e-07  7.93505e+06
       1028.2000  2.19686e-07  7.93285e+06
       1028.3000  2.19686e-07  7.93066e+06
       1028.4000  2.19686e-07  7.92846e+06
       1028.5000  2.30614e-07  8.32056e+06
       1028.6000  2.30614e-07  8.31826e+06
       1028.7000  2.30614e-07  8.31595e+06
       1028.8000  2.28637e-07  8.24235e+06
       1028.9000  2.28637e-07  8.24006e+06
       1029.0000  2.28637e-07  8.23778e+06
       1029.1000  2.28637e-07  8.23549e+06
       1029.2000  2.28637e-07  8.23320e+06
       1029.3000  2.28637e-07  8.23092e+06
       1029.4000  2.28637e-07  8.22863e+06
       1029.5000  2.24268e-07  8.06916e+06
       1029.6000  2.24268e-07  8.06692e+06
       1029.7000  2.24268e-07  8.06468e+06
       1029.8000  2.24268e-07  8.06243e+06
       1029.9000  2.24268e-07  8.06019e+06
       1030.0000  2.24268e-07  8.05570e+06
       1030.1000  2.24268e-07  8.05795e+06
       1030.2000  2.24268e-07  8.05795e+06
       1030.3000  2.24268e-07  8.05795e+06
       1030.4000  2.24268e-07  8.05795e+06
       1030.5000  2.37909e-07  8.54807e+06
       1030.6000  2.37909e-07  8.54807e+06
       1030.7000  2.37909e-07  8.54569e+06
       1030.8000  2.37909e-07  8.54569e+06
       1030.9000  2.37909e-07  8.54569e+06
       1031.0000  2.37909e-07  8.54331e+06
       1031.1000  2.37909e-07  8.54331e+06
       1031.2000  2.37909e-07  8.54093e+06
       1031.3000  2.34672e-07  8.42472e+06
       1031.4000  2.34672e-07  8.42238e+06
       1031.5000  1.88196e-07  6.75248e+06
       1031.6000  1.88196e-07  6.75060e+06
       1031.7000  1.88196e-07  6.74872e+06
       1031.8000  1.88196e-07  6.74684e+06
       1031.9000  1.88196e-07  6.74496e+06
       1032.0000  1.88196e-07  6.74307e+06
       1032.1000  1.88196e-07  6.73743e+06
       1032.2000  1.88196e-07  6.72990e+06
       1032.3000  1.88196e-07  6.72425e+06
       1032.4000  1.88196e-07  6.72049e+06
       1032.5000  2.37602e-07  8.47764e+06
       1032.6000  2.37602e-07  8.47052e+06
       1032.7000  2.37602e-07  8.46576e+06
       1032.8000  2.37602e-07  8.45864e+06
       1032.9000  2.37602e-07  8.45388e+06
       1033.0000  2.37602e-07  8.44913e+06
       1033.1000  2.37602e-07  8.44438e+06
       1033.2000  2.37602e-07  8.44200e+06
       1033.3000  2.37602e-07  8.43725e+06
       1033.4000  2.37602e-07  8.43488e+06
       1033.5000  2.27474e-07  8.07079e+06
       1033.6000  2.27474e-07  8.06852e+06
       1033.7000  2.27474e-07  8.06624e+06
       1033.8000  2.23144e-07  7.91047e+06
       1033.9000  2.23144e-07  7.91047e+06
       1034.0000  2.23144e-07  7.90824e+06
       1034.1000  2.23144e-07  7.90824e+06
       1034.2000  2.23144e-07  7.90600e+06
       1034.3000  2.23144e-07  7.90600e+06
       1034.4000  2.23144e-07  7.90600e+06
       1034.5000  1.99061e-07  7.05273e+06
       1034.6000  1.99061e-07  7.05472e+06
       1034.7000  1.99061e-07  7.05472e+06
       1034.8000  1.99061e-07  7.05672e+06
       1034.9000  1.99061e-07  7.05672e+06
       1035.0000  1.99061e-07  7.05871e+06
       1035.1000  1.99061e-07  7.06070e+06
       1035.2000  1.99061e-07  7.06269e+06
       1035.3000  1.99061e-07  7.06667e+06
       1035.4000  1.99061e-07  7.06866e+06
       1035.5000  1.63558e-07  5.81123e+06
       1035.6000  1.63558e-07  5.81450e+06
       1035.7000  1.63558e-07  5.81614e+06
       1035.8000  1.63558e-07  5.81941e+06
       1035.9000  1.63558e-07  5.82431e+06
       1036.0000  1.63558e-07  5.82758e+06
       1036.1000  1.63558e-07  5.82431e+06
       1036.2000  1.63558e-07  5.82104e+06
       1036.3000  1.59739e-07  5.68193e+06
       1036.4000  1.59739e-07  5.67873e+06
       1036.5000  1.43316e-07  5.09201e+06
       1036.6000  1.43316e-07  5.08914e+06
       1036.7000  1.43316e-07  5.08771e+06
       1036.8000  1.43316e-07  5.08484e+06
       1036.9000  1.43316e-07  5.08198e+06
       1037.0000  1.43316e-07  5.08054e+06
       1037.1000  1.43316e-07  5.07911e+06
       1037.2000  1.43316e-07  5.07624e+06
       1037.3000  1.43316e-07  5.07481e+06
       1037.4000  1.43316e-07  5.07338e+06
       1037.5000  1.63425e-07  5.78362e+06
       1037.6000  1.63425e-07  5.78198e+06
       1037.7000  1.63425e-07  5.78035e+06
       1037.8000  1.63425e-07  5.77871e+06
       1037.9000  1.63425e-07  5.77708e+06
       1038.0000  1.63425e-07  5.77544e+06
       1038.1000  1.63425e-07  5.77544e+06
       1038.2000  1.63425e-07  5.77544e+06
       1038.3000  1.63425e-07  5.77708e+06
       1038.4000  1.63425e-07  5.77708e+06
       1038.5000  2.00450e-07  7.08592e+06
       1038.6000  2.00450e-07  7.08592e+06
       1038.7000  2.00450e-07  7.08592e+06
       1038.8000  1.95235e-07  6.90155e+06
       1038.9000  1.95235e-07  6.90155e+06
       1039.0000  1.95235e-07  6.90155e+06
       1039.1000  1.95235e-07  6.90155e+06
       1039.2000  1.95235e-07  6.90155e+06
       1039.3000  1.95235e-07  6.90155e+06
       1039.4000  1.95235e-07  6.90155e+06
       1039.5000  1.55115e-07  5.48332e+06
       1039.6000  1.55115e-07  5.48332e+06
       1039.7000  1.55115e-07  5.48332e+06
       1039.8000  1.55115e-07  5.48332e+06
       1039.9000  1.55115e-07  5.48332e+06
       1040.0000  1.55115e-07  5.48332e+06
       1040.1000  1.55115e-07  5.48332e+06
       1040.2000  1.55115e-07  5.48332e+06
       1040.3000  1.55115e-07  5.48332e+06
       1040.4000  1.55115e-07  5.48332e+06
       1040.5000  1.39608e-07  4.93516e+06
       1040.6000  1.39608e-07  4.93516e+06
       1040.7000  1.39608e-07  4.93516e+06
       1040.8000  1.39608e-07  4.93516e+06
       1040.9000  1.39608e-07  4.93516e+06
       1041.0000  1.39608e-07  4.93516e+06
       1041.1000  1.39608e-07  4.93516e+06
       1041.2000  1.39608e-07  4.93516e+06
       1041.3000  1.35610e-07  4.79381e+06
       1041.4000  1.35610e-07  4.79381e+06
       1041.5000  1.19106e-07  4.21040e+06
       1041.6000  1.19106e-07  4.21040e+06
       1041.7000  1.19106e-07  4.21040e+06
       1041.8000  1.19106e-07  4.20921e+06
       1041.9000  1.19106e-07  4.20921e+06
       1042.0000  1.19106e-07  4.20921e+06
       1042.1000  1.19106e-07  4.21040e+06
       1042.2000  1.19106e-07  4.21040e+06
       1042.3000  1.19106e-07  4.21159e+06
       1042.4000  1.19106e-07  4.21159e+06
       1042.5000  7.75972e-08  2.74384e+06
       1042.6000  7.75972e-08  2.74384e+06
       1042.7000  7.75972e-08  2.74384e+06
       1042.8000  7.75972e-08  2.74306e+06
       1042.9000  7.75972e-08  2.74306e+06
       1043.0000  7.75972e-08  2.74306e+06
       1043.1000  7.75972e-08  2.74228e+06
       1043.2000  7.75972e-08  2.74151e+06
       1043.3000  7.75972e-08  2.74151e+06
       1043.4000  7.75972e-08  2.74073e+06
       1043.5000  1.49137e-07  5.26601e+06
       1043.6000  1.49137e-07  5.26452e+06
       1043.7000  1.49137e-07  5.26303e+06
       1043.8000  1.44870e-07  5.10958e+06
       1043.9000  1.44870e-07  5.10813e+06
       1044.0000  1.44870e-07  5.10523e+06
       1044.1000  1.44870e-07  5.09944e+06
       1044.2000  1.44870e-07  5.09219e+06
       1044.3000  1.44870e-07  5.08640e+06
       1044.4000  1.44870e-07  5.08060e+06
       1044.5000  1.10081e-07  3.85613e+06
       1044.6000  1.10081e-07  3.85283e+06
       1044.7000  1.10081e-07  3.84843e+06
       1044.8000  1.10081e-07  3.84512e+06
       1044.9000  1.10081e-07  3.84182e+06
       1045.0000  1.10081e-07  3.83852e+06
       1045.1000  1.10081e-07  3.83632e+06
       1045.2000  1.10081e-07  3.83302e+06
       1045.3000  1.10081e-07  3.83081e+06
       1045.4000  1.10081e-07  3.82861e+06
       1045.5000  8.58511e-08  2.98504e+06
       1045.6000  8.58511e-08  2.98333e+06
       1045.7000  8.58511e-08  2.98247e+06
       1045.8000  8.58511e-08  2.98161e+06
       1045.9000  8.58511e-08  2.98075e+06
       1046.0000  8.58511e-08  2.97989e+06
       1046.1000  8.58511e-08  2.97989e+06
       1046.2000  8.58511e-08  2.97903e+06
       1046.3000  8.34141e-08  2.89447e+06
       1046.4000  8.34141e-08  2.89447e+06
       1046.5000  7.41089e-08  2.57232e+06
       1046.6000  7.41089e-08  2.57232e+06
       1046.7000  7.41089e-08  2.57306e+06
       1046.8000  7.41089e-08  2.57380e+06
       1046.9000  7.41089e-08  2.57454e+06
       1047.0000  7.41089e-08  2.57603e+06
       1047.1000  7.41089e-08  2.57677e+06
       1047.2000  7.41089e-08  2.57825e+06
       1047.3000  7.41089e-08  2.57973e+06
       1047.4000  7.41089e-08  2.58121e+06
       1047.5000  7.14697e-08  2.49144e+06
       1047.6000  7.14697e-08  2.49286e+06
       1047.7000  7.14697e-08  2.49501e+06
       1047.8000  7.14697e-08  2.49715e+06
       1047.9000  7.14697e-08  2.49930e+06
       1048.0000  7.14697e-08  2.50216e+06
       1048.1000  7.14697e-08  2.50216e+06
       1048.2000  7.14697e-08  2.50216e+06
       1048.3000  7.14697e-08  2.50216e+06
       1048.4000  7.14697e-08  2.50144e+06
       1048.5000  8.83335e-08  3.09167e+06
       1048.6000  8.83335e-08  3.09167e+06
       1048.7000  8.83335e-08  3.09167e+06
       1048.8000  8.60233e-08  3.01082e+06
       1048.9000  8.60233e-08  3.01082e+06
       1049.0000  8.60233e-08  3.00996e+06
       1049.1000  8.60233e-08  3.00996e+06
       1049.2000  8.60233e-08  3.00996e+06
       1049.3000  8.60233e-08  3.00909e+06
       1049.4000  8.60233e-08  3.00909e+06
       1049.5000  7.98804e-08  2.79422e+06
       1049.6000  7.98804e-08  2.79342e+06
       1049.7000  7.98804e-08  2.79342e+06
       1049.8000  7.98804e-08  2.79342e+06
       1049.9000  7.98804e-08  2.79262e+06
       1050.0000  7.98804e-08  2.79262e+06
       1050.1000  7.98804e-08  2.79182e+06
       1050.2000  7.98804e-08  2.79182e+06
       1050.3000  7.98804e-08  2.79102e+06
       1050.4000  7.98804e-08  2.79022e+06
       1050.5000  4.63415e-08  1.61871e+06
       1050.6000  4.63415e-08  1.61825e+06
       1050.7000  4.63415e-08  1.61825e+06
       1050.8000  4.63415e-08  1.61778e+06
       1050.9000  4.63415e-08  1.61732e+06
       1051.0000  4.63415e-08  1.61732e+06
       1051.1000  4.63415e-08  1.61686e+06
       1051.2000  4.63415e-08  1.61686e+06
       1051.3000  4.53045e-08  1.58022e+06
       1051.4000  4.53045e-08  1.57977e+06
       1051.5000  4.13630e-08  1.44233e+06
       1051.6000  4.13630e-08  1.44192e+06
       1051.7000  4.13630e-08  1.44150e+06
       1051.8000  4.13630e-08  1.44150e+06
       1051.9000  4.13630e-08  1.44109e+06
       1052.0000  4.13630e-08  1.44109e+06
       1052.1000  4.13630e-08  1.44067e+06
       1052.2000  4.13630e-08  1.44026e+06
       1052.3000  4.13630e-08  1.44026e+06
       1052.4000  4.13630e-08  1.43985e+06
       1052.5000  3.85065e-08  1.34002e+06
       1052.6000  3.85065e-08  1.34002e+06
       1052.7000  3.85065e-08  1.33964e+06
       1052.8000  3.85065e-08  1.33925e+06
       1052.9000  3.85065e-08  1.33925e+06
       1053.0000  3.85065e-08  1.33887e+06
       1053.1000  3.85065e-08  1.33887e+06
       1053.2000  3.85065e-08  1.33848e+06
       1053.3000  3.85065e-08  1.33810e+06
       1053.4000  3.85065e-08  1.33810e+06
       1053.5000  3.48486e-08  1.21064e+06
       1053.6000  3.48486e-08  1.21029e+06
       1053.7000  3.48486e-08  1.21029e+06
       1053.8000  3.41977e-08  1.18734e+06
       1053.9000  3.41977e-08  1.18700e+06
       1054.0000  3.41977e-08  1.18700e+06
       1054.1000  3.41977e-08  1.18769e+06
       1054.2000  3.41977e-08  1.18803e+06
       1054.3000  3.41977e-08  1.18871e+06
       1054.4000  3.41977e-08  1.18940e+06
       1054.5000  2.03807e-08      709045.
       1054.6000  2.03807e-08      709248.
       1054.7000  2.03807e-08      709452.
       1054.8000  2.03807e-08      709656.
       1054.9000  2.03807e-08      709860.
       1055.0000  2.03807e-08      710064.
       1055.1000  2.03807e-08      710064.
       1055.2000  2.03807e-08      710064.
       1055.3000  2.03807e-08      710267.
       1055.4000  2.03807e-08      710267.
       1055.5000  2.21378e-08      771280.
       1055.6000  2.21378e-08      771280.
       1055.7000  2.21378e-08      771280.
       1055.8000  2.21378e-08      771059.
       1055.9000  2.21378e-08      770837.
       1056.0000  2.21378e-08      770616.
       1056.1000  2.21378e-08      769952.
       1056.2000  2.21378e-08      769288.
       1056.3000  2.17340e-08      754606.
       1056.4000  2.17340e-08      753736.
       1056.5000  9.53983e-09      330555.
       1056.6000  9.53983e-09      330364.
       1056.7000  9.53983e-09      330078.
       1056.8000  9.53983e-09      329792.
       1056.9000  9.53983e-09      329506.
       1057.0000  9.53983e-09      329315.
