PDS_VERSION_ID         = PDS3
RECORD_TYPE            = STREAM
OBJECT                 = TEXT
  PUBLICATION_DATE     = 2014-04-25
  INTERCHANGE_FORMAT   = ASCII
  NOTE                 = "System transmission vs. wavelength."
END_OBJECT             = TEXT
END
    
The systrans directory contains the non-wavelength-integrated system 
transmission values (QE*optics*filter1*filter2) for each filter combination. 
The naming convention for these files is as follows:

<camera><filter 1><filter 2>_systrans.tab

where <camera> is "issna" or "isswa," and <filter 1> and <filter 2> represent
the filter names. For polarized filter combinations, values are given for the
parallel orientation of the filter (full transmission), with values for the 
perpendicular (blocking) orientation provided in files with subscript 
"_b_systrans.tab". 

Columns in systrans files are as follows:

 1st column: Wavelength (nm)  
 2nd column: Transmitted Flux
 3rd column: Transmitted Flux * Solar Flux (phot per cm^2-s-angstrom at 1 AU)

The solar spectrum used for this calculation is provided in solarflux.tab.

\begindata
       659.00000  5.38077e-12      276.141
       659.10000  5.38077e-12      277.002
       659.20000  5.38077e-12      277.809
       659.30000  5.38077e-12      278.509
       659.40000  5.38077e-12      279.154
       659.50000  7.29867e-12      379.458
       659.60000  7.29867e-12      380.188
       659.70000  7.29867e-12      380.772
       659.80000  7.29867e-12      381.355
       659.90000  7.29867e-12      381.793
       660.00000  7.29867e-12      382.158
       660.10000  7.29867e-12      382.450
       660.20000  7.29867e-12      382.596
       660.30000  7.29867e-12      382.742
       660.40000  7.29867e-12      382.742
       660.50000  1.07920e-11      565.826
       660.60000  1.07920e-11      565.610
       660.70000  1.07920e-11      565.286
       660.80000  1.07920e-11      564.746
       660.90000  1.07920e-11      564.207
       661.00000  1.07920e-11      563.451
       661.10000  1.07920e-11      563.128
       661.20000  1.07920e-11      562.696
       661.30000  1.07130e-11      558.255
       661.40000  1.07130e-11      557.933
       661.50000  2.87469e-12      149.628
       661.60000  2.87469e-12      149.570
       661.70000  2.87469e-12      149.484
       661.80000  2.87469e-12      149.426
       661.90000  2.87469e-12      149.369
       662.00000  2.87469e-12      149.311
       662.10000  2.87469e-12      149.254
       662.20000  2.87469e-12      149.196
       662.30000  2.87469e-12      149.168
       662.40000  2.87469e-12      149.139
       662.50000  2.75591e-13      14.2922
       662.60000  2.75591e-13      14.2922
       662.70000  2.75591e-13      14.2894
       662.80000  2.75591e-13      14.2867
       662.90000  2.75591e-13      14.2867
       663.00000  2.75591e-13      14.2867
       663.10000  2.75591e-13      14.2977
       663.20000  2.75591e-13      14.3059
       663.30000  2.75591e-13      14.3170
       663.40000  2.75591e-13      14.3252
       663.50000  6.82875e-12      355.163
       663.60000  6.82875e-12      355.368
       663.70000  6.82875e-12      355.505
       663.80000  6.77260e-12      352.785
       663.90000  6.77260e-12      352.920
       664.00000  6.77260e-12      352.988
       664.10000  6.77260e-12      353.123
       664.20000  6.77260e-12      353.191
       664.30000  6.77260e-12      353.259
       664.40000  6.77260e-12      353.326
       664.50000  5.51011e-12      287.462
       664.60000  5.51011e-12      287.462
       664.70000  5.51011e-12      287.462
       664.80000  5.51011e-12      287.462
       664.90000  5.51011e-12      287.462
       665.00000  5.51011e-12      287.407
       665.10000  5.51011e-12      287.352
       665.20000  5.51011e-12      287.297
       665.30000  5.51011e-12      287.187
       665.40000  5.51011e-12      287.077
       665.50000  5.52139e-13      28.7554
       665.60000  5.52139e-13      28.7444
       665.70000  5.52139e-13      28.7278
       665.80000  5.52139e-13      28.7168
       665.90000  5.52139e-13      28.7002
       666.00000  5.52139e-13      28.6781
       666.10000  5.52139e-13      28.6616
       666.20000  5.52139e-13      28.6395
       666.30000  5.48571e-13      28.4324
       666.40000  5.48571e-13      28.4105
       666.50000  2.78729e-12      144.215
       666.60000  2.78729e-12      144.075
       666.70000  2.78729e-12      143.936
       666.80000  2.78729e-12      143.796
       666.90000  2.78729e-12      143.657
       667.00000  2.78729e-12      143.490
       667.10000  2.78729e-12      143.657
       667.20000  2.78729e-12      143.796
       667.30000  2.78729e-12      143.936
       667.40000  2.78729e-12      144.075
       667.50000  9.51245e-12      492.174
       667.60000  9.51245e-12      492.555
       667.70000  9.51245e-12      492.935
       667.80000  9.51245e-12      493.221
       667.90000  9.51245e-12      493.506
       668.00000  9.51245e-12      493.791
       668.10000  9.51245e-12      494.077
       668.20000  9.51245e-12      494.267
       668.30000  9.51245e-12      494.457
       668.40000  9.51245e-12      494.552
       668.50000  1.32591e-12      68.9475
       668.60000  1.32591e-12      68.9607
       668.70000  1.32591e-12      68.9607
       668.80000  1.31831e-12      68.5651
       668.90000  1.31831e-12      68.5651
       669.00000  1.31831e-12      68.5519
       669.10000  1.31831e-12      68.4596
       669.20000  1.31831e-12      68.3673
       669.30000  1.31831e-12      68.2882
       669.40000  1.31831e-12      68.2091
       669.50000  1.44955e-12      74.9129
       669.60000  1.44955e-12      74.8259
       669.70000  1.44955e-12      74.7535
       669.80000  1.44955e-12      74.6810
       669.90000  1.44955e-12      74.6085
       670.00000  1.44955e-12      74.5505
       670.10000  1.44955e-12      74.4925
       670.20000  1.44955e-12      74.4346
       670.30000  1.44955e-12      74.3766
       670.40000  1.44955e-12      74.3331
       670.50000  1.31827e-12      67.5611
       670.60000  1.31827e-12      67.5216
       670.70000  1.31827e-12      67.4952
       670.80000  1.31827e-12      67.4689
       670.90000  1.31827e-12      67.4425
       671.00000  1.31827e-12      67.4293
       671.10000  1.31827e-12      67.4030
       671.20000  1.31827e-12      67.4030
       671.30000  1.31080e-12      67.0080
       671.40000  1.31080e-12      67.0080
       671.50000  1.22515e-12      62.6295
       671.60000  1.22515e-12      62.6295
       671.70000  1.22515e-12      62.6295
       671.80000  1.22515e-12      62.6418
       671.90000  1.22515e-12      62.6540
       672.00000  1.22515e-12      62.6785
       672.10000  1.22515e-12      62.7030
       672.20000  1.22515e-12      62.7275
       672.30000  1.22515e-12      62.7520
       672.40000  1.22515e-12      62.7888
       672.50000  2.98925e-12      153.289
       672.60000  2.98925e-12      153.378
       672.70000  2.98925e-12      153.468
       672.80000  2.98925e-12      153.588
       672.90000  2.98925e-12      153.707
       673.00000  2.98925e-12      153.857
       673.10000  2.98925e-12      153.797
       673.20000  2.98925e-12      153.737
       673.30000  2.98925e-12      153.677
       673.40000  2.98925e-12      153.647
       673.50000  1.44610e-12      74.3007
       673.60000  1.44610e-12      74.2863
       673.70000  1.44610e-12      74.2718
       673.80000  1.43711e-12      73.7810
       673.90000  1.43711e-12      73.7666
       674.00000  1.43711e-12      73.7523
       674.10000  1.43711e-12      73.7379
       674.20000  1.43711e-12      73.7235
       674.30000  1.43711e-12      73.7092
       674.40000  1.43711e-12      73.6948
       674.50000  1.30300e-12      66.8050
       674.60000  1.30300e-12      66.8050
       674.70000  1.30300e-12      66.7920
       674.80000  1.30300e-12      66.7920
       674.90000  1.30300e-12      66.7790
       675.00000  1.30300e-12      66.7790
       675.10000  1.30300e-12      66.7920
       675.20000  1.30300e-12      66.8050
       675.30000  1.30300e-12      66.8180
       675.40000  1.30300e-12      66.8311
       675.50000  4.67983e-13      24.0028
       675.60000  4.67983e-13      24.0075
       675.70000  4.67983e-13      24.0122
       675.80000  4.67983e-13      24.0122
       675.90000  4.67983e-13      24.0169
       676.00000  4.67983e-13      24.0169
       676.10000  4.67983e-13      24.0216
       676.20000  4.67983e-13      24.0216
       676.30000  4.64445e-13      23.8400
       676.40000  4.64445e-13      23.8400
       676.50000  1.31035e-12      67.2734
       676.60000  1.31035e-12      67.2734
       676.70000  1.31035e-12      67.2734
       676.80000  1.31035e-12      67.2603
       676.90000  1.31035e-12      67.2603
       677.00000  1.31035e-12      67.2603
       677.10000  1.31035e-12      67.2603
       677.20000  1.31035e-12      67.2472
       677.30000  1.31035e-12      67.2472
       677.40000  1.31035e-12      67.2341
       677.50000  4.36612e-12      224.026
       677.60000  4.36612e-12      223.982
       677.70000  4.36612e-12      223.982
       677.80000  4.36612e-12      223.938
       677.90000  4.36612e-12      223.895
       678.00000  4.36612e-12      223.851
       678.10000  4.36612e-12      223.807
       678.20000  4.36612e-12      223.764
       678.30000  4.36612e-12      223.720
       678.40000  4.36612e-12      223.676
       678.50000  8.23865e-13      42.1901
       678.60000  8.23865e-13      42.1819
       678.70000  8.23865e-13      42.1736
       678.80000  8.17655e-13      41.8394
       678.90000  8.17655e-13      41.8312
       679.00000  8.17655e-13      41.8149
       679.10000  8.17655e-13      41.8149
       679.20000  8.17655e-13      41.8231
       679.30000  8.17655e-13      41.8231
       679.40000  8.17655e-13      41.8231
       679.50000  3.65415e-12      186.910
       679.60000  3.65415e-12      186.910
       679.70000  3.65415e-12      186.910
       679.80000  3.65415e-12      186.910
       679.90000  3.65415e-12      186.910
       680.00000  3.65415e-12      186.873
       680.10000  3.65415e-12      186.873
       680.20000  3.65415e-12      186.873
       680.30000  3.65415e-12      186.836
       680.40000  3.65415e-12      186.836
       680.50000  5.56184e-12      284.321
       680.60000  5.56184e-12      284.321
       680.70000  5.56184e-12      284.265
       680.80000  5.56184e-12      284.210
       680.90000  5.56184e-12      284.154
       681.00000  5.56184e-12      284.154
       681.10000  5.56184e-12      284.099
       681.20000  5.56184e-12      284.043
       681.30000  5.51488e-12      281.645
       681.40000  5.51488e-12      281.590
       681.50000  1.54431e-12      78.8370
       681.60000  1.54431e-12      78.8215
       681.70000  1.54431e-12      78.8061
       681.80000  1.54431e-12      78.7752
       681.90000  1.54431e-12      78.7597
       682.00000  1.54431e-12      78.7443
       682.10000  1.54431e-12      78.7134
       682.20000  1.54431e-12      78.6825
       682.30000  1.54431e-12      78.6671
       682.40000  1.54431e-12      78.6362
       682.50000  6.66511e-13      33.9254
       682.60000  6.66511e-13      33.9121
       682.70000  6.66511e-13      33.8987
       682.80000  6.66511e-13      33.8854
       682.90000  6.66511e-13      33.8654
       683.00000  6.66511e-13      33.8521
       683.10000  6.66511e-13      33.8388
       683.20000  6.66511e-13      33.8188
       683.30000  6.66511e-13      33.7988
       683.40000  6.66511e-13      33.7788
       683.50000  2.58885e-12      131.151
       683.60000  2.58885e-12      131.074
       683.70000  2.58885e-12      130.996
       683.80000  2.56427e-12      129.649
       683.90000  2.56427e-12      129.573
       684.00000  2.56427e-12      129.496
       684.10000  2.56427e-12      129.393
       684.20000  2.56427e-12      129.316
       684.30000  2.56427e-12      129.214
       684.40000  2.56427e-12      129.137
       684.50000  5.31873e-12      267.638
       684.60000  5.31873e-12      267.426
       684.70000  5.31873e-12      267.213
       684.80000  5.31873e-12      267.000
       684.90000  5.31873e-12      266.734
       685.00000  5.31873e-12      266.521
       685.10000  5.31873e-12      266.734
       685.20000  5.31873e-12      267.000
       685.30000  5.31873e-12      267.213
       685.40000  5.31873e-12      267.372
       685.50000  6.59629e-12      331.859
       685.60000  6.59629e-12      332.123
       685.70000  6.59629e-12      332.321
       685.80000  6.59629e-12      332.519
       685.90000  6.59629e-12      332.717
       686.00000  6.59629e-12      332.915
       686.10000  6.59629e-12      333.113
       686.20000  6.59629e-12      333.245
       686.30000  6.53399e-12      330.293
       686.40000  6.53399e-12      330.424
       686.50000  1.64620e-11      832.811
       686.60000  1.64620e-11      833.141
       686.70000  1.64620e-11      833.470
       686.80000  1.64620e-11      833.635
       686.90000  1.64620e-11      833.964
       687.00000  1.64620e-11      834.128
       687.10000  1.64620e-11      834.293
       687.20000  1.64620e-11      834.293
       687.30000  1.64620e-11      834.293
       687.40000  1.64620e-11      834.293
       687.50000  3.56035e-13      18.0439
       687.60000  3.56035e-13      18.0439
       687.70000  3.56035e-13      18.0439
       687.80000  3.56035e-13      18.0439
       687.90000  3.56035e-13      18.0439
       688.00000  3.56035e-13      18.0403
       688.10000  3.56035e-13      18.0403
       688.20000  3.56035e-13      18.0403
       688.30000  3.56035e-13      18.0367
       688.40000  3.56035e-13      18.0367
       688.50000  2.42025e-13      12.2586
       688.60000  2.42025e-13      12.2562
       688.70000  2.42025e-13      12.2562
       688.80000  2.40038e-13      12.1531
       688.90000  2.40038e-13      12.1507
       689.00000  2.40038e-13      12.1483
       689.10000  2.40038e-13      12.1459
       689.20000  2.40038e-13      12.1435
       689.30000  2.40038e-13      12.1411
       689.40000  2.40038e-13      12.1387
       689.50000  1.25360e-12      63.3818
       689.60000  1.25360e-12      63.3693
       689.70000  1.25360e-12      63.3442
       689.80000  1.25360e-12      63.3317
       689.90000  1.25360e-12      63.3191
       690.00000  1.25360e-12      63.2941
       690.10000  1.25360e-12      63.2690
       690.20000  1.25360e-12      63.2565
       690.30000  1.25360e-12      63.2314
       690.40000  1.25360e-12      63.2063
       690.50000  3.83275e-12      193.209
       690.60000  3.83275e-12      193.132
       690.70000  3.83275e-12      193.056
       690.80000  3.83275e-12      192.979
       690.90000  3.83275e-12      192.902
       691.00000  3.83275e-12      192.826
       691.10000  3.83275e-12      192.902
       691.20000  3.83275e-12      192.941
       691.30000  3.80372e-12      191.555
       691.40000  3.80372e-12      191.593
       691.50000  3.75516e-12      189.185
       691.60000  3.75516e-12      189.260
       691.70000  3.75516e-12      189.297
       691.80000  3.75516e-12      189.335
       691.90000  3.75516e-12      189.372
       692.00000  3.75516e-12      189.372
       692.10000  3.75516e-12      189.410
       692.20000  3.75516e-12      189.448
       692.30000  3.75516e-12      189.448
       692.40000  3.75516e-12      189.448
       692.50000  1.96749e-13      9.92795
       692.60000  1.96749e-13      9.92795
       692.70000  1.96749e-13      9.92795
       692.80000  1.96749e-13      9.92795
       692.90000  1.96749e-13      9.92795
       693.00000  1.96749e-13      9.92598
       693.10000  1.96749e-13      9.92598
       693.20000  1.96749e-13      9.92402
       693.30000  1.96749e-13      9.92205
       693.40000  1.96749e-13      9.92008
       693.50000  4.62069e-12      232.929
       693.60000  4.62069e-12      232.883
       693.70000  4.62069e-12      232.837
       693.80000  4.58882e-12      231.185
       693.90000  4.58882e-12      231.093
       694.00000  4.58882e-12      231.047
       694.10000  4.58882e-12      231.001
       694.20000  4.58882e-12      230.910
       694.30000  4.58882e-12      230.864
       694.40000  4.58882e-12      230.772
       694.50000  6.27899e-12      315.645
       694.60000  6.27899e-12      315.582
       694.70000  6.27899e-12      315.457
       694.80000  6.27899e-12      315.331
       694.90000  6.27899e-12      315.205
       695.00000  6.27899e-12      315.080
       695.10000  6.27899e-12      314.954
       695.20000  6.27899e-12      314.829
       695.30000  6.27899e-12      314.640
       695.40000  6.27899e-12      314.515
       695.50000  1.98151e-12      99.2141
       695.60000  1.98151e-12      99.1547
       695.70000  1.98151e-12      99.1150
       695.80000  1.98151e-12      99.0556
       695.90000  1.98151e-12      98.9961
       696.00000  1.98151e-12      98.9565
       696.10000  1.98151e-12      98.8971
       696.20000  1.98151e-12      98.8376
       696.30000  1.96991e-12      98.2002
       696.40000  1.96991e-12      98.1411
       696.50000  1.23439e-12      61.4601
       696.60000  1.23439e-12      61.4231
       696.70000  1.23439e-12      61.3737
       696.80000  1.23439e-12      61.3367
       696.90000  1.23439e-12      61.2996
       697.00000  1.23439e-12      61.2503
       697.10000  1.23439e-12      61.3367
       697.20000  1.23439e-12      61.3984
       697.30000  1.23439e-12      61.4724
       697.40000  1.23439e-12      61.5342
       697.50000  8.63330e-12      430.801
       697.60000  8.63330e-12      431.147
       697.70000  8.63330e-12      431.492
       697.80000  8.63330e-12      431.751
       697.90000  8.63330e-12      432.010
       698.00000  8.63330e-12      432.183
       698.10000  8.63330e-12      432.355
       698.20000  8.63330e-12      432.528
       698.30000  8.63330e-12      432.614
       698.40000  8.63330e-12      432.701
       698.50000  3.78420e-12      189.702
       698.60000  3.78420e-12      189.702
       698.70000  3.78420e-12      189.664
       698.80000  3.76100e-12      188.464
       698.90000  3.76100e-12      188.426
       699.00000  3.76100e-12      188.351
       699.10000  3.76100e-12      188.013
       699.20000  3.76100e-12      187.636
       699.30000  3.76100e-12      187.336
       699.40000  3.76100e-12      186.997
       699.50000  1.69350e-12      84.0653
       699.60000  1.69350e-12      83.9298
       699.70000  1.69350e-12      83.8113
       699.80000  1.69350e-12      83.6927
       699.90000  1.69350e-12      83.5742
       700.00000  1.69350e-12      83.4726
       700.10000  1.69350e-12      83.3710
       700.20000  1.69350e-12      83.2693
       700.30000  1.69350e-12      83.1847
       700.40000  1.69350e-12      83.1000
       700.50000  6.82501e-12      334.562
       700.60000  6.82501e-12      334.289
       700.70000  6.82501e-12      334.016
       700.80000  6.82501e-12      333.811
       700.90000  6.82501e-12      333.606
       701.00000  6.82501e-12      333.402
       701.10000  6.82501e-12      333.333
       701.20000  6.82501e-12      333.265
       701.30000  6.77444e-12      330.728
       701.40000  6.77444e-12      330.728
       701.50000  7.16289e-12      349.692
       701.60000  7.16289e-12      349.692
       701.70000  7.16289e-12      349.692
       701.80000  7.16289e-12      349.764
       701.90000  7.16289e-12      349.764
       702.00000  7.16289e-12      349.835
       702.10000  7.16289e-12      349.979
       702.20000  7.16289e-12      350.050
       702.30000  7.16289e-12      350.193
       702.40000  7.16289e-12      350.265
       702.50000  1.29452e-12      63.3279
       702.60000  1.29452e-12      63.3667
       702.70000  1.29452e-12      63.3926
       702.80000  1.29452e-12      63.4314
       702.90000  1.29452e-12      63.4703
       703.00000  1.29452e-12      63.5091
       703.10000  1.29452e-12      63.6256
       703.20000  1.29452e-12      63.7421
       703.30000  1.29452e-12      63.8457
       703.40000  1.29452e-12      63.9492
       703.50000  3.44280e-12      170.315
       703.60000  3.44280e-12      170.591
       703.70000  3.44280e-12      170.797
       703.80000  3.41085e-12      169.451
       703.90000  3.41085e-12      169.655
       704.00000  3.41085e-12      169.826
       704.10000  3.41085e-12      170.031
       704.20000  3.41085e-12      170.201
       704.30000  3.41085e-12      170.338
       704.40000  3.41085e-12      170.474
       704.50000  3.42302e-12      171.220
       704.60000  3.42302e-12      171.356
       704.70000  3.42302e-12      171.459
       704.80000  3.42302e-12      171.528
       704.90000  3.42302e-12      171.630
       705.00000  3.42302e-12      171.699
       705.10000  3.42302e-12      171.733
       705.20000  3.42302e-12      171.767
       705.30000  3.42302e-12      171.801
       705.40000  3.42302e-12      171.836
       705.50000  1.29704e-12      65.1115
       705.60000  1.29704e-12      65.1115
       705.70000  1.29704e-12      65.0985
       705.80000  1.29704e-12      65.0855
       705.90000  1.29704e-12      65.0726
       706.00000  1.29704e-12      65.0466
       706.10000  1.29704e-12      65.0207
       706.20000  1.29704e-12      64.9818
       706.30000  1.28425e-12      64.3023
       706.40000  1.28425e-12      64.2637
       706.50000  2.33085e-12      116.542
       706.60000  2.33085e-12      116.449
       706.70000  2.33085e-12      116.356
       706.80000  2.33085e-12      116.239
       706.90000  2.33085e-12      116.123
       707.00000  2.33085e-12      116.006
       707.10000  2.33085e-12      115.913
       707.20000  2.33085e-12      115.843
       707.30000  2.33085e-12      115.750
       707.40000  2.33085e-12      115.680
       707.50000  3.78120e-12      187.547
       707.60000  3.78120e-12      187.434
       707.70000  3.78120e-12      187.358
       707.80000  3.78120e-12      187.245
       707.90000  3.78120e-12      187.169
       708.00000  3.78120e-12      187.094
       708.10000  3.78120e-12      187.018
       708.20000  3.78120e-12      186.942
       708.30000  3.78120e-12      186.867
       708.40000  3.78120e-12      186.791
       708.50000  4.98634e-12      246.275
       708.60000  4.98634e-12      246.175
       708.70000  4.98634e-12      246.126
       708.80000  4.92922e-12      243.257
       708.90000  4.92922e-12      243.208
       709.00000  4.92922e-12      243.208
       709.10000  4.92922e-12      243.306
       709.20000  4.92922e-12      243.405
       709.30000  4.92922e-12      243.454
       709.40000  4.92922e-12      243.553
       709.50000  6.51427e-13      32.1935
       709.60000  6.51427e-13      32.2065
       709.70000  6.51427e-13      32.2130
       709.80000  6.51427e-13      32.2196
       709.90000  6.51427e-13      32.2261
       710.00000  6.51427e-13      32.2326
       710.10000  6.51427e-13      32.2391
       710.20000  6.51427e-13      32.2456
       710.30000  6.51427e-13      32.2456
       710.40000  6.51427e-13      32.2521
       710.50000  4.66212e-12      230.822
       710.60000  4.66212e-12      230.822
       710.70000  4.66212e-12      230.822
       710.80000  4.66212e-12      230.822
       710.90000  4.66212e-12      230.822
       711.00000  4.66212e-12      230.822
       711.10000  4.66212e-12      230.822
       711.20000  4.66212e-12      230.775
       711.30000  4.59401e-12      227.404
       711.40000  4.59401e-12      227.358
       711.50000  4.54353e-12      224.814
       711.60000  4.54353e-12      224.769
       711.70000  4.54353e-12      224.723
       711.80000  4.54353e-12      224.678
       711.90000  4.54353e-12      224.632
       712.00000  4.54353e-12      224.541
       712.10000  4.54353e-12      224.496
       712.20000  4.54353e-12      224.405
       712.30000  4.54353e-12      224.360
       712.40000  4.54353e-12      224.269
       712.50000  4.40927e-12      217.553
       712.60000  4.40927e-12      217.465
       712.70000  4.40927e-12      217.333
       712.80000  4.40927e-12      217.245
       712.90000  4.40927e-12      217.156
       713.00000  4.40927e-12      217.024
       713.10000  4.40927e-12      217.024
       713.20000  4.40927e-12      217.024
       713.30000  4.40927e-12      217.024
       713.40000  4.40927e-12      216.980
       713.50000  6.92315e-12      340.688
       713.60000  6.92315e-12      340.688
       713.70000  6.92315e-12      340.619
       713.80000  6.82879e-12      335.976
       713.90000  6.82879e-12      335.908
       714.00000  6.82879e-12      335.908
       714.10000  6.82879e-12      335.840
       714.20000  6.82879e-12      335.772
       714.30000  6.82879e-12      335.772
       714.40000  6.82879e-12      335.703
       714.50000  1.18409e-12      58.1981
       714.60000  1.18409e-12      58.1862
       714.70000  1.18409e-12      58.1862
       714.80000  1.18409e-12      58.1744
       714.90000  1.18409e-12      58.1626
       715.00000  1.18409e-12      58.1507
       715.10000  1.18409e-12      58.1389
       715.20000  1.18409e-12      58.1389
       715.30000  1.18409e-12      58.1389
       715.40000  1.18409e-12      58.1270
       715.50000  2.03131e-13      9.96966
       715.60000  2.03131e-13      9.96763
       715.70000  2.03131e-13      9.96560
       715.80000  2.03131e-13      9.96356
       715.90000  2.03131e-13      9.96153
       716.00000  2.03131e-13      9.95747
       716.10000  2.03131e-13      9.95544
       716.20000  2.03131e-13      9.95138
       716.30000  2.00417e-13      9.81440
       716.40000  2.00417e-13      9.81039
       716.50000  1.07402e-12      52.5519
       716.60000  1.07402e-12      52.5304
       716.70000  1.07402e-12      52.5089
       716.80000  1.07402e-12      52.4767
       716.90000  1.07402e-12      52.4552
       717.00000  1.07402e-12      52.4230
       717.10000  1.07402e-12      52.3908
       717.20000  1.07402e-12      52.3586
       717.30000  1.07402e-12      52.3263
       717.40000  1.07402e-12      52.2941
       717.50000  3.84772e-12      187.230
       717.60000  3.84772e-12      187.076
       717.70000  3.84772e-12      186.961
       717.80000  3.84772e-12      186.807
       717.90000  3.84772e-12      186.653
       718.00000  3.84772e-12      186.499
       718.10000  3.84772e-12      186.345
       718.20000  3.84772e-12      186.191
       718.30000  3.84772e-12      186.037
       718.40000  3.84772e-12      185.845
       718.50000  1.37388e-12      66.3032
       718.60000  1.37388e-12      66.2345
       718.70000  1.37388e-12      66.1658
       718.80000  1.35738e-12      65.3034
       718.90000  1.35738e-12      65.2355
       719.00000  1.35738e-12      65.1677
       719.10000  1.35738e-12      65.1677
       719.20000  1.35738e-12      65.1677
       719.30000  1.35738e-12      65.1677
       719.40000  1.35738e-12      65.1812
       719.50000  9.18507e-13      44.1067
       719.60000  9.18507e-13      44.1159
       719.70000  9.18507e-13      44.1159
       719.80000  9.18507e-13      44.1251
       719.90000  9.18507e-13      44.1343
       720.00000  9.18507e-13      44.1526
       720.10000  9.18507e-13      44.1618
       720.20000  9.18507e-13      44.1710
       720.30000  9.18507e-13      44.1894
       720.40000  9.18507e-13      44.1986
       720.50000  2.51719e-12      121.178
       720.60000  2.51719e-12      121.228
       720.70000  2.51719e-12      121.278
       720.80000  2.51719e-12      121.329
       720.90000  2.51719e-12      121.404
       721.00000  2.51719e-12      121.454
       721.10000  2.51719e-12      121.580
       721.20000  2.51719e-12      121.706
       721.30000  2.48880e-12      120.458
       721.40000  2.48880e-12      120.558
       721.50000  3.85346e-12      186.854
       721.60000  3.85346e-12      187.008
       721.70000  3.85346e-12      187.162
       721.80000  3.85346e-12      187.355
       721.90000  3.85346e-12      187.509
       722.00000  3.85346e-12      187.625
       722.10000  3.85346e-12      187.779
       722.20000  3.85346e-12      187.933
       722.30000  3.85346e-12      188.049
       722.40000  3.85346e-12      188.164
       722.50000  5.07003e-12      247.722
       722.60000  5.07003e-12      247.924
       722.70000  5.07003e-12      248.026
       722.80000  5.07003e-12      248.178
       722.90000  5.07003e-12      248.330
       723.00000  5.07003e-12      248.431
       723.10000  5.07003e-12      248.583
       723.20000  5.07003e-12      248.685
       723.30000  5.07003e-12      248.786
       723.40000  5.07003e-12      248.888
       723.50000  2.96095e-12      145.412
       723.60000  2.96095e-12      145.442
       723.70000  2.96095e-12      145.501
       723.80000  2.92753e-12      143.888
       723.90000  2.92753e-12      143.917
       724.00000  2.92753e-12      143.947
       724.10000  2.92753e-12      143.976
       724.20000  2.92753e-12      144.005
       724.30000  2.92753e-12      144.034
       724.40000  2.92753e-12      144.064
       724.50000  1.37798e-12      67.8105
       724.60000  1.37798e-12      67.8105
       724.70000  1.37798e-12      67.8105
       724.80000  1.37798e-12      67.8105
       724.90000  1.37798e-12      67.8105
       725.00000  1.37798e-12      67.8105
       727.00000  1.53135e-12      75.3422
       727.10000  1.53135e-12      75.2350
       727.20000  1.53135e-12      75.1278
       727.30000  1.53135e-12      75.0206
       727.40000  1.53135e-12      74.9288
       727.50000  3.30228e-12      161.382
       727.60000  3.30228e-12      161.184
       727.70000  3.30228e-12      161.019
       727.80000  3.30228e-12      160.854
       727.90000  3.30228e-12      160.689
       728.00000  3.30228e-12      160.557
       728.10000  3.30228e-12      160.425
       728.20000  3.30228e-12      160.293
       728.30000  3.30228e-12      160.161
       728.40000  3.30228e-12      160.061
       728.50000  1.07013e-12      51.8370
       728.60000  1.07013e-12      51.8156
       728.70000  1.07013e-12      51.7835
       728.80000  1.05819e-12      51.1955
       728.90000  1.05819e-12      51.1743
       729.00000  1.05819e-12      51.1637
       729.10000  1.05819e-12      51.1531
       729.20000  1.05819e-12      51.1426
       729.30000  1.05819e-12      51.1426
       729.40000  1.05819e-12      51.1320
       729.50000  4.79902e-12      231.937
       729.60000  4.79902e-12      231.937
       729.70000  4.79902e-12      231.985
       729.80000  4.79902e-12      232.033
       729.90000  4.79902e-12      232.129
       730.00000  4.79902e-12      232.225
       730.10000  4.79902e-12      232.321
       730.20000  4.79902e-12      232.417
       730.30000  4.79902e-12      232.561
       730.40000  4.79902e-12      232.704
       730.50000  1.85574e-12      90.0405
       730.60000  1.85574e-12      90.1147
       730.70000  1.85574e-12      90.1889
       730.80000  1.85574e-12      90.2632
       730.90000  1.85574e-12      90.3560
       731.00000  1.85574e-12      90.4488
       731.10000  1.85574e-12      90.4302
       731.20000  1.85574e-12      90.4116
       731.30000  1.83274e-12      89.2726
       731.40000  1.83274e-12      89.2726
       731.50000  4.42650e-13      21.5571
       731.60000  4.42650e-13      21.5526
       731.70000  4.42650e-13      21.5482
       731.80000  4.42650e-13      21.5482
       731.90000  4.42650e-13      21.5438
       732.00000  4.42650e-13      21.5394
       732.10000  4.42650e-13      21.5349
       732.20000  4.42650e-13      21.5305
       732.30000  4.42650e-13      21.5305
       732.40000  4.42650e-13      21.5261
       732.50000  2.49785e-13      12.1445
       732.60000  2.49785e-13      12.1420
       732.70000  2.49785e-13      12.1396
       732.80000  2.49785e-13      12.1371
       732.90000  2.49785e-13      12.1346
       733.00000  2.49785e-13      12.1321
       733.10000  2.49785e-13      12.1296
       733.20000  2.49785e-13      12.1246
       733.30000  2.49785e-13      12.1221
       733.40000  2.49785e-13      12.1171
       733.50000  3.36803e-12      163.349
       733.60000  3.36803e-12      163.316
       733.70000  3.36803e-12      163.248
       733.80000  3.32182e-12      160.975
       733.90000  3.32182e-12      160.942
       734.00000  3.32182e-12      160.909
       734.10000  3.32182e-12      160.876
       734.20000  3.32182e-12      160.842
       734.30000  3.32182e-12      160.809
       734.40000  3.32182e-12      160.809
       734.50000  3.03875e-13      14.7075
       734.60000  3.03875e-13      14.7045
       734.70000  3.03875e-13      14.7045
       734.80000  3.03875e-13      14.7015
       734.90000  3.03875e-13      14.7015
       735.00000  3.03875e-13      14.6984
       735.10000  3.03875e-13      14.6984
       735.20000  3.03875e-13      14.6984
       735.30000  3.03875e-13      14.6984
       735.40000  3.03875e-13      14.6954
       735.50000  4.30725e-12      208.299
       735.60000  4.30725e-12      208.299
       735.70000  4.30725e-12      208.299
       735.80000  4.30725e-12      208.342
       735.90000  4.30725e-12      208.342
       736.00000  4.30725e-12      208.342
       736.10000  4.30725e-12      208.342
       736.20000  4.30725e-12      208.385
       736.30000  4.23944e-12      205.104
       736.40000  4.23944e-12      205.146
       736.50000  3.37616e-12      163.373
       736.60000  3.37616e-12      163.406
       736.70000  3.37616e-12      163.440
       736.80000  3.37616e-12      163.440
       736.90000  3.37616e-12      163.474
       737.00000  3.37616e-12      163.508
       737.10000  3.37616e-12      163.339
       737.20000  3.37616e-12      163.136
       737.30000  3.37616e-12      162.967
       737.40000  3.37616e-12      162.799
       737.50000  2.22415e-12      107.115
       737.60000  2.22415e-12      107.004
       737.70000  2.22415e-12      106.893
       737.80000  2.22415e-12      106.781
       737.90000  2.22415e-12      106.692
       738.00000  2.22415e-12      106.581
       738.10000  2.22415e-12      106.470
       738.20000  2.22415e-12      106.359
       738.30000  2.22415e-12      106.270
       738.40000  2.22415e-12      106.181
       738.50000  3.97896e-12      189.757
       738.60000  3.97896e-12      189.597
       738.70000  3.97896e-12      189.438
       738.80000  3.91049e-12      186.022
       738.90000  3.91049e-12      185.866
       739.00000  3.91049e-12      185.709
       739.10000  3.91049e-12      185.397
       739.20000  3.91049e-12      185.123
       739.30000  3.91049e-12      184.888
       739.40000  3.91049e-12      184.654
       739.50000  1.04118e-13      4.91022
       739.60000  1.04118e-13      4.90501
       739.70000  1.04118e-13      4.90085
       739.80000  1.04118e-13      4.89564
       739.90000  1.04118e-13      4.89252
       740.00000  1.04118e-13      4.88836
       740.10000  1.04118e-13      4.88627
       740.20000  1.04118e-13      4.88315
       740.30000  1.04118e-13      4.88107
       740.40000  1.04118e-13      4.88003
       740.50000  5.69935e-12      267.071
       740.60000  5.69935e-12      267.014
       740.70000  5.69935e-12      267.014
       740.80000  5.69935e-12      267.014
       740.90000  5.69935e-12      267.071
       741.00000  5.69935e-12      267.128
       741.10000  5.69935e-12      267.242
       741.20000  5.69935e-12      267.356
       741.30000  5.60082e-12      262.847
       741.40000  5.60082e-12      263.015
       741.50000  3.08864e-13      14.5135
       741.60000  3.08864e-13      14.5259
       741.70000  3.08864e-13      14.5413
       741.80000  3.08864e-13      14.5537
       741.90000  3.08864e-13      14.5722
       742.00000  3.08864e-13      14.5877
       742.10000  3.08864e-13      14.6062
       742.20000  3.08864e-13      14.6278
       742.30000  3.08864e-13      14.6494
       742.40000  3.08864e-13      14.6710
       742.50000  5.46521e-12      260.035
       742.60000  5.46521e-12      260.472
       742.70000  5.46521e-12      260.964
       742.80000  5.46521e-12      261.456
       742.90000  5.46521e-12      262.002
       743.00000  5.46521e-12      262.549
       743.10000  5.46521e-12      262.439
       743.20000  5.46521e-12      262.385
       743.30000  5.46521e-12      262.330
       743.40000  5.46521e-12      262.221
       743.50000  4.78050e-12      229.321
       743.60000  4.78050e-12      229.273
       743.70000  4.78050e-12      229.225
       743.80000  4.70672e-12      225.640
       743.90000  4.70672e-12      225.593
       744.00000  4.70672e-12      225.546
       744.10000  4.70672e-12      225.546
       744.20000  4.70672e-12      225.499
       744.30000  4.70672e-12      225.499
       744.40000  4.70672e-12      225.499
       744.50000  3.81260e-12      182.624
       744.60000  3.81260e-12      182.624
       744.70000  3.81260e-12      182.624
       744.80000  3.81260e-12      182.624
       744.90000  3.81260e-12      182.662
       745.00000  3.81260e-12      182.662
       745.10000  3.81260e-12      182.776
       745.20000  3.81260e-12      182.890
       745.30000  3.81260e-12      182.967
       745.40000  3.81260e-12      183.081
       745.50000  3.61755e-12      173.787
       745.60000  3.61755e-12      173.859
       745.70000  3.61755e-12      173.932
       745.80000  3.61755e-12      174.004
       745.90000  3.61755e-12      174.040
       746.00000  3.61755e-12      174.113
       746.10000  3.61755e-12      174.149
       746.20000  3.61755e-12      174.185
       746.30000  3.57601e-12      172.221
       746.40000  3.57601e-12      172.256
       746.50000  2.71472e-12      130.795
       746.60000  2.71472e-12      130.795
       746.70000  2.71472e-12      130.822
       746.80000  2.71472e-12      130.822
       746.90000  2.71472e-12      130.822
       747.00000  2.71472e-12      130.822
       747.10000  2.71472e-12      130.741
       747.20000  2.71472e-12      130.687
       747.30000  2.71472e-12      130.632
       747.40000  2.71472e-12      130.578
       747.50000  4.45286e-12      214.094
       747.60000  4.45286e-12      214.005
       747.70000  4.45286e-12      213.916
       747.80000  4.45286e-12      213.826
       747.90000  4.45286e-12      213.737
       748.00000  4.45286e-12      213.648
       748.10000  4.45286e-12      213.604
       748.20000  4.45286e-12      213.515
       748.30000  4.45286e-12      213.426
       748.40000  4.45286e-12      213.381
       748.50000  6.15560e-13      29.4853
       748.60000  6.15560e-13      29.4730
       748.70000  6.15560e-13      29.4669
       748.80000  6.08532e-13      29.1182
       748.90000  6.08532e-13      29.1122
       749.00000  6.08532e-13      29.1061
       749.10000  6.08532e-13      29.0939
       749.20000  6.08532e-13      29.0878
       749.30000  6.08532e-13      29.0817
       749.40000  6.08532e-13      29.0756
       749.50000  1.97691e-12      94.4368
       749.60000  1.97691e-12      94.4171
       749.70000  1.97691e-12      94.3775
       749.80000  1.97691e-12      94.3578
       749.90000  1.97691e-12      94.3578
       750.00000  1.97691e-12      94.3380
       750.10000  1.97691e-12      94.3182
       750.20000  1.97691e-12      94.2985
       750.30000  1.97691e-12      94.2787
       750.40000  1.97691e-12      94.2787
       750.50000  2.13048e-12      101.582
       750.60000  2.13048e-12      101.560
       750.70000  2.13048e-12      101.560
       750.80000  2.13048e-12      101.539
       750.90000  2.13048e-12      101.539
       751.00000  2.13048e-12      101.518
       751.10000  2.13048e-12      101.518
       751.20000  2.13048e-12      101.518
       751.30000  2.10316e-12      100.195
       751.40000  2.10316e-12      100.195
       751.50000  1.95516e-12      93.1439
       751.60000  1.95516e-12      93.1439
       751.70000  1.95516e-12      93.1439
       751.80000  1.95516e-12      93.1439
       751.90000  1.95516e-12      93.1439
       752.00000  1.95516e-12      93.1439
       752.10000  1.95516e-12      93.1439
       752.20000  1.95516e-12      93.1439
       752.30000  1.95516e-12      93.1439
       752.40000  1.95516e-12      93.1439
       752.50000  4.23952e-12      202.013
       752.60000  4.23952e-12      202.013
       752.70000  4.23952e-12      202.013
       752.80000  4.23952e-12      202.055
       752.90000  4.23952e-12      202.055
       753.00000  4.23952e-12      202.098
       753.10000  4.23952e-12      202.098
       753.20000  4.23952e-12      202.098
       753.30000  4.23952e-12      202.098
       753.40000  4.23952e-12      202.098
       753.50000  3.70312e-12      176.527
       753.60000  3.70312e-12      176.527
       753.70000  3.70312e-12      176.527
       753.80000  3.65099e-12      174.043
       753.90000  3.65099e-12      174.043
       754.00000  3.65099e-12      174.043
       754.10000  3.65099e-12      174.043
       754.20000  3.65099e-12      174.006
       754.30000  3.65099e-12      174.006
       754.40000  3.65099e-12      174.006
       754.50000  2.81359e-12      134.096
       754.60000  2.81359e-12      134.096
       754.70000  2.81359e-12      134.068
       754.80000  2.81359e-12      134.068
       754.90000  2.81359e-12      134.040
       755.00000  2.81359e-12      134.040
       755.10000  2.81359e-12      134.012
       755.20000  2.81359e-12      134.012
       755.30000  2.81359e-12      133.983
       755.40000  2.81359e-12      133.983
       755.50000  3.03914e-12      144.693
       755.60000  3.03914e-12      144.663
       755.70000  3.03914e-12      144.663
       755.80000  3.03914e-12      144.633
       755.90000  3.03914e-12      144.602
       756.00000  3.03914e-12      144.602
       756.10000  3.03914e-12      144.572
       756.20000  3.03914e-12      144.542
       756.30000  2.99542e-12      142.432
       756.40000  2.99542e-12      142.432
       756.50000  5.48439e-12      260.728
       756.60000  5.48439e-12      260.673
       756.70000  5.48439e-12      260.618
       756.80000  5.48439e-12      260.618
       756.90000  5.48439e-12      260.563
       757.00000  5.48439e-12      260.508
       757.10000  5.48439e-12      260.453
       757.20000  5.48439e-12      260.399
       757.30000  5.48439e-12      260.399
       757.40000  5.48439e-12      260.344
       757.50000  3.08105e-12      146.227
       757.60000  3.08105e-12      146.196
       757.70000  3.08105e-12      146.165
       757.80000  3.08105e-12      146.134
       757.90000  3.08105e-12      146.103
       758.00000  3.08105e-12      146.103
       758.10000  3.08105e-12      146.072
       758.20000  3.08105e-12      146.042
       758.30000  3.08105e-12      146.011
       758.40000  3.08105e-12      145.980
       758.50000  1.02121e-12      48.3749
       758.60000  1.02121e-12      48.3647
       758.70000  1.02121e-12      48.3545
       758.80000  1.00314e-12      47.4888
       758.90000  1.00314e-12      47.4788
       759.00000  1.00314e-12      47.4687
       759.10000  1.00314e-12      47.4687
       759.20000  1.00314e-12      47.4587
       759.30000  1.00314e-12      47.4587
       759.40000  1.00314e-12      47.4487
       759.50000  1.79979e-12      85.1303
       759.60000  1.79979e-12      85.1303
       759.70000  1.79979e-12      85.1123
       759.80000  1.79979e-12      85.1123
       759.90000  1.79979e-12      85.1123
       760.00000  1.79979e-12      85.1123
       760.10000  1.79979e-12      85.1123
       760.20000  1.79979e-12      85.1123
       760.30000  1.79979e-12      85.1303
       760.40000  1.79979e-12      85.1303
       760.50000  4.01275e-12      189.803
       760.60000  4.01275e-12      189.843
       760.70000  4.01275e-12      189.843
       760.80000  4.01275e-12      189.883
       760.90000  4.01275e-12      189.883
       761.00000  4.01275e-12      189.924
       761.10000  4.01275e-12      190.084
       761.20000  4.01275e-12      190.204
       761.30000  3.93005e-12      186.402
       761.40000  3.93005e-12      186.520
       761.50000  7.50099e-12      356.222
       761.60000  7.50099e-12      356.372
       761.70000  7.50099e-12      356.522
       761.80000  7.50099e-12      356.672
       761.90000  7.50099e-12      356.822
       762.00000  7.50099e-12      356.897
       762.10000  7.50099e-12      357.047
       762.20000  7.50099e-12      357.122
       762.30000  7.50099e-12      357.197
       762.40000  7.50099e-12      357.197
       762.50000  1.93904e-12      92.3370
       762.60000  1.93904e-12      92.3564
       762.70000  1.93904e-12      92.3564
       762.80000  1.93904e-12      92.3370
       762.90000  1.93904e-12      92.3370
       763.00000  1.93904e-12      92.3176
       763.10000  1.93904e-12      92.2982
       763.20000  1.93904e-12      92.2788
       763.30000  1.93904e-12      92.2401
       763.40000  1.93904e-12      92.2013
       763.50000  1.92821e-12      91.6479
       763.60000  1.92821e-12      91.6094
       763.70000  1.92821e-12      91.5708
       763.80000  1.88000e-12      89.2249
       763.90000  1.88000e-12      89.1685
       764.00000  1.88000e-12      89.1121
       764.10000  1.88000e-12      89.0557
       764.20000  1.88000e-12      88.9805
       764.30000  1.88000e-12      88.9053
       764.40000  1.88000e-12      88.8301
       764.50000  7.90947e-12      373.406
       764.60000  7.90947e-12      373.090
       764.70000  7.90947e-12      372.694
       764.80000  7.90947e-12      372.299
       764.90000  7.90947e-12      371.904
       765.00000  7.90947e-12      371.429
       765.10000  7.90947e-12      370.559
       765.20000  7.90947e-12      369.689
       765.30000  7.90947e-12      368.898
       765.40000  7.90947e-12      368.107
       765.50000  1.22336e-12      56.8249
       765.60000  1.22336e-12      56.7270
       765.70000  1.22336e-12      56.6169
       765.80000  1.22336e-12      56.5313
       765.90000  1.22336e-12      56.4456
       766.00000  1.22336e-12      56.3600
       766.10000  1.22336e-12      56.2866
       766.20000  1.22336e-12      56.2132
       766.30000  1.19315e-12      54.7658
       766.40000  1.19315e-12      54.7181
       766.50000  3.00859e-12      137.854
       766.60000  3.00859e-12      137.733
       766.70000  3.00859e-12      137.673
       766.80000  3.00859e-12      137.583
       766.90000  3.00859e-12      137.523
       767.00000  3.00859e-12      137.492
       767.10000  3.00859e-12      137.643
       767.20000  3.00859e-12      137.823
       767.30000  3.00859e-12      137.974
       767.40000  3.00859e-12      138.124
       767.50000  3.82389e-12      175.746
       767.60000  3.82389e-12      175.937
       767.70000  3.82389e-12      176.128
       767.80000  3.82389e-12      176.281
       767.90000  3.82389e-12      176.472
       768.00000  3.82389e-12      176.625
       768.10000  3.82389e-12      176.778
       768.20000  3.82389e-12      176.931
       768.30000  3.82389e-12      177.046
       768.40000  3.82389e-12      177.199
       768.50000  2.74873e-12      127.459
       768.60000  2.74873e-12      127.541
       768.70000  2.74873e-12      127.624
       768.80000  2.68622e-12      124.802
       768.90000  2.68622e-12      124.882
       769.00000  2.68622e-12      124.936
       769.10000  2.68622e-12      125.017
       769.20000  2.68622e-12      125.070
       769.30000  2.68622e-12      125.124
       769.40000  2.68622e-12      125.178
       769.50000  6.39954e-13      29.8282
       769.60000  6.39954e-13      29.8410
       769.70000  6.39954e-13      29.8474
       769.80000  6.39954e-13      29.8602
       769.90000  6.39954e-13      29.8666
       770.00000  6.39954e-13      29.8666
       770.10000  6.39954e-13      29.8730
       770.20000  6.39954e-13      29.8794
       770.30000  6.39954e-13      29.8794
       770.40000  6.39954e-13      29.8794
       770.50000  1.85188e-12      86.4641
       770.60000  1.85188e-12      86.4641
       770.70000  1.85188e-12      86.4641
       770.80000  1.85188e-12      86.4641
       770.90000  1.85188e-12      86.4455
       771.00000  1.85188e-12      86.4270
       771.10000  1.85188e-12      86.5011
       771.20000  1.85188e-12      86.5567
       771.30000  1.81697e-12      84.9795
       771.40000  1.81697e-12      85.0340
       771.50000  2.43941e-12      114.238
       771.60000  2.43941e-12      114.286
       771.70000  2.43941e-12      114.360
       771.80000  2.43941e-12      114.408
       771.90000  2.43941e-12      114.433
       772.00000  2.43941e-12      114.481
       774.00000  1.33528e-12      62.0638
       774.10000  1.33528e-12      62.0238
       774.20000  1.33528e-12      61.9837
       774.30000  1.33528e-12      61.9570
       774.40000  1.33528e-12      61.9169
       774.50000  3.86502e-12      179.144
       774.60000  3.86502e-12      179.105
       774.70000  3.86502e-12      179.028
       774.80000  3.86502e-12      178.989
       774.90000  3.86502e-12      178.950
       775.00000  3.86502e-12      178.912
       775.10000  3.86502e-12      178.912
       775.20000  3.86502e-12      178.912
       775.30000  3.86502e-12      178.912
       775.40000  3.86502e-12      178.912
       775.50000  1.03140e-12      47.7539
       775.60000  1.03140e-12      47.7642
       775.70000  1.03140e-12      47.7746
       775.80000  1.03140e-12      47.7849
       775.90000  1.03140e-12      47.8055
       776.00000  1.03140e-12      47.8261
       778.00000  3.70394e-12      172.455
       778.10000  3.70394e-12      172.418
       778.20000  3.70394e-12      172.381
       778.30000  3.70394e-12      172.344
       778.40000  3.70394e-12      172.307
       778.50000  2.07765e-12      96.6525
       778.60000  2.07765e-12      96.6317
       778.70000  2.07765e-12      96.6109
       778.80000  2.05423e-12      95.5215
       778.90000  2.05423e-12      95.5215
       779.00000  2.05423e-12      95.5009
       779.10000  2.05423e-12      95.5420
       779.20000  2.05423e-12      95.5626
       779.30000  2.05423e-12      95.6037
       779.40000  2.05423e-12      95.6242
       779.50000  1.69839e-12      79.0772
       779.60000  1.69839e-12      79.0942
       779.70000  1.69839e-12      79.1111
       779.80000  1.69839e-12      79.1281
       779.90000  1.69839e-12      79.1451
       780.00000  1.69839e-12      79.1621
       780.10000  1.69839e-12      79.1621
       780.20000  1.69839e-12      79.1791
       780.30000  1.69839e-12      79.1791
       780.40000  1.69839e-12      79.1791
       780.50000  1.54106e-12      71.8440
       780.60000  1.54106e-12      71.8440
       780.70000  1.54106e-12      71.8440
       780.80000  1.54106e-12      71.8440
       780.90000  1.54106e-12      71.8440
       781.00000  1.54106e-12      71.8286
       781.10000  1.54106e-12      71.8286
       781.20000  1.54106e-12      71.8132
       781.30000  1.52715e-12      71.1501
       781.40000  1.52715e-12      71.1348
       781.50000  1.23470e-12      57.5002
       781.60000  1.23470e-12      57.4878
       781.70000  1.23470e-12      57.4755
       781.80000  1.23470e-12      57.4631
       781.90000  1.23470e-12      57.4384
       782.00000  1.23470e-12      57.4261
       782.10000  1.23470e-12      57.4014
       782.20000  1.23470e-12      57.3767
       782.30000  1.23470e-12      57.3643
       782.40000  1.23470e-12      57.3396
       782.50000  9.15848e-13      42.5136
       782.60000  9.15848e-13      42.4862
       782.70000  9.15848e-13      42.4679
       782.80000  9.15848e-13      42.4495
       782.90000  9.15848e-13      42.4221
       783.00000  9.15848e-13      42.4037
       783.10000  9.15848e-13      42.4221
       783.20000  9.15848e-13      42.4404
       783.30000  9.15848e-13      42.4587
       783.40000  9.15848e-13      42.4679
       783.50000  1.75878e-12      81.5900
       783.60000  1.75878e-12      81.6251
       783.70000  1.75878e-12      81.6427
       783.80000  1.74274e-12      80.9330
       783.90000  1.74274e-12      80.9678
       784.00000  1.74274e-12      80.9853
       784.10000  1.74274e-12      81.0027
       784.20000  1.74274e-12      81.0376
       784.30000  1.74274e-12      81.0550
       784.40000  1.74274e-12      81.0724
       784.50000  1.04094e-13      4.84350
       784.60000  1.04094e-13      4.84454
       784.70000  1.04094e-13      4.84558
       784.80000  1.04094e-13      4.84662
       784.90000  1.04094e-13      4.84766
       785.00000  1.04094e-13      4.84766
       785.10000  1.04094e-13      4.84766
       785.20000  1.04094e-13      4.84766
       785.30000  1.04094e-13      4.84766
       785.40000  1.04094e-13      4.84766
       785.50000  4.73197e-13      22.0368
       785.60000  4.73197e-13      22.0368
       785.70000  4.73197e-13      22.0368
       785.80000  4.73197e-13      22.0368
       785.90000  4.73197e-13      22.0368
       786.00000  4.73197e-13      22.0368
       786.10000  4.73197e-13      22.0368
       786.20000  4.73197e-13      22.0368
       786.30000  4.67623e-13      21.7772
       786.40000  4.67623e-13      21.7772
       786.50000  3.16226e-14      1.47267
       786.60000  3.16226e-14      1.47267
       786.70000  3.16226e-14      1.47267
       786.80000  3.16226e-14      1.47267
       786.90000  3.16226e-14      1.47267
       787.00000  3.16226e-14      1.47267
       787.10000  3.16226e-14      1.47267
       787.20000  3.16226e-14      1.47267
       787.30000  3.16226e-14      1.47267
       787.40000  3.16226e-14      1.47267
       787.50000  1.04048e-12      48.4552
       787.60000  1.04048e-12      48.4552
       787.70000  1.04048e-12      48.4552
       787.80000  1.04048e-12      48.4552
       787.90000  1.04048e-12      48.4552
       788.00000  1.04048e-12      48.4552
       790.00000  1.88030e-12      87.0766
       790.10000  1.88030e-12      87.0202
       790.20000  1.88030e-12      86.9826
       790.30000  1.88030e-12      86.9262
       790.40000  1.88030e-12      86.8886
       790.50000  1.11711e-12      51.5882
       790.60000  1.11711e-12      51.5546
       790.70000  1.11711e-12      51.5323
       790.80000  1.11711e-12      51.4988
       790.90000  1.11711e-12      51.4764
       791.00000  1.11711e-12      51.4429
       791.10000  1.11711e-12      51.4094
       791.20000  1.11711e-12      51.3871
       791.30000  1.10020e-12      50.5762
       791.40000  1.10020e-12      50.5432
       791.50000  4.58518e-13      21.0505
       791.60000  4.58518e-13      21.0368
       791.70000  4.58518e-13      21.0276
       791.80000  4.58518e-13      21.0139
       791.90000  4.58518e-13      21.0047
       792.00000  4.58518e-13      20.9909
       792.10000  4.58518e-13      20.9818
       792.20000  4.58518e-13      20.9726
       792.30000  4.58518e-13      20.9588
       792.40000  4.58518e-13      20.9497
       792.50000  1.72046e-12      78.5733
       792.60000  1.72046e-12      78.5388
       792.70000  1.72046e-12      78.5044
       792.80000  1.72046e-12      78.4700
       792.90000  1.72046e-12      78.4356
       793.00000  1.72046e-12      78.4012
       793.10000  1.72046e-12      78.3496
       793.20000  1.72046e-12      78.2808
       793.30000  1.72046e-12      78.2292
       793.40000  1.72046e-12      78.1776
       793.50000  3.70566e-13      16.8274
       793.60000  3.70566e-13      16.8200
       793.70000  3.70566e-13      16.8089
       793.80000  3.64156e-13      16.5145
       793.90000  3.64156e-13      16.5072
       794.00000  3.64156e-13      16.5036
       794.10000  3.64156e-13      16.4963
       794.20000  3.64156e-13      16.4963
       794.30000  3.64156e-13      16.4926
       794.40000  3.64156e-13      16.4926
       794.50000  1.96699e-12      89.0851
       794.60000  1.96699e-12      89.0851
       794.70000  1.96699e-12      89.1047
       794.80000  1.96699e-12      89.1047
       794.90000  1.96699e-12      89.1244
       795.00000  1.96699e-12      89.1637
       795.10000  1.96699e-12      89.3014
       795.20000  1.96699e-12      89.4391
       795.30000  1.96699e-12      89.5768
       795.40000  1.96699e-12      89.7145
       795.50000  3.45510e-13      15.7795
       795.60000  3.45510e-13      15.8002
       795.70000  3.45510e-13      15.8175
       795.80000  3.45510e-13      15.8347
       795.90000  3.45510e-13      15.8520
       796.00000  3.45510e-13      15.8658
       796.10000  3.45510e-13      15.8797
       796.20000  3.45510e-13      15.8935
       796.30000  3.38280e-13      15.5710
       796.40000  3.38280e-13      15.5812
       796.50000  3.60563e-13      16.6183
       796.60000  3.60563e-13      16.6255
       796.70000  3.60563e-13      16.6328
       796.80000  3.60563e-13      16.6364
       796.90000  3.60563e-13      16.6400
       797.00000  3.60563e-13      16.6436
       797.10000  3.60563e-13      16.6472
       797.20000  3.60563e-13      16.6472
       797.30000  3.60563e-13      16.6472
       797.40000  3.60563e-13      16.6436
       797.50000  2.28426e-12      105.418
       797.60000  2.28426e-12      105.396
       797.70000  2.28426e-12      105.350
       797.80000  2.28426e-12      105.304
       797.90000  2.28426e-12      105.259
       798.00000  2.28426e-12      105.190
       800.00000  9.14825e-13      41.9813
       800.10000  9.14825e-13      41.9996
       800.20000  9.14825e-13      42.0179
       800.30000  9.14825e-13      42.0362
       800.40000  9.14825e-13      42.0454
       800.50000  1.13465e-13      5.21600
       800.60000  1.13465e-13      5.21713
       800.70000  1.13465e-13      5.21713
       800.80000  1.13465e-13      5.21827
       800.90000  1.13465e-13      5.21827
       801.00000  1.13465e-13      5.21827
       801.10000  1.13465e-13      5.21600
       801.20000  1.13465e-13      5.21373
       801.30000  1.10850e-13      5.09132
       801.40000  1.10850e-13      5.08911
       801.50000  2.22004e-12      101.878
       801.60000  2.22004e-12      101.833
       801.70000  2.22004e-12      101.789
       801.80000  2.22004e-12      101.745
       801.90000  2.22004e-12      101.700
       802.00000  2.22004e-12      101.656
       802.10000  2.22004e-12      101.611
       802.20000  2.22004e-12      101.567
       802.30000  2.22004e-12      101.523
       802.40000  2.22004e-12      101.478
       802.50000  9.84330e-13      44.9740
       802.60000  9.84330e-13      44.9543
       802.70000  9.84330e-13      44.9347
       802.80000  9.84330e-13      44.9051
       802.90000  9.84330e-13      44.8854
       803.00000  9.84330e-13      44.8658
       803.10000  9.84330e-13      44.8461
       803.20000  9.84330e-13      44.8264
       803.30000  9.84330e-13      44.8067
       803.40000  9.84330e-13      44.7772
       803.50000  7.16032e-13      32.5580
       803.60000  7.16032e-13      32.5436
       803.70000  7.16032e-13      32.5293
       803.80000  6.99251e-13      31.7530
       803.90000  6.99251e-13      31.7320
       804.00000  6.99251e-13      31.7180
       804.10000  6.99251e-13      31.7040
       804.20000  6.99251e-13      31.6900
       804.30000  6.99251e-13      31.6691
       804.40000  6.99251e-13      31.6551
       804.50000  1.08176e-12      48.9498
       804.60000  1.08176e-12      48.9173
       804.70000  1.08176e-12      48.8957
       804.80000  1.08176e-12      48.8740
       804.90000  1.08176e-12      48.8416
       805.00000  1.08176e-12      48.8200
       805.10000  1.08176e-12      48.8632
       805.20000  1.08176e-12      48.9173
       805.30000  1.08176e-12      48.9498
       805.40000  1.08176e-12      48.9930
       805.50000  1.68692e-12      76.4510
       805.60000  1.68692e-12      76.5016
       805.70000  1.68692e-12      76.5522
       805.80000  1.68692e-12      76.5860
       805.90000  1.68692e-12      76.6197
       806.00000  1.68692e-12      76.6535
       806.10000  1.68692e-12      76.6703
       806.20000  1.68692e-12      76.6872
       806.30000  1.64469e-12      74.7840
       806.40000  1.64469e-12      74.8004
       806.50000  1.34392e-12      61.1214
       806.60000  1.34392e-12      61.1214
       806.70000  1.34392e-12      61.1079
       806.80000  1.34392e-12      61.1079
       806.90000  1.34392e-12      61.0945
       807.00000  1.34392e-12      61.0676
       807.10000  1.34392e-12      60.9601
       807.20000  1.34392e-12      60.8392
       807.30000  1.34392e-12      60.7316
       807.40000  1.34392e-12      60.6376
       807.50000  2.33009e-12      104.970
       807.60000  2.33009e-12      104.807
       807.70000  2.33009e-12      104.668
       807.80000  2.33009e-12      104.551
       807.90000  2.33009e-12      104.435
       808.00000  2.33009e-12      104.318
       808.10000  2.33009e-12      104.225
       808.20000  2.33009e-12      104.132
       808.30000  2.33009e-12      104.038
       808.40000  2.33009e-12      103.969
       808.50000  1.98054e-12      88.3320
       808.60000  1.98054e-12      88.2924
       808.70000  1.98054e-12      88.2528
       808.80000  1.93115e-12      86.0329
       808.90000  1.93115e-12      86.0136
       809.00000  1.93115e-12      86.0136
       809.10000  1.93115e-12      86.0136
       809.20000  1.93115e-12      86.0329
       809.30000  1.93115e-12      86.0522
       809.40000  1.93115e-12      86.0715
       809.50000  1.83268e-12      81.7190
       809.60000  1.83268e-12      81.7740
       809.70000  1.83268e-12      81.8290
       809.80000  1.83268e-12      81.8840
       809.90000  1.83268e-12      81.9573
       810.00000  1.83268e-12      82.0306
       810.10000  1.83268e-12      82.1222
       810.20000  1.83268e-12      82.2139
       810.30000  1.83268e-12      82.3055
       810.40000  1.83268e-12      82.4155
       810.50000  1.29661e-12      58.3993
       810.60000  1.29661e-12      58.4771
       810.70000  1.29661e-12      58.5808
       810.80000  1.29661e-12      58.6845
       810.90000  1.29661e-12      58.7882
       811.00000  1.29661e-12      58.9049
       811.10000  1.29661e-12      58.9179
       811.20000  1.29661e-12      58.9438
       811.30000  1.26382e-12      57.4661
       811.40000  1.26382e-12      57.4914
       811.50000  5.90063e-13      26.8479
       811.60000  5.90063e-13      26.8538
       811.70000  5.90063e-13      26.8597
       811.80000  5.90063e-13      26.8656
       811.90000  5.90063e-13      26.8715
       812.00000  5.90063e-13      26.8774
       812.10000  5.90063e-13      26.8774
       812.20000  5.90063e-13      26.8833
       812.30000  5.90063e-13      26.8892
       812.40000  5.90063e-13      26.8892
       812.50000  1.16530e-12      53.1029
       812.60000  1.16530e-12      53.1145
       812.70000  1.16530e-12      53.1145
       812.80000  1.16530e-12      53.1145
       812.90000  1.16530e-12      53.1145
       813.00000  1.16530e-12      53.1145
       813.10000  1.16530e-12      53.0912
       813.20000  1.16530e-12      53.0795
       813.30000  1.16530e-12      53.0562
       813.40000  1.16530e-12      53.0446
       813.50000  5.85863e-13      26.6568
       813.60000  5.85863e-13      26.6509
       813.70000  5.85863e-13      26.6450
       813.80000  5.71610e-13      25.9911
       813.90000  5.71610e-13      25.9854
       814.00000  5.71610e-13      25.9740
       814.10000  5.71610e-13      25.9683
       814.20000  5.71610e-13      25.9625
       814.30000  5.71610e-13      25.9568
       814.40000  5.71610e-13      25.9568
       814.50000  1.81634e-12      82.4619
       814.60000  1.81634e-12      82.4437
       814.70000  1.81634e-12      82.4255
       814.80000  1.81634e-12      82.4074
       814.90000  1.81634e-12      82.4074
       815.00000  1.81634e-12      82.3892
       815.10000  1.81634e-12      82.4619
       815.20000  1.81634e-12      82.5164
       815.30000  1.81634e-12      82.5709
       815.40000  1.81634e-12      82.6072
       815.50000  1.93153e-12      87.9041
       815.60000  1.93153e-12      87.9234
       815.70000  1.93153e-12      87.9620
       815.80000  1.93153e-12      87.9620
       815.90000  1.93153e-12      87.9813
       816.00000  1.93153e-12      87.9813
       816.10000  1.93153e-12      87.9813
       816.20000  1.93153e-12      87.9620
       816.30000  1.88298e-12      85.7323
       816.40000  1.88298e-12      85.7135
       816.50000  6.78203e-13      30.8582
       816.60000  6.78203e-13      30.8447
       816.70000  6.78203e-13      30.8243
       816.80000  6.78203e-13      30.8040
       816.90000  6.78203e-13      30.7836
       817.00000  6.78203e-13      30.7565
       817.10000  6.78203e-13      30.6616
       817.20000  6.78203e-13      30.5734
       817.30000  6.78203e-13      30.4920
       817.40000  6.78203e-13      30.4106
       817.50000  3.78390e-13      16.9254
       817.60000  3.78390e-13      16.8875
       817.70000  3.78390e-13      16.8497
       817.80000  3.78390e-13      16.8119
       817.90000  3.78390e-13      16.7816
       818.00000  3.78390e-13      16.7475
       818.10000  3.78390e-13      16.7210
       818.20000  3.78390e-13      16.6946
       818.30000  3.78390e-13      16.6681
       818.40000  3.78390e-13      16.6491
       818.50000  1.84400e-12      81.0255
       818.60000  1.84400e-12      80.9518
       818.70000  1.84400e-12      80.8780
       818.80000  1.79729e-12      78.7571
       818.90000  1.79729e-12      78.7212
       819.00000  1.79729e-12      78.6673
       819.10000  1.79729e-12      78.6493
       819.20000  1.79729e-12      78.6313
       819.30000  1.79729e-12      78.6133
       819.40000  1.79729e-12      78.6133
       819.50000  7.34107e-13      32.1172
       819.60000  7.34107e-13      32.1245
       819.70000  7.34107e-13      32.1392
       819.80000  7.34107e-13      32.1612
       819.90000  7.34107e-13      32.1833
       820.00000  7.34107e-13      32.2126
       820.10000  7.34107e-13      32.2420
       820.20000  7.34107e-13      32.2787
       820.30000  7.34107e-13      32.3227
       820.40000  7.34107e-13      32.3668
       820.50000  2.14705e-13      9.48137
       820.60000  2.14705e-13      9.49640
       820.70000  2.14705e-13      9.51358
       820.80000  2.14705e-13      9.53075
       820.90000  2.14705e-13      9.55008
       821.00000  2.14705e-13      9.57155
       821.10000  2.14705e-13      9.56725
       821.20000  2.14705e-13      9.56511
       821.30000  2.09753e-13      9.34032
       821.40000  2.09753e-13      9.33822
       821.50000  1.39726e-13      6.21781
       821.60000  1.39726e-13      6.21641
       821.70000  1.39726e-13      6.21501
       821.80000  1.39726e-13      6.21222
       821.90000  1.39726e-13      6.21082
       822.00000  1.39726e-13      6.20942
       822.10000  1.39726e-13      6.20942
       822.20000  1.39726e-13      6.20803
       822.30000  1.39726e-13      6.20663
       822.40000  1.39726e-13      6.20663
       822.50000  1.23055e-12      54.6487
       822.60000  1.23055e-12      54.6487
       822.70000  1.23055e-12      54.6364
       822.80000  1.23055e-12      54.6364
       822.90000  1.23055e-12      54.6364
       823.00000  1.23055e-12      54.6364
       823.10000  1.23055e-12      54.6364
       823.20000  1.23055e-12      54.6364
       823.30000  1.23055e-12      54.6364
       823.40000  1.23055e-12      54.6364
       823.50000  1.64418e-12      73.0179
       823.60000  1.64418e-12      73.0179
       823.70000  1.64418e-12      73.0344
       823.80000  1.60763e-12      71.4109
       823.90000  1.60763e-12      71.4270
       824.00000  1.60763e-12      71.4431
       824.10000  1.60763e-12      71.4591
       824.20000  1.60763e-12      71.4752
       824.30000  1.60763e-12      71.4913
       824.40000  1.60763e-12      71.5234
       824.50000  1.51614e-12      67.4682
       824.60000  1.51614e-12      67.4985
       824.70000  1.51614e-12      67.5137
       824.80000  1.51614e-12      67.5440
       824.90000  1.51614e-12      67.5743
       825.00000  1.51614e-12      67.6046
       825.10000  1.51614e-12      67.6349
       825.20000  1.51614e-12      67.6653
       825.30000  1.51614e-12      67.7108
       825.40000  1.51614e-12      67.7411
       825.50000  2.61341e-12      116.845
       825.60000  2.61341e-12      116.898
       825.70000  2.61341e-12      116.976
       825.80000  2.61341e-12      117.054
       825.90000  2.61341e-12      117.133
       826.00000  2.61341e-12      117.211
       826.10000  2.61341e-12      117.290
       826.20000  2.61341e-12      117.342
       826.30000  2.56021e-12      115.030
       826.40000  2.56021e-12      115.081
       826.50000  1.10590e-12      49.7213
       826.60000  1.10590e-12      49.7434
       826.70000  1.10590e-12      49.7656
       826.80000  1.10590e-12      49.7766
       826.90000  1.10590e-12      49.7877
       827.00000  1.10590e-12      49.7987
       827.10000  1.10590e-12      49.7987
       827.20000  1.10590e-12      49.8098
       827.30000  1.10590e-12      49.8098
       827.40000  1.10590e-12      49.8098
       827.50000  6.02799e-13      27.1500
       827.60000  6.02799e-13      27.1500
       827.70000  6.02799e-13      27.1440
       827.80000  6.02799e-13      27.1380
       827.90000  6.02799e-13      27.1320
       828.00000  6.02799e-13      27.1259
       828.10000  6.02799e-13      27.1079
       828.20000  6.02799e-13      27.0837
       828.30000  6.02799e-13      27.0596
       828.40000  6.02799e-13      27.0355
       828.50000  7.76716e-13      34.8124
       828.60000  7.76716e-13      34.7813
       828.70000  7.76716e-13      34.7580
       828.80000  7.61465e-13      34.0527
       828.90000  7.61465e-13      34.0222
       829.00000  7.61465e-13      33.9994
       829.10000  7.61465e-13      33.9765
       829.20000  7.61465e-13      33.9537
       829.30000  7.61465e-13      33.9309
       829.40000  7.61465e-13      33.9080
       829.50000  2.46417e-12      109.656
       829.60000  2.46417e-12      109.582
       829.70000  2.46417e-12      109.508
       829.80000  2.46417e-12      109.434
       829.90000  2.46417e-12      109.384
       830.00000  2.46417e-12      109.311
       830.10000  2.46417e-12      109.261
       830.20000  2.46417e-12      109.187
       830.30000  2.46417e-12      109.138
       830.40000  2.46417e-12      109.064
       830.50000  7.90275e-13      34.9617
       830.60000  7.90275e-13      34.9459
       830.70000  7.90275e-13      34.9222
       830.80000  7.90275e-13      34.9064
       830.90000  7.90275e-13      34.8906
       831.00000  7.90275e-13      34.8748
       831.10000  7.90275e-13      34.8590
       831.20000  7.90275e-13      34.8432
       831.30000  7.74527e-13      34.1411
       831.40000  7.74527e-13      34.1257
       831.50000  1.66003e-12      73.1079
       831.60000  1.66003e-12      73.0913
       831.70000  1.66003e-12      73.0581
       831.80000  1.66003e-12      73.0249
       831.90000  1.66003e-12      73.0083
       832.00000  1.66003e-12      72.9917
       832.10000  1.66003e-12      72.9253
       832.20000  1.66003e-12      72.8589
       832.30000  1.66003e-12      72.8091
       832.40000  1.66003e-12      72.7593
       832.50000  5.45507e-13      23.8932
       832.60000  5.45507e-13      23.8823
       832.70000  5.45507e-13      23.8714
       832.80000  5.45507e-13      23.8550
       832.90000  5.45507e-13      23.8496
       833.00000  5.45507e-13      23.8387
       833.10000  5.45507e-13      23.8278
       833.20000  5.45507e-13      23.8223
       833.30000  5.45507e-13      23.8169
       833.40000  5.45507e-13      23.8114
       833.50000  1.09963e-13      4.79987
       833.60000  1.09963e-13      4.79877
       833.70000  1.09963e-13      4.79877
       833.80000  1.07910e-13      4.70921
       833.90000  1.07910e-13      4.71029
       834.00000  1.07910e-13      4.71029
       834.10000  1.07910e-13      4.71569
       834.20000  1.07910e-13      4.72000
       834.30000  1.07910e-13      4.72540
       834.40000  1.07910e-13      4.72971
       834.50000  7.77292e-13      34.0998
       834.60000  7.77292e-13      34.1309
       834.70000  7.77292e-13      34.1542
       834.80000  7.77292e-13      34.1775
       834.90000  7.77292e-13      34.2086
       835.00000  7.77292e-13      34.2320
       835.10000  7.77292e-13      34.2475
       835.20000  7.77292e-13      34.2708
       835.30000  7.77292e-13      34.2864
       835.40000  7.77292e-13      34.3019
       835.50000  2.77981e-12      122.729
       835.60000  2.77981e-12      122.784
       835.70000  2.77981e-12      122.812
       835.80000  2.77981e-12      122.868
       835.90000  2.77981e-12      122.895
       836.00000  2.77981e-12      122.923
       836.10000  2.77981e-12      122.868
       836.20000  2.77981e-12      122.840
       836.30000  2.73488e-12      120.800
       836.40000  2.73488e-12      120.772
       836.50000  1.71079e-12      75.5316
       836.60000  1.71079e-12      75.4974
       836.70000  1.71079e-12      75.4803
       836.80000  1.71079e-12      75.4632
       836.90000  1.71079e-12      75.4289
       837.00000  1.71079e-12      75.4118
       837.10000  1.71079e-12      75.3947
       837.20000  1.71079e-12      75.3776
       837.30000  1.71079e-12      75.3605
       837.40000  1.71079e-12      75.3434
       837.50000  2.46626e-12      108.589
       837.60000  2.46626e-12      108.565
       837.70000  2.46626e-12      108.540
       837.80000  2.46626e-12      108.515
       837.90000  2.46626e-12      108.515
       838.00000  2.46626e-12      108.491
       838.10000  2.46626e-12      108.466
       838.20000  2.46626e-12      108.466
       838.30000  2.46626e-12      108.466
       838.40000  2.46626e-12      108.466
       838.50000  1.95445e-12      85.9373
       838.60000  1.95445e-12      85.9373
       838.70000  1.95445e-12      85.9373
       838.80000  1.92572e-12      84.6546
       838.90000  1.92572e-12      84.6546
       839.00000  1.92572e-12      84.6546
       839.10000  1.92572e-12      84.6354
       839.20000  1.92572e-12      84.6354
       839.30000  1.92572e-12      84.6354
       839.40000  1.92572e-12      84.6161
       839.50000  3.61789e-12      158.970
       839.60000  3.61789e-12      158.970
       839.70000  3.61789e-12      158.934
       839.80000  3.61789e-12      158.934
       839.90000  3.61789e-12      158.934
       840.00000  3.61789e-12      158.898
       840.10000  3.61789e-12      158.898
       840.20000  3.61789e-12      158.898
       840.30000  3.61789e-12      158.862
       840.40000  3.61789e-12      158.862
       840.50000  4.12327e-12      181.053
       840.60000  4.12327e-12      181.011
       840.70000  4.12327e-12      181.011
       840.80000  4.12327e-12      181.011
       840.90000  4.12327e-12      180.970
       841.00000  4.12327e-12      180.970
       841.10000  4.12327e-12      180.970
       841.20000  4.12327e-12      180.970
       841.30000  4.05650e-12      177.999
       841.40000  4.05650e-12      177.999
       841.50000  2.44291e-12      107.195
       841.60000  2.44291e-12      107.170
       841.70000  2.44291e-12      107.170
       841.80000  2.44291e-12      107.170
       841.90000  2.44291e-12      107.146
       842.00000  2.44291e-12      107.146
       842.10000  2.44291e-12      107.048
       842.20000  2.44291e-12      106.975
       842.30000  2.44291e-12      106.902
       842.40000  2.44291e-12      106.804
       842.50000  6.82416e-12      298.147
       842.60000  6.82416e-12      298.011
       842.70000  6.82416e-12      297.806
       842.80000  6.82416e-12      297.670
       842.90000  6.82416e-12      297.465
       843.00000  6.82416e-12      297.328
       843.10000  6.82416e-12      297.192
       843.20000  6.82416e-12      297.055
       843.30000  6.82416e-12      296.987
       843.40000  6.82416e-12      296.851
       843.50000  4.93363e-12      214.563
       843.60000  4.93363e-12      214.514
       843.70000  4.93363e-12      214.465
       843.80000  4.84758e-12      210.676
       843.90000  4.84758e-12      210.676
       844.00000  4.84758e-12      210.627
       844.10000  4.84758e-12      210.773
       844.20000  4.84758e-12      210.870
       844.30000  4.84758e-12      210.967
       844.40000  4.84758e-12      211.064
       844.50000  7.14939e-13      31.1427
       844.60000  7.14939e-13      31.1570
       844.70000  7.14939e-13      31.1642
       844.80000  7.14939e-13      31.1785
       844.90000  7.14939e-13      31.1856
       845.00000  7.14939e-13      31.1999
       845.10000  7.14939e-13      31.2071
       845.20000  7.14939e-13      31.2142
       845.30000  7.14939e-13      31.2285
       845.40000  7.14939e-13      31.2357
       845.50000  7.60544e-12      332.282
       845.60000  7.60544e-12      332.358
       845.70000  7.60544e-12      332.434
       845.80000  7.60544e-12      332.510
       845.90000  7.60544e-12      332.510
       846.00000  7.60544e-12      332.586
       846.10000  7.60544e-12      332.586
       846.20000  7.60544e-12      332.586
       846.30000  7.46306e-12      326.359
       846.40000  7.46306e-12      326.434
       846.50000  3.47332e-12      151.923
       846.60000  3.47332e-12      151.888
       846.70000  3.47332e-12      151.888
       846.80000  3.47332e-12      151.888
       846.90000  3.47332e-12      151.854
       847.00000  3.47332e-12      151.854
       847.10000  3.47332e-12      151.819
       847.20000  3.47332e-12      151.819
       847.30000  3.47332e-12      151.784
       847.40000  3.47332e-12      151.749
       847.50000  1.14800e-11      501.447
       847.60000  1.14800e-11      501.332
       847.70000  1.14800e-11      501.217
       847.80000  1.14800e-11      501.103
       847.90000  1.14800e-11      500.873
       848.00000  1.14800e-11      500.758
       848.10000  1.14800e-11      498.347
       848.20000  1.14800e-11      496.166
       848.30000  1.14800e-11      493.985
       848.40000  1.14800e-11      491.919
       848.50000  5.57186e-12      237.807
       848.60000  5.57186e-12      236.971
       848.70000  5.57186e-12      236.135
       848.80000  5.46995e-12      231.051
       848.90000  5.46995e-12      230.340
       849.00000  5.46995e-12      229.683
       849.10000  5.46995e-12      229.027
       849.20000  5.46995e-12      228.480
       849.30000  5.46995e-12      227.988
       849.40000  5.46995e-12      227.495
       849.50000  5.08859e-10      21127.8
       849.60000  5.08859e-10      21092.2
       849.70000  5.08859e-10      21066.8
       849.80000  5.08859e-10      21041.3
       849.90000  5.08859e-10      21021.0
       850.00000  5.08859e-10      21005.7
       850.10000  5.08859e-10      21117.6
       850.20000  5.08859e-10      21224.5
       850.30000  5.08859e-10      21321.2
       850.40000  5.08859e-10      21407.7
       850.50000  5.09543e-10      21518.0
       850.60000  5.09543e-10      21589.3
       850.70000  5.09543e-10      21650.5
       850.80000  5.09543e-10      21706.5
       850.90000  5.09543e-10      21752.4
       851.00000  5.09543e-10      21793.2
       851.10000  5.09543e-10      21823.7
       851.20000  5.09543e-10      21849.2
       851.30000  5.00763e-10      21487.7
       851.40000  5.00763e-10      21492.7
       851.50000  4.19282e-10      17995.6
       851.60000  4.19282e-10      17987.2
       851.70000  4.19282e-10      17974.6
       851.80000  4.19282e-10      17953.7
       851.90000  4.19282e-10      17924.3
       852.00000  4.19282e-10      17890.8
       852.10000  4.19282e-10      17848.8
       852.20000  4.19282e-10      17802.7
       852.30000  4.19282e-10      17748.2
       852.40000  4.19282e-10      17689.5
       852.50000  5.80258e-10      24382.5
       852.60000  5.80258e-10      24283.8
       852.70000  5.80258e-10      24167.8
       852.80000  5.80258e-10      24051.7
       852.90000  5.80258e-10      23918.2
       853.00000  5.80258e-10      23779.0
       853.10000  5.80258e-10      23628.1
       853.20000  5.80258e-10      23471.4
       853.30000  5.80258e-10      23303.2
       853.40000  5.80258e-10      23129.1
       853.50000  5.68366e-10      22473.2
       853.60000  5.68366e-10      22279.9
       853.70000  5.68366e-10      22081.0
       853.80000  5.58639e-10      21496.4
       853.90000  5.58639e-10      21284.1
       854.00000  5.58639e-10      21060.7
       854.10000  5.58639e-10      21217.1
       854.20000  5.58639e-10      21373.5
       854.30000  5.58639e-10      21524.4
       854.40000  5.58639e-10      21669.6
       854.50000  4.89902e-10      19125.8
       854.60000  4.89902e-10      19248.2
       854.70000  4.89902e-10      19365.8
       854.80000  4.89902e-10      19478.5
       854.90000  4.89902e-10      19591.2
       855.00000  4.89902e-10      19698.9
       855.10000  4.89902e-10      19801.8
       855.20000  4.89902e-10      19899.8
       855.30000  4.89902e-10      19997.8
       855.40000  4.89902e-10      20086.0
       855.50000  5.52165e-10      22743.7
       855.60000  5.52165e-10      22837.6
       855.70000  5.52165e-10      22931.4
       855.80000  5.52165e-10      23019.8
       855.90000  5.52165e-10      23102.6
       856.00000  5.52165e-10      23179.9
       856.10000  5.52165e-10      23240.6
       856.20000  5.52165e-10      23295.9
       856.30000  5.41012e-10      22879.4
       856.40000  5.41012e-10      22933.5
       856.50000  7.54725e-10      32060.7
       856.60000  7.54725e-10      32128.7
       856.70000  7.54725e-10      32189.0
       856.80000  7.54725e-10      32249.4
       856.90000  7.54725e-10      32302.2
       857.00000  7.54725e-10      32355.1
       857.10000  7.54725e-10      32407.9
       857.20000  7.54725e-10      32453.2
       857.30000  7.54725e-10      32498.5
       857.40000  7.54725e-10      32536.2
       857.50000  7.69795e-10      33224.4
       857.60000  7.69795e-10      33262.9
       857.70000  7.69795e-10      33293.7
       857.80000  7.69795e-10      33324.4
       857.90000  7.69795e-10      33347.5
       858.00000  7.69795e-10      33378.3
       858.10000  7.69795e-10      33393.7
       858.20000  7.69795e-10      33409.1
       858.30000  7.69795e-10      33424.5
       858.40000  7.69795e-10      33432.2
       858.50000  9.94606e-10      43205.7
       858.60000  9.94606e-10      43215.6
       858.70000  9.94606e-10      43215.6
       858.80000  9.73334e-10      42291.4
       858.90000  9.73334e-10      42281.6
       859.00000  9.73334e-10      42271.9
       859.10000  9.73334e-10      42262.2
       859.20000  9.73334e-10      42242.7
       859.30000  9.73334e-10      42223.2
       859.40000  9.73334e-10      42194.0
       859.50000  9.71798e-10      42098.3
       859.60000  9.71798e-10      42069.1
       859.70000  9.71798e-10      42030.3
       859.80000  9.71798e-10      41981.7
       859.90000  9.71798e-10      41942.8
       860.00000  9.71798e-10      41894.2
       860.10000  9.71798e-10      41884.5
       860.20000  9.71798e-10      41874.8
       860.30000  9.71798e-10      41874.8
       860.40000  9.71798e-10      41874.8
       860.50000  6.47130e-10      27878.4
       860.60000  6.47130e-10      27878.4
       860.70000  6.47130e-10      27878.4
       860.80000  6.47130e-10      27878.4
       860.90000  6.47130e-10      27878.4
       861.00000  6.47130e-10      27878.4
       861.10000  6.47130e-10      27878.4
       861.20000  6.47130e-10      27878.4
       861.30000  6.33372e-10      27285.7
       861.40000  6.33372e-10      27292.0
       861.50000  1.48222e-09      63869.0
       861.60000  1.48222e-09      63869.0
       861.70000  1.48222e-09      63883.8
       861.80000  1.48222e-09      63898.7
       861.90000  1.48222e-09      63898.7
       862.00000  1.48222e-09      63913.5
       862.10000  1.48222e-09      64121.0
       862.20000  1.48222e-09      64298.9
       862.30000  1.48222e-09      64461.9
       862.40000  1.48222e-09      64610.1
       862.50000  4.06325e-09      177442.
       862.60000  4.06325e-09      177727.
       862.70000  4.06325e-09      177970.
       862.80000  4.06325e-09      178174.
       862.90000  4.06325e-09      178295.
       863.00000  4.06325e-09      178377.
       863.10000  4.06325e-09      178417.
       863.20000  4.06325e-09      178417.
       863.30000  4.06325e-09      178336.
       863.40000  4.06325e-09      178214.
       863.50000  2.18680e-09      95825.8
       863.60000  2.18680e-09      95694.6
       863.70000  2.18680e-09      95541.5
       863.80000  2.14005e-09      93327.5
       863.90000  2.14005e-09      93134.9
       864.00000  2.14005e-09      92899.5
       864.10000  2.14005e-09      92642.7
       864.20000  2.14005e-09      92364.5
       864.30000  2.14005e-09      92043.5
       864.40000  2.14005e-09      91722.5
       864.50000  2.87298e-09      122619.
       864.60000  2.87298e-09      122102.
       864.70000  2.87298e-09      121527.
       864.80000  2.87298e-09      120952.
       864.90000  2.87298e-09      120292.
       865.00000  2.87298e-09      119631.
       865.10000  2.87298e-09      118913.
       865.20000  2.87298e-09      118166.
       865.30000  2.87298e-09      117390.
       865.40000  2.87298e-09      116557.
       865.50000  3.72993e-09      150204.
       865.60000  3.72993e-09      149048.
       865.70000  3.72993e-09      147854.
       865.80000  3.72993e-09      146586.
       865.90000  3.72993e-09      145281.
       866.00000  3.72993e-09      143938.
       866.10000  3.72993e-09      144460.
       866.20000  3.72993e-09      144945.
       866.30000  3.65059e-09      142373.
       866.40000  3.65059e-09      142848.
       866.50000  4.16407e-09      163482.
       866.60000  4.16407e-09      164023.
       866.70000  4.16407e-09      164564.
       866.80000  4.16407e-09      165106.
       866.90000  4.16407e-09      165605.
       867.00000  4.16407e-09      166105.
       867.10000  4.16407e-09      166605.
       867.20000  4.16407e-09      167104.
       867.30000  4.16407e-09      167604.
       867.40000  4.16407e-09      168062.
       867.50000  5.91186e-09      239253.
       867.60000  5.91186e-09      239903.
       867.70000  5.91186e-09      240554.
       867.80000  5.91186e-09      241204.
       867.90000  5.91186e-09      241795.
       868.00000  5.91186e-09      242386.
       868.10000  5.91186e-09      243037.
       868.20000  5.91186e-09      243687.
       868.30000  5.91186e-09      244278.
       868.40000  5.91186e-09      244869.
       868.50000  6.69806e-09      278103.
       868.60000  6.69806e-09      278706.
       868.70000  6.69806e-09      279376.
       868.80000  6.55142e-09      273784.
       868.90000  6.55142e-09      274373.
       869.00000  6.55142e-09      274898.
       869.10000  6.55142e-09      275422.
       869.20000  6.55142e-09      275946.
       869.30000  6.55142e-09      276470.
       869.40000  6.55142e-09      276928.
       869.50000  7.74013e-09      327717.
       869.60000  7.74013e-09      328181.
       869.70000  7.74013e-09      328646.
       869.80000  7.74013e-09      329110.
       869.90000  7.74013e-09      329575.
       870.00000  7.74013e-09      330039.
       870.10000  7.74013e-09      330426.
       870.20000  7.74013e-09      330813.
       870.30000  7.74013e-09      331123.
       870.40000  7.74013e-09      331432.
       870.50000  1.16936e-08      501188.
       870.60000  1.16936e-08      501655.
       870.70000  1.16936e-08      502006.
       870.80000  1.16936e-08      502474.
       870.90000  1.16936e-08      502708.
       871.00000  1.16936e-08      503059.
       871.10000  1.16936e-08      503293.
       871.20000  1.16936e-08      503526.
       871.30000  1.14484e-08      493199.
       871.40000  1.14484e-08      493313.
       871.50000  9.95558e-09      429086.
       871.60000  9.95558e-09      429185.
       871.70000  9.95558e-09      429185.
       871.80000  9.95558e-09      429285.
       871.90000  9.95558e-09      429185.
       872.00000  9.95558e-09      429185.
       872.10000  9.95558e-09      428887.
       872.20000  9.95558e-09      428687.
       872.30000  9.95558e-09      428389.
       872.40000  9.95558e-09      428190.
       872.50000  1.74356e-08      749383.
       872.60000  1.74356e-08      749034.
       872.70000  1.74356e-08      748686.
       872.80000  1.74356e-08      748337.
       872.90000  1.74356e-08      747814.
       873.00000  1.74356e-08      747465.
       873.10000  1.74356e-08      747116.
       873.20000  1.74356e-08      746768.
       873.30000  1.74356e-08      746419.
       873.40000  1.74356e-08      746070.
       873.50000  2.46092e-08  1.05254e+06
       873.60000  2.46092e-08  1.05204e+06
       873.70000  2.46092e-08  1.05155e+06
       873.80000  2.40507e-08  1.02745e+06
       873.90000  2.40507e-08  1.02697e+06
       874.00000  2.40507e-08  1.02648e+06
       874.10000  2.40507e-08  1.02576e+06
       874.20000  2.40507e-08  1.02504e+06
       874.30000  2.40507e-08  1.02456e+06
       874.40000  2.40507e-08  1.02384e+06
       874.50000  4.24053e-08  1.80435e+06
       874.60000  4.24053e-08  1.80350e+06
       874.70000  4.24053e-08  1.80265e+06
       874.80000  4.24053e-08  1.80223e+06
       874.90000  4.24053e-08  1.80138e+06
       875.00000  4.24053e-08  1.80095e+06
       875.10000  4.24053e-08  1.80053e+06
       875.20000  4.24053e-08  1.80010e+06
       875.30000  4.24053e-08  1.80010e+06
       875.40000  4.24053e-08  1.79968e+06
       875.50000  2.30265e-08      977246.
       875.60000  2.30265e-08      977246.
       875.70000  2.30265e-08      977246.
       875.80000  2.30265e-08      977476.
       875.90000  2.30265e-08      977476.
       876.00000  2.30265e-08      977706.
       876.10000  2.30265e-08      977937.
       876.20000  2.30265e-08      978167.
       876.30000  2.24767e-08      955034.
       876.40000  2.24767e-08      955484.
       876.50000  5.74179e-08  2.44198e+06
       876.60000  5.74179e-08  2.44313e+06
       876.70000  5.74179e-08  2.44428e+06
       876.80000  5.74179e-08  2.44543e+06
       876.90000  5.74179e-08  2.44715e+06
       877.00000  5.74179e-08  2.44887e+06
       877.10000  5.74179e-08  2.45060e+06
       877.20000  5.74179e-08  2.45232e+06
       877.30000  5.74179e-08  2.45404e+06
       877.40000  5.74179e-08  2.45634e+06
       877.50000  8.12092e-08  3.47738e+06
       877.60000  8.12092e-08  3.48063e+06
       877.70000  8.12092e-08  3.48388e+06
       877.80000  8.12092e-08  3.48712e+06
       877.90000  8.12092e-08  3.49119e+06
       878.00000  8.12092e-08  3.49525e+06
       878.10000  8.12092e-08  3.49037e+06
       878.20000  8.12092e-08  3.48631e+06
       878.30000  8.12092e-08  3.48225e+06
       878.40000  8.12092e-08  3.47819e+06
       878.50000  9.99792e-08  4.27711e+06
       878.60000  9.99792e-08  4.27311e+06
       878.70000  9.99792e-08  4.26811e+06
       878.80000  9.75399e-08  4.16008e+06
       878.90000  9.75399e-08  4.15618e+06
       879.00000  9.75399e-08  4.15228e+06
       879.10000  9.75399e-08  4.14837e+06
       879.20000  9.75399e-08  4.14545e+06
       879.30000  9.75399e-08  4.14155e+06
       879.40000  9.75399e-08  4.13862e+06
       879.50000  1.15539e-07  4.89887e+06
       879.60000  1.15539e-07  4.89540e+06
       879.70000  1.15539e-07  4.89194e+06
       879.80000  1.15539e-07  4.88963e+06
       879.90000  1.15539e-07  4.88616e+06
       880.00000  1.15539e-07  4.88385e+06
       880.10000  1.15539e-07  4.88270e+06
       880.20000  1.15539e-07  4.88039e+06
       880.30000  1.15539e-07  4.87923e+06
       880.40000  1.15539e-07  4.87692e+06
       880.50000  1.18447e-07  4.99846e+06
       880.60000  1.18447e-07  4.99727e+06
       880.70000  1.18447e-07  4.99609e+06
       880.80000  1.18447e-07  4.99609e+06
       880.90000  1.18447e-07  4.99491e+06
       881.00000  1.18447e-07  4.99372e+06
       881.10000  1.18447e-07  4.99372e+06
       881.20000  1.18447e-07  4.99372e+06
       881.30000  1.15621e-07  4.87459e+06
       881.40000  1.15621e-07  4.87343e+06
       881.50000  1.74128e-07  7.34125e+06
       881.60000  1.74128e-07  7.34125e+06
       881.70000  1.74128e-07  7.34125e+06
       881.80000  1.74128e-07  7.34299e+06
       881.90000  1.74128e-07  7.34299e+06
       882.00000  1.74128e-07  7.34473e+06
       882.10000  1.74128e-07  7.35344e+06
       882.20000  1.74128e-07  7.36040e+06
       882.30000  1.74128e-07  7.36737e+06
       882.40000  1.74128e-07  7.37433e+06
       882.50000  1.25072e-07  5.30179e+06
       882.60000  1.25072e-07  5.30554e+06
       882.70000  1.25072e-07  5.30929e+06
       882.80000  1.25072e-07  5.31304e+06
       882.90000  1.25072e-07  5.31555e+06
       883.00000  1.25072e-07  5.31805e+06
       883.10000  1.25072e-07  5.32055e+06
       883.20000  1.25072e-07  5.32305e+06
       883.30000  1.25072e-07  5.32430e+06
       883.40000  1.25072e-07  5.32555e+06
       883.50000  1.35091e-07  5.75352e+06
       883.60000  1.35091e-07  5.75352e+06
       883.70000  1.35091e-07  5.75352e+06
       883.80000  1.31953e-07  5.61988e+06
       883.90000  1.31953e-07  5.61856e+06
       884.00000  1.31953e-07  5.61724e+06
       884.10000  1.31953e-07  5.60933e+06
       884.20000  1.31953e-07  5.60141e+06
       884.30000  1.31953e-07  5.59349e+06
       884.40000  1.31953e-07  5.58557e+06
       884.50000  1.59533e-07  6.74347e+06
       884.60000  1.59533e-07  6.73549e+06
       884.70000  1.59533e-07  6.72751e+06
       884.80000  1.59533e-07  6.72113e+06
       884.90000  1.59533e-07  6.71316e+06
       885.00000  1.59533e-07  6.70678e+06
       885.10000  1.59533e-07  6.70199e+06
       885.20000  1.59533e-07  6.69561e+06
       885.30000  1.59533e-07  6.69082e+06
       885.40000  1.59533e-07  6.68604e+06
       885.50000  1.32078e-07  5.53274e+06
       885.60000  1.32078e-07  5.52877e+06
       885.70000  1.32078e-07  5.52613e+06
       885.80000  1.32078e-07  5.52481e+06
       885.90000  1.32078e-07  5.52217e+06
       886.00000  1.32078e-07  5.52085e+06
       886.10000  1.32078e-07  5.51953e+06
       886.20000  1.32078e-07  5.51821e+06
       886.30000  1.29132e-07  5.39514e+06
       886.40000  1.29132e-07  5.39514e+06
       886.50000  1.59711e-07  6.67271e+06
       886.60000  1.59711e-07  6.67431e+06
       886.70000  1.59711e-07  6.67590e+06
       886.80000  1.59711e-07  6.67750e+06
       886.90000  1.59711e-07  6.67910e+06
       887.00000  1.59711e-07  6.68229e+06
       887.10000  1.59711e-07  6.68549e+06
       887.20000  1.59711e-07  6.68868e+06
       887.30000  1.59711e-07  6.69187e+06
       887.40000  1.59711e-07  6.69666e+06
       887.50000  1.27998e-07  5.37079e+06
       887.60000  1.27998e-07  5.37591e+06
       887.70000  1.27998e-07  5.37975e+06
       887.80000  1.27998e-07  5.38487e+06
       887.90000  1.27998e-07  5.39127e+06
       888.00000  1.27998e-07  5.39639e+06
       888.10000  1.27998e-07  5.40279e+06
       888.20000  1.27998e-07  5.40791e+06
       888.30000  1.27998e-07  5.41431e+06
       888.40000  1.27998e-07  5.41943e+06
       888.50000  1.28192e-07  5.43277e+06
       888.60000  1.28192e-07  5.43662e+06
       888.70000  1.28192e-07  5.44046e+06
       888.80000  1.25635e-07  5.33573e+06
       888.90000  1.25635e-07  5.33950e+06
       889.00000  1.25635e-07  5.34327e+06
       889.10000  1.25635e-07  5.34578e+06
       889.20000  1.25635e-07  5.34829e+06
       889.30000  1.25635e-07  5.35080e+06
       889.40000  1.25635e-07  5.35206e+06
       889.50000  1.28024e-07  5.45638e+06
       889.60000  1.28024e-07  5.45766e+06
       889.70000  1.28024e-07  5.45894e+06
       889.80000  1.28024e-07  5.45894e+06
       889.90000  1.28024e-07  5.45894e+06
       890.00000  1.28024e-07  5.45894e+06
       890.10000  1.28024e-07  5.45510e+06
       890.20000  1.28024e-07  5.45126e+06
       890.30000  1.28024e-07  5.44742e+06
       890.40000  1.28024e-07  5.44358e+06
       890.50000  1.09206e-07  4.64018e+06
       890.60000  1.09206e-07  4.63690e+06
       890.70000  1.09206e-07  4.63362e+06
       890.80000  1.09206e-07  4.63035e+06
       890.90000  1.09206e-07  4.62707e+06
       891.00000  1.09206e-07  4.62489e+06
       891.10000  1.09206e-07  4.62161e+06
       891.20000  1.09206e-07  4.61943e+06
       891.30000  1.07264e-07  4.53404e+06
       891.40000  1.07264e-07  4.53190e+06
       891.50000  9.58328e-08  4.04702e+06
       891.60000  9.58328e-08  4.04510e+06
       891.70000  9.58328e-08  4.04319e+06
       891.80000  9.58328e-08  4.04127e+06
       891.90000  9.58328e-08  4.03935e+06
       892.00000  9.58328e-08  4.03744e+06
       892.10000  9.58328e-08  4.03552e+06
       892.20000  9.58328e-08  4.03456e+06
       892.30000  9.58328e-08  4.03264e+06
       892.40000  9.58328e-08  4.03169e+06
       892.50000  1.42642e-07  5.99810e+06
       892.60000  1.42642e-07  5.99667e+06
       892.70000  1.42642e-07  5.99525e+06
       892.80000  1.42642e-07  5.99382e+06
       892.90000  1.42642e-07  5.99239e+06
       893.00000  1.42642e-07  5.99097e+06
       893.10000  1.42642e-07  5.98954e+06
       893.20000  1.42642e-07  5.98811e+06
       893.30000  1.42642e-07  5.98669e+06
       893.40000  1.42642e-07  5.98669e+06
       893.50000  1.22672e-07  5.14732e+06
       893.60000  1.22672e-07  5.14732e+06
       893.70000  1.22672e-07  5.14609e+06
       893.80000  1.20556e-07  5.05731e+06
       893.90000  1.20556e-07  5.05731e+06
       894.00000  1.20556e-07  5.05731e+06
       894.10000  1.20556e-07  5.06093e+06
       894.20000  1.20556e-07  5.06334e+06
       894.30000  1.20556e-07  5.06696e+06
       894.40000  1.20556e-07  5.06937e+06
       894.50000  1.02515e-07  4.31385e+06
       894.60000  1.02515e-07  4.31590e+06
       894.70000  1.02515e-07  4.31795e+06
       894.80000  1.02515e-07  4.32000e+06
       894.90000  1.02515e-07  4.32205e+06
       895.00000  1.02515e-07  4.32410e+06
       895.10000  1.02515e-07  4.32513e+06
       895.20000  1.02515e-07  4.32718e+06
       895.30000  1.02515e-07  4.32820e+06
       895.40000  1.02515e-07  4.32923e+06
       895.50000  1.07933e-07  4.56015e+06
       895.60000  1.07933e-07  4.56123e+06
       895.70000  1.07933e-07  4.56231e+06
       895.80000  1.07933e-07  4.56231e+06
       895.90000  1.07933e-07  4.56339e+06
       896.00000  1.07933e-07  4.56447e+06
       896.10000  1.07933e-07  4.56555e+06
       896.20000  1.07933e-07  4.56555e+06
       896.30000  1.06345e-07  4.49945e+06
       896.40000  1.06345e-07  4.49945e+06
       896.50000  1.08131e-07  4.57502e+06
       896.60000  1.08131e-07  4.57502e+06
       896.70000  1.08131e-07  4.57502e+06
       896.80000  1.08131e-07  4.57502e+06
       896.90000  1.08131e-07  4.57502e+06
       897.00000  1.08131e-07  4.57394e+06
       897.10000  1.08131e-07  4.57394e+06
       897.20000  1.08131e-07  4.57286e+06
       897.30000  1.08131e-07  4.57178e+06
       897.40000  1.08131e-07  4.57070e+06
       897.50000  1.15859e-07  4.89506e+06
       897.60000  1.15859e-07  4.89390e+06
       897.70000  1.15859e-07  4.89158e+06
       897.80000  1.15859e-07  4.89043e+06
       897.90000  1.15859e-07  4.88811e+06
       898.00000  1.15859e-07  4.88579e+06
       898.10000  1.15859e-07  4.88232e+06
       898.20000  1.15859e-07  4.88000e+06
       898.30000  1.15859e-07  4.87768e+06
       898.40000  1.15859e-07  4.87421e+06
       898.50000  9.84677e-08  4.13958e+06
       898.60000  9.84677e-08  4.13663e+06
       898.70000  9.84677e-08  4.13368e+06
       898.80000  9.70129e-08  4.06969e+06
       898.90000  9.70129e-08  4.06581e+06
       899.00000  9.70129e-08  4.06290e+06
       899.10000  9.70129e-08  4.05902e+06
       899.20000  9.70129e-08  4.05514e+06
       899.30000  9.70129e-08  4.05126e+06
       899.40000  9.70129e-08  4.04738e+06
       899.50000  9.32914e-08  3.88838e+06
       899.60000  9.32914e-08  3.88372e+06
       899.70000  9.32914e-08  3.87999e+06
       899.80000  9.32914e-08  3.87532e+06
       899.90000  9.32914e-08  3.87066e+06
       900.00000  9.32914e-08  3.86599e+06
       900.10000  9.32914e-08  3.85480e+06
       900.20000  9.32914e-08  3.84547e+06
       900.30000  9.32914e-08  3.83521e+06
       900.40000  9.32914e-08  3.82681e+06
       900.50000  7.89572e-08  3.23172e+06
       900.60000  7.89572e-08  3.22540e+06
       900.70000  7.89572e-08  3.21909e+06
       900.80000  7.89572e-08  3.21435e+06
       900.90000  7.89572e-08  3.20961e+06
       901.00000  7.89572e-08  3.20487e+06
       901.10000  7.89572e-08  3.20172e+06
       901.20000  7.89572e-08  3.19856e+06
       901.30000  7.78358e-08  3.15002e+06
       901.40000  7.78358e-08  3.14846e+06
       901.50000  9.16730e-08  3.70634e+06
       901.60000  9.16730e-08  3.70542e+06
       901.70000  9.16730e-08  3.70451e+06
       901.80000  9.16730e-08  3.70451e+06
       901.90000  9.16730e-08  3.70542e+06
       902.00000  9.16730e-08  3.70726e+06
       902.10000  9.16730e-08  3.72009e+06
       902.20000  9.16730e-08  3.73201e+06
       902.30000  9.16730e-08  3.74393e+06
       902.40000  9.16730e-08  3.75493e+06
       902.50000  7.93347e-08  3.25907e+06
       902.60000  7.93347e-08  3.26780e+06
       902.70000  7.93347e-08  3.27652e+06
       902.80000  7.93347e-08  3.28446e+06
       902.90000  7.93347e-08  3.29239e+06
       903.00000  7.93347e-08  3.29953e+06
       903.10000  7.93347e-08  3.30667e+06
       903.20000  7.93347e-08  3.31302e+06
       903.30000  7.93347e-08  3.31857e+06
       903.40000  7.93347e-08  3.32412e+06
       903.50000  9.32799e-08  3.91403e+06
       903.60000  9.32799e-08  3.91962e+06
       903.70000  9.32799e-08  3.92522e+06
       903.80000  9.19800e-08  3.87420e+06
       903.90000  9.19800e-08  3.87880e+06
       904.00000  9.19800e-08  3.88156e+06
       904.10000  9.19800e-08  3.88432e+06
       904.20000  9.19800e-08  3.88708e+06
       904.30000  9.19800e-08  3.88892e+06
       904.40000  9.19800e-08  3.88984e+06
       904.50000  7.54743e-08  3.19256e+06
       904.60000  7.54743e-08  3.19332e+06
       904.70000  7.54743e-08  3.19332e+06
       904.80000  7.54743e-08  3.19256e+06
       904.90000  7.54743e-08  3.19181e+06
       905.00000  7.54743e-08  3.19030e+06
       905.10000  7.54743e-08  3.18879e+06
       905.20000  7.54743e-08  3.18653e+06
       905.30000  7.54743e-08  3.18426e+06
       905.40000  7.54743e-08  3.18124e+06
       905.50000  9.60986e-08  4.04575e+06
       905.60000  9.60986e-08  4.04094e+06
       905.70000  9.60986e-08  4.03614e+06
       905.80000  9.60986e-08  4.03037e+06
       905.90000  9.60986e-08  4.02365e+06
       906.00000  9.60986e-08  4.01692e+06
       906.10000  9.60986e-08  4.01308e+06
       906.20000  9.60986e-08  4.01019e+06
       906.30000  9.47100e-08  3.94941e+06
       906.40000  9.47100e-08  3.94562e+06
       906.50000  9.64544e-08  4.01540e+06
       906.60000  9.64544e-08  4.01250e+06
       906.70000  9.64544e-08  4.00961e+06
       906.80000  9.64544e-08  4.00672e+06
       906.90000  9.64544e-08  4.00382e+06
       907.00000  9.64544e-08  4.00093e+06
       907.10000  9.64544e-08  3.99804e+06
       907.20000  9.64544e-08  3.99514e+06
       907.30000  9.64544e-08  3.99225e+06
       907.40000  9.64544e-08  3.98935e+06
       907.50000  7.90155e-08  3.26571e+06
       907.60000  7.90155e-08  3.26413e+06
       907.70000  7.90155e-08  3.26176e+06
       907.80000  7.90155e-08  3.25939e+06
       907.90000  7.90155e-08  3.25781e+06
       908.00000  7.90155e-08  3.25544e+06
       908.10000  7.90155e-08  3.25228e+06
       908.20000  7.90155e-08  3.24991e+06
       908.30000  7.90155e-08  3.24675e+06
       908.40000  7.90155e-08  3.24438e+06
       908.50000  7.78269e-08  3.19324e+06
       908.60000  7.78269e-08  3.19090e+06
       908.70000  7.78269e-08  3.18935e+06
       908.80000  7.66524e-08  3.13891e+06
       908.90000  7.66524e-08  3.13738e+06
       909.00000  7.66524e-08  3.13585e+06
       909.10000  7.66524e-08  3.13432e+06
       909.20000  7.66524e-08  3.13278e+06
       909.30000  7.66524e-08  3.13125e+06
       909.40000  7.66524e-08  3.13048e+06
       909.50000  8.22200e-08  3.35704e+06
       909.60000  8.22200e-08  3.35622e+06
       909.70000  8.22200e-08  3.35540e+06
       909.80000  8.22200e-08  3.35458e+06
       909.90000  8.22200e-08  3.35458e+06
       910.00000  8.22200e-08  3.35375e+06
       910.10000  8.22200e-08  3.35375e+06
       910.20000  8.22200e-08  3.35375e+06
       910.30000  8.22200e-08  3.35458e+06
       910.40000  8.22200e-08  3.35458e+06
       910.50000  7.33358e-08  2.99283e+06
       910.60000  7.33358e-08  2.99283e+06
       910.70000  7.33358e-08  2.99357e+06
       910.80000  7.33358e-08  2.99503e+06
       910.90000  7.33358e-08  2.99577e+06
       911.00000  7.33358e-08  2.99650e+06
       911.10000  7.33358e-08  2.99797e+06
       911.20000  7.33358e-08  2.99943e+06
       911.30000  7.21666e-08  2.95306e+06
       911.40000  7.21666e-08  2.95450e+06
       911.50000  8.09353e-08  3.31592e+06
       911.60000  8.09353e-08  3.31754e+06
       911.70000  8.09353e-08  3.31996e+06
       911.80000  8.09353e-08  3.32239e+06
       911.90000  8.09353e-08  3.32482e+06
       912.00000  8.09353e-08  3.32806e+06
       912.10000  8.09353e-08  3.33211e+06
       912.20000  8.09353e-08  3.33534e+06
       912.30000  8.09353e-08  3.33858e+06
       912.40000  8.09353e-08  3.34182e+06
       912.50000  6.72533e-08  2.77958e+06
       912.60000  6.72533e-08  2.78227e+06
       912.70000  6.72533e-08  2.78496e+06
       912.80000  6.72533e-08  2.78698e+06
       912.90000  6.72533e-08  2.78899e+06
       913.00000  6.72533e-08  2.79101e+06
       913.10000  6.72533e-08  2.79303e+06
       913.20000  6.72533e-08  2.79437e+06
       913.30000  6.72533e-08  2.79639e+06
       913.40000  6.72533e-08  2.79774e+06
       913.50000  7.70233e-08  3.20571e+06
       913.60000  7.70233e-08  3.20725e+06
       913.70000  7.70233e-08  3.20802e+06
       913.80000  7.57032e-08  3.15380e+06
       913.90000  7.57032e-08  3.15531e+06
       914.00000  7.57032e-08  3.15607e+06
       914.10000  7.57032e-08  3.15455e+06
       914.20000  7.57032e-08  3.15380e+06
       914.30000  7.57032e-08  3.15304e+06
       914.40000  7.57032e-08  3.15228e+06
       914.50000  7.28851e-08  3.03420e+06
       914.60000  7.28851e-08  3.03275e+06
       914.70000  7.28851e-08  3.03202e+06
       914.80000  7.28851e-08  3.03129e+06
       914.90000  7.28851e-08  3.03056e+06
       915.00000  7.28851e-08  3.02983e+06
       915.10000  7.28851e-08  3.02910e+06
       915.20000  7.28851e-08  3.02837e+06
       915.30000  7.28851e-08  3.02765e+06
       915.40000  7.28851e-08  3.02692e+06
       915.50000  7.08045e-08  2.93980e+06
       915.60000  7.08045e-08  2.93910e+06
       915.70000  7.08045e-08  2.93839e+06
       915.80000  7.08045e-08  2.93768e+06
       915.90000  7.08045e-08  2.93697e+06
       916.00000  7.08045e-08  2.93626e+06
       916.10000  7.08045e-08  2.93556e+06
       916.20000  7.08045e-08  2.93485e+06
       916.30000  6.94884e-08  2.87960e+06
       916.40000  6.94884e-08  2.87890e+06
       916.50000  4.91261e-08  2.03480e+06
       916.60000  4.91261e-08  2.03480e+06
       916.70000  4.91261e-08  2.03431e+06
       916.80000  4.91261e-08  2.03382e+06
       916.90000  4.91261e-08  2.03333e+06
       917.00000  4.91261e-08  2.03284e+06
       917.10000  4.91261e-08  2.03284e+06
       917.20000  4.91261e-08  2.03234e+06
       917.30000  4.91261e-08  2.03185e+06
       917.40000  4.91261e-08  2.03136e+06
       917.50000  5.71698e-08  2.36397e+06
       917.60000  5.71698e-08  2.36340e+06
       917.70000  5.71698e-08  2.36283e+06
       917.80000  5.71698e-08  2.36283e+06
       917.90000  5.71698e-08  2.36226e+06
       918.00000  5.71698e-08  2.36168e+06
       918.10000  5.71698e-08  2.36283e+06
       918.20000  5.71698e-08  2.36397e+06
       918.30000  5.71698e-08  2.36511e+06
       918.40000  5.71698e-08  2.36569e+06
       918.50000  2.29960e-08      951804.
       918.60000  2.29960e-08      952034.
       918.70000  2.29960e-08      952034.
       918.80000  2.25658e-08      934225.
       918.90000  2.25658e-08      934225.
       919.00000  2.25658e-08      934225.
       919.10000  2.25658e-08      933999.
       919.20000  2.25658e-08      933774.
       919.30000  2.25658e-08      933548.
       919.40000  2.25658e-08      933097.
       919.50000  2.86550e-08  1.18431e+06
       919.60000  2.86550e-08  1.18374e+06
       919.70000  2.86550e-08  1.18316e+06
       919.80000  2.86550e-08  1.18230e+06
       919.90000  2.86550e-08  1.18173e+06
       920.00000  2.86550e-08  1.18087e+06
       920.10000  2.86550e-08  1.17829e+06
       920.20000  2.86550e-08  1.17600e+06
       920.30000  2.86550e-08  1.17371e+06
       920.40000  2.86550e-08  1.17141e+06
       920.50000  2.66882e-08  1.08888e+06
       920.60000  2.66882e-08  1.08701e+06
       920.70000  2.66882e-08  1.08514e+06
       920.80000  2.66882e-08  1.08354e+06
       920.90000  2.66882e-08  1.08167e+06
       921.00000  2.66882e-08  1.08007e+06
       921.10000  2.66882e-08  1.07847e+06
       921.20000  2.66882e-08  1.07714e+06
       921.30000  2.61757e-08  1.05488e+06
       921.40000  2.61757e-08  1.05357e+06
       921.50000  7.96631e-08  3.20246e+06
       921.60000  7.96631e-08  3.19927e+06
       921.70000  7.96631e-08  3.19608e+06
       921.80000  7.96631e-08  3.19290e+06
       921.90000  7.96631e-08  3.18971e+06
       922.00000  7.96631e-08  3.18732e+06
       922.10000  7.96631e-08  3.18413e+06
       922.20000  7.96631e-08  3.18254e+06
       922.30000  7.96631e-08  3.18015e+06
       922.40000  7.96631e-08  3.17856e+06
       922.50000  5.08748e-08  2.02838e+06
       922.60000  5.08748e-08  2.02787e+06
       922.70000  5.08748e-08  2.02685e+06
       922.80000  5.08748e-08  2.02634e+06
       922.90000  5.08748e-08  2.02583e+06
       923.00000  5.08748e-08  2.02532e+06
       923.10000  5.08748e-08  2.02532e+06
       923.20000  5.08748e-08  2.02482e+06
       923.30000  5.08748e-08  2.02482e+06
       923.40000  5.08748e-08  2.02532e+06
       923.50000  6.26738e-08  2.49505e+06
       923.60000  6.26738e-08  2.49567e+06
       923.70000  6.26738e-08  2.49630e+06
       923.80000  6.14543e-08  2.44895e+06
       923.90000  6.14543e-08  2.44957e+06
       924.00000  6.14543e-08  2.45080e+06
       924.10000  6.14543e-08  2.45080e+06
       924.20000  6.14543e-08  2.45080e+06
       924.30000  6.14543e-08  2.45080e+06
       924.40000  6.14543e-08  2.45080e+06
       924.50000  5.64409e-08  2.25086e+06
       924.60000  5.64409e-08  2.25086e+06
       924.70000  5.64409e-08  2.25143e+06
       924.80000  5.64409e-08  2.25199e+06
       924.90000  5.64409e-08  2.25199e+06
       925.00000  5.64409e-08  2.25256e+06
       925.10000  5.64409e-08  2.25369e+06
       925.20000  5.64409e-08  2.25425e+06
       925.30000  5.64409e-08  2.25482e+06
       925.40000  5.64409e-08  2.25594e+06
       925.50000  6.00762e-08  2.40245e+06
       925.60000  6.00762e-08  2.40365e+06
       925.70000  6.00762e-08  2.40485e+06
       925.80000  6.00762e-08  2.40605e+06
       925.90000  6.00762e-08  2.40725e+06
       926.00000  6.00762e-08  2.40906e+06
       926.10000  6.00762e-08  2.41266e+06
       926.20000  6.00762e-08  2.41687e+06
       926.30000  5.89055e-08  2.37330e+06
       926.40000  5.89055e-08  2.37684e+06
       926.50000  8.12865e-08  3.28479e+06
       926.60000  8.12865e-08  3.28885e+06
       926.70000  8.12865e-08  3.29292e+06
       926.80000  8.12865e-08  3.29698e+06
       926.90000  8.12865e-08  3.30105e+06
       927.00000  8.12865e-08  3.30430e+06
       927.10000  8.12865e-08  3.30755e+06
       927.20000  8.12865e-08  3.31080e+06
       927.30000  8.12865e-08  3.31324e+06
       927.40000  8.12865e-08  3.31568e+06
       927.50000  4.83551e-08  1.97386e+06
       927.60000  4.83551e-08  1.97482e+06
       927.70000  4.83551e-08  1.97627e+06
       927.80000  4.83551e-08  1.97724e+06
       927.90000  4.83551e-08  1.97772e+06
       928.00000  4.83551e-08  1.97821e+06
       928.10000  4.83551e-08  1.97724e+06
       928.20000  4.83551e-08  1.97627e+06
       928.30000  4.83551e-08  1.97482e+06
       928.40000  4.83551e-08  1.97386e+06
       928.50000  4.41268e-08  1.80037e+06
       928.60000  4.41268e-08  1.79949e+06
       928.70000  4.41268e-08  1.79861e+06
       928.80000  4.32732e-08  1.76295e+06
       928.90000  4.32732e-08  1.76208e+06
       929.00000  4.32732e-08  1.76165e+06
       929.10000  4.32732e-08  1.76079e+06
       929.20000  4.32732e-08  1.75992e+06
       929.30000  4.32732e-08  1.75949e+06
       929.40000  4.32732e-08  1.75862e+06
       929.50000  4.87049e-08  1.97888e+06
       929.60000  4.87049e-08  1.97839e+06
       929.70000  4.87049e-08  1.97742e+06
       929.80000  4.87049e-08  1.97693e+06
       929.90000  4.87049e-08  1.97645e+06
       930.00000  4.87049e-08  1.97596e+06
       930.10000  4.87049e-08  1.97596e+06
       930.20000  4.87049e-08  1.97596e+06
       930.30000  4.87049e-08  1.97547e+06
       930.40000  4.87049e-08  1.97547e+06
       930.50000  4.33739e-08  1.75925e+06
       930.60000  4.33739e-08  1.75925e+06
       930.70000  4.33739e-08  1.75881e+06
       930.80000  4.33739e-08  1.75881e+06
       930.90000  4.33739e-08  1.75881e+06
       931.00000  4.33739e-08  1.75881e+06
       931.10000  4.33739e-08  1.75881e+06
       931.20000  4.33739e-08  1.75838e+06
       931.30000  4.25806e-08  1.72622e+06
       931.40000  4.25806e-08  1.72622e+06
       931.50000  3.73120e-08  1.51263e+06
       931.60000  3.73120e-08  1.51263e+06
       931.70000  3.73120e-08  1.51263e+06
       931.80000  3.73120e-08  1.51263e+06
       931.90000  3.73120e-08  1.51263e+06
       932.00000  3.73120e-08  1.51263e+06
       932.10000  3.73120e-08  1.51263e+06
       932.20000  3.73120e-08  1.51263e+06
       932.30000  3.73120e-08  1.51263e+06
       932.40000  3.73120e-08  1.51263e+06
       932.50000  3.94079e-08  1.59760e+06
       932.60000  3.94079e-08  1.59760e+06
       932.70000  3.94079e-08  1.59760e+06
       932.80000  3.94079e-08  1.59799e+06
       932.90000  3.94079e-08  1.59799e+06
       933.00000  3.94079e-08  1.59799e+06
       933.10000  3.94079e-08  1.59799e+06
       933.20000  3.94079e-08  1.59799e+06
       933.30000  3.94079e-08  1.59839e+06
       933.40000  3.94079e-08  1.59839e+06
       933.50000  4.33091e-08  1.75662e+06
       933.60000  4.33091e-08  1.75705e+06
       933.70000  4.33091e-08  1.75705e+06
       933.80000  4.25749e-08  1.72726e+06
       933.90000  4.25749e-08  1.72769e+06
       934.00000  4.25749e-08  1.72769e+06
       934.10000  4.25749e-08  1.72641e+06
       934.20000  4.25749e-08  1.72513e+06
       934.30000  4.25749e-08  1.72386e+06
       934.40000  4.25749e-08  1.72258e+06
       934.50000  3.65797e-08  1.47892e+06
       934.60000  3.65797e-08  1.47819e+06
       934.70000  3.65797e-08  1.47745e+06
       934.80000  3.65797e-08  1.47636e+06
       934.90000  3.65797e-08  1.47563e+06
       935.00000  3.65797e-08  1.47526e+06
       935.10000  3.65797e-08  1.47453e+06
       935.20000  3.65797e-08  1.47380e+06
       935.30000  3.65797e-08  1.47343e+06
       935.40000  3.65797e-08  1.47307e+06
       935.50000  3.51192e-08  1.41390e+06
       935.60000  3.51192e-08  1.41355e+06
       935.70000  3.51192e-08  1.41320e+06
       935.80000  3.51192e-08  1.41285e+06
       935.90000  3.51192e-08  1.41285e+06
       936.00000  3.51192e-08  1.41249e+06
       936.10000  3.51192e-08  1.41355e+06
       936.20000  3.51192e-08  1.41460e+06
       936.30000  3.45417e-08  1.39238e+06
       936.40000  3.45417e-08  1.39341e+06
       936.50000  3.52827e-08  1.42401e+06
       936.60000  3.52827e-08  1.42472e+06
       936.70000  3.52827e-08  1.42542e+06
       936.80000  3.52827e-08  1.42613e+06
       936.90000  3.52827e-08  1.42648e+06
       937.00000  3.52827e-08  1.42719e+06
       937.10000  3.52827e-08  1.42754e+06
       937.20000  3.52827e-08  1.42789e+06
       937.30000  3.52827e-08  1.42789e+06
       937.40000  3.52827e-08  1.42825e+06
       937.50000  3.48509e-08  1.41076e+06
       937.60000  3.48509e-08  1.41076e+06
       937.70000  3.48509e-08  1.41076e+06
       937.80000  3.48509e-08  1.41076e+06
       937.90000  3.48509e-08  1.41041e+06
       938.00000  3.48509e-08  1.41041e+06
       938.10000  3.48509e-08  1.41007e+06
       938.20000  3.48509e-08  1.40937e+06
       938.30000  3.48509e-08  1.40902e+06
       938.40000  3.48509e-08  1.40832e+06
       938.50000  3.54344e-08  1.43155e+06
       938.60000  3.54344e-08  1.43084e+06
       938.70000  3.54344e-08  1.42978e+06
       938.80000  3.48820e-08  1.40679e+06
       938.90000  3.48820e-08  1.40575e+06
       939.00000  3.48820e-08  1.40505e+06
       939.10000  3.48820e-08  1.40400e+06
       939.20000  3.48820e-08  1.40261e+06
       939.30000  3.48820e-08  1.40156e+06
       939.40000  3.48820e-08  1.40017e+06
       939.50000  3.20784e-08  1.28634e+06
       939.60000  3.20784e-08  1.28506e+06
       939.70000  3.20784e-08  1.28378e+06
       939.80000  3.20784e-08  1.28250e+06
       939.90000  3.20784e-08  1.28089e+06
       940.00000  3.20784e-08  1.27929e+06
       940.10000  3.20784e-08  1.27704e+06
       940.20000  3.20784e-08  1.27480e+06
       940.30000  3.20784e-08  1.27287e+06
       940.40000  3.20784e-08  1.27095e+06
       940.50000  3.46087e-08  1.36912e+06
       940.60000  3.46087e-08  1.36739e+06
       940.70000  3.46087e-08  1.36566e+06
       940.80000  3.46087e-08  1.36393e+06
       940.90000  3.46087e-08  1.36220e+06
       941.00000  3.46087e-08  1.36081e+06
       941.10000  3.46087e-08  1.35943e+06
       941.20000  3.46087e-08  1.35839e+06
       941.30000  3.40929e-08  1.33712e+06
       941.40000  3.40929e-08  1.33610e+06
       941.50000  3.92501e-08  1.53703e+06
       941.60000  3.92501e-08  1.53625e+06
       941.70000  3.92501e-08  1.53546e+06
       941.80000  3.92501e-08  1.53468e+06
       941.90000  3.92501e-08  1.53389e+06
       942.00000  3.92501e-08  1.53350e+06
       942.10000  3.92501e-08  1.53468e+06
       942.20000  3.92501e-08  1.53546e+06
       942.30000  3.92501e-08  1.53664e+06
       942.40000  3.92501e-08  1.53743e+06
       942.50000  2.86663e-08  1.12343e+06
       942.60000  2.86663e-08  1.12429e+06
       942.70000  2.86663e-08  1.12487e+06
       942.80000  2.86663e-08  1.12544e+06
       942.90000  2.86663e-08  1.12601e+06
       943.00000  2.86663e-08  1.12659e+06
       943.10000  2.86663e-08  1.12745e+06
       943.20000  2.86663e-08  1.12802e+06
       943.30000  2.86663e-08  1.12859e+06
       943.40000  2.86663e-08  1.12917e+06
       943.50000  2.86758e-08  1.13011e+06
       943.60000  2.86758e-08  1.13069e+06
       943.70000  2.86758e-08  1.13126e+06
       943.80000  2.82384e-08  1.11457e+06
       943.90000  2.82384e-08  1.11514e+06
       944.00000  2.82384e-08  1.11570e+06
       944.10000  2.82384e-08  1.11626e+06
       944.20000  2.82384e-08  1.11683e+06
       944.30000  2.82384e-08  1.11711e+06
       944.40000  2.82384e-08  1.11768e+06
       944.50000  2.61931e-08  1.03725e+06
       944.60000  2.61931e-08  1.03777e+06
       944.70000  2.61931e-08  1.03803e+06
       944.80000  2.61931e-08  1.03856e+06
       944.90000  2.61931e-08  1.03908e+06
       945.00000  2.61931e-08  1.03934e+06
       945.10000  2.61931e-08  1.03987e+06
       945.20000  2.61931e-08  1.04039e+06
       945.30000  2.61931e-08  1.04065e+06
       945.40000  2.61931e-08  1.04118e+06
       945.50000  2.47691e-08      984821.
       945.60000  2.47691e-08      985316.
       945.70000  2.47691e-08      985564.
       945.80000  2.47691e-08      986060.
       945.90000  2.47691e-08      986307.
       946.00000  2.47691e-08      986555.
       946.10000  2.47691e-08      987050.
       946.20000  2.47691e-08      987546.
       946.30000  2.43974e-08      973213.
       946.40000  2.43974e-08      973701.
       946.50000  2.78413e-08  1.11171e+06
       946.60000  2.78413e-08  1.11198e+06
       946.70000  2.78413e-08  1.11254e+06
       946.80000  2.78413e-08  1.11282e+06
       946.90000  2.78413e-08  1.11310e+06
       947.00000  2.78413e-08  1.11365e+06
       947.10000  2.78413e-08  1.11393e+06
       947.20000  2.78413e-08  1.11421e+06
       947.30000  2.78413e-08  1.11449e+06
       947.40000  2.78413e-08  1.11477e+06
       947.50000  3.01298e-08  1.20640e+06
       947.60000  3.01298e-08  1.20670e+06
       947.70000  3.01298e-08  1.20700e+06
       947.80000  3.01298e-08  1.20700e+06
       947.90000  3.01298e-08  1.20730e+06
       948.00000  3.01298e-08  1.20730e+06
       948.10000  3.01298e-08  1.20730e+06
       948.20000  3.01298e-08  1.20730e+06
       948.30000  3.01298e-08  1.20700e+06
       948.40000  3.01298e-08  1.20700e+06
       948.50000  2.54102e-08  1.01768e+06
       948.60000  2.54102e-08  1.01768e+06
       948.70000  2.54102e-08  1.01768e+06
       948.80000  2.50022e-08  1.00109e+06
       948.90000  2.50022e-08  1.00109e+06
       949.00000  2.50022e-08  1.00084e+06
       949.10000  2.50022e-08  1.00084e+06
       949.20000  2.50022e-08  1.00059e+06
       949.30000  2.50022e-08  1.00059e+06
       949.40000  2.50022e-08  1.00034e+06
       949.50000  2.55368e-08  1.02173e+06
       949.60000  2.55368e-08  1.02147e+06
       949.70000  2.55368e-08  1.02122e+06
       949.80000  2.55368e-08  1.02122e+06
       949.90000  2.55368e-08  1.02096e+06
       950.00000  2.55368e-08  1.02071e+06
       950.10000  2.55368e-08  1.02071e+06
       950.20000  2.55368e-08  1.02045e+06
       950.30000  2.55368e-08  1.02020e+06
       950.40000  2.55368e-08  1.02020e+06
       950.50000  2.28938e-08      914378.
       950.60000  2.28938e-08      914149.
       950.70000  2.28938e-08      913920.
       950.80000  2.28938e-08      913920.
       950.90000  2.28938e-08      913691.
       951.00000  2.28938e-08      913462.
       951.10000  2.28938e-08      913233.
       951.20000  2.28938e-08      913004.
       951.30000  2.25275e-08      898398.
       951.40000  2.25275e-08      898172.
       951.50000  2.39362e-08      954098.
       951.60000  2.39362e-08      953858.
       951.70000  2.39362e-08      953619.
       951.80000  2.39362e-08      953379.
       951.90000  2.39362e-08      953140.
       952.00000  2.39362e-08      952901.
       952.10000  2.39362e-08      950986.
       952.20000  2.39362e-08      949071.
       952.30000  2.39362e-08      947395.
       952.40000  2.39362e-08      945720.
       952.50000  1.53250e-08      604418.
       952.60000  1.53250e-08      603346.
       952.70000  1.53250e-08      602426.
       952.80000  1.53250e-08      601507.
       952.90000  1.53250e-08      600587.
       953.00000  1.53250e-08      599821.
       953.10000  1.53250e-08      599055.
       953.20000  1.53250e-08      598288.
       953.30000  1.53250e-08      597675.
       953.40000  1.53250e-08      596909.
       953.50000  1.98973e-08      774205.
       953.60000  1.98973e-08      773608.
       953.70000  1.98973e-08      772812.
       953.80000  1.95670e-08      759394.
       953.90000  1.95670e-08      758807.
       954.00000  1.95670e-08      758415.
       954.10000  1.95670e-08      758220.
       954.20000  1.95670e-08      758024.
       954.30000  1.95670e-08      758024.
       954.40000  1.95670e-08      758024.
       954.50000  1.85916e-08      720053.
       954.60000  1.85916e-08      720053.
       954.70000  1.85916e-08      720053.
       954.80000  1.85916e-08      720053.
       954.90000  1.85916e-08      720239.
       955.00000  1.85916e-08      720239.
       955.10000  1.85916e-08      720424.
       955.20000  1.85916e-08      720424.
       955.30000  1.85916e-08      720610.
       955.40000  1.85916e-08      720796.
       955.50000  2.15418e-08      835393.
       955.60000  2.15418e-08      835608.
       955.70000  2.15418e-08      835824.
       955.80000  2.15418e-08      836254.
       955.90000  2.15418e-08      836470.
       956.00000  2.15418e-08      836901.
       956.10000  2.15418e-08      837331.
       956.20000  2.15418e-08      837547.
       956.30000  2.11902e-08      824298.
       956.40000  2.11902e-08      824934.
       956.50000  1.62856e-08      634323.
       956.60000  1.62856e-08      634649.
       956.70000  1.62856e-08      635138.
       956.80000  1.62856e-08      635463.
       956.90000  1.62856e-08      635952.
       957.00000  1.62856e-08      636440.
       957.10000  1.62856e-08      636929.
       957.20000  1.62856e-08      637418.
       957.30000  1.62856e-08      638069.
       957.40000  1.62856e-08      638558.
       957.50000  2.45780e-08      964441.
       957.60000  2.45780e-08      965424.
       957.70000  2.45780e-08      966407.
       957.80000  2.45780e-08      967390.
       957.90000  2.45780e-08      968374.
       958.00000  2.45780e-08      969357.
       958.10000  2.45780e-08      969357.
       958.20000  2.45780e-08      969111.
       958.30000  2.45780e-08      969111.
       958.40000  2.45780e-08      969111.
       958.50000  2.15050e-08      847941.
       958.60000  2.15050e-08      847726.
       958.70000  2.15050e-08      847726.
       958.80000  2.11259e-08      832783.
       958.90000  2.11259e-08      832572.
       959.00000  2.11259e-08      832572.
       959.10000  2.11259e-08      832360.
       959.20000  2.11259e-08      832360.
       959.30000  2.11259e-08      832149.
       959.40000  2.11259e-08      831938.
       959.50000  1.54623e-08      608907.
       959.60000  1.54623e-08      608752.
       959.70000  1.54623e-08      608752.
       959.80000  1.54623e-08      608598.
       959.90000  1.54623e-08      608443.
       960.00000  1.54623e-08      608288.
       960.10000  1.54623e-08      608134.
       960.20000  1.54623e-08      607979.
       960.30000  1.54623e-08      607824.
       960.40000  1.54623e-08      607670.
       960.50000  1.72118e-08      676251.
       960.60000  1.72118e-08      676079.
       960.70000  1.72118e-08      675907.
       960.80000  1.72118e-08      675734.
       960.90000  1.72118e-08      675562.
       961.00000  1.72118e-08      675390.
       961.10000  1.72118e-08      675218.
       961.20000  1.72118e-08      675046.
       961.30000  1.69127e-08      663148.
       961.40000  1.69127e-08      662979.
       961.50000  1.82522e-08      715302.
       961.60000  1.82522e-08      714937.
       961.70000  1.82522e-08      714755.
       961.80000  1.82522e-08      714572.
       961.90000  1.82522e-08      714390.
       962.00000  1.82522e-08      714207.
       962.10000  1.82522e-08      713842.
       962.20000  1.82522e-08      713659.
       962.30000  1.82522e-08      713477.
       962.40000  1.82522e-08      713112.
       962.50000  1.85546e-08      724742.
       962.60000  1.85546e-08      724557.
       962.70000  1.85546e-08      724186.
       962.80000  1.85546e-08      724000.
       962.90000  1.85546e-08      723629.
       963.00000  1.85546e-08      723443.
       963.10000  1.85546e-08      723258.
       963.20000  1.85546e-08      722887.
       963.30000  1.85546e-08      722701.
       963.40000  1.85546e-08      722330.
       963.50000  1.43638e-08      559038.
       963.60000  1.43638e-08      558751.
       963.70000  1.43638e-08      558607.
       963.80000  1.41029e-08      548181.
       963.90000  1.41029e-08      547898.
       964.00000  1.41029e-08      547758.
       964.10000  1.41029e-08      547475.
       964.20000  1.41029e-08      547052.
       964.30000  1.41029e-08      546770.
       964.40000  1.41029e-08      546629.
       964.50000  1.49695e-08      579918.
       964.60000  1.49695e-08      579618.
       964.70000  1.49695e-08      579469.
       964.80000  1.49695e-08      579169.
       964.90000  1.49695e-08      579020.
       965.00000  1.49695e-08      578720.
       965.10000  1.49695e-08      578570.
       965.20000  1.49695e-08      578421.
       965.30000  1.49695e-08      578271.
       965.40000  1.49695e-08      578271.
       965.50000  1.26651e-08      489127.
       965.60000  1.26651e-08      489000.
       965.70000  1.26651e-08      489000.
       965.80000  1.26651e-08      488873.
       965.90000  1.26651e-08      488873.
       966.00000  1.26651e-08      488873.
       966.10000  1.26651e-08      489000.
       966.20000  1.26651e-08      489127.
       966.30000  1.24309e-08      480330.
       966.40000  1.24309e-08      480454.
       966.50000  1.89941e-08      734313.
       966.60000  1.89941e-08      734503.
       966.70000  1.89941e-08      734693.
       966.80000  1.89941e-08      734883.
       966.90000  1.89941e-08      735073.
       967.00000  1.89941e-08      735263.
       967.10000  1.89941e-08      735453.
       967.20000  1.89941e-08      735643.
       967.30000  1.89941e-08      735833.
       967.40000  1.89941e-08      736023.
       967.50000  1.80215e-08      698335.
       967.60000  1.80215e-08      698515.
       967.70000  1.80215e-08      698695.
       967.80000  1.80215e-08      698695.
       967.90000  1.80215e-08      698875.
       968.00000  1.80215e-08      699056.
       968.10000  1.80215e-08      699056.
       968.20000  1.80215e-08      699236.
       968.30000  1.80215e-08      699236.
       968.40000  1.80215e-08      699236.
       968.50000  1.35813e-08      527090.
       968.60000  1.35813e-08      527090.
       968.70000  1.35813e-08      527090.
       968.80000  1.33296e-08      517456.
       968.90000  1.33296e-08      517456.
       969.00000  1.33296e-08      517456.
       969.10000  1.33296e-08      517456.
       969.20000  1.33296e-08      517456.
       969.30000  1.33296e-08      517456.
       969.40000  1.33296e-08      517456.
       969.50000  1.45853e-08      566200.
       969.60000  1.45853e-08      566200.
       969.70000  1.45853e-08      566200.
       969.80000  1.45853e-08      566200.
       969.90000  1.45853e-08      566200.
       970.00000  1.45853e-08      566200.
       970.10000  1.45853e-08      566345.
       970.20000  1.45853e-08      566491.
       970.30000  1.45853e-08      566491.
       970.40000  1.45853e-08      566637.
       970.50000  1.41597e-08      550103.
       970.60000  1.41597e-08      550244.
       970.70000  1.41597e-08      550244.
       970.80000  1.41597e-08      550244.
       970.90000  1.41597e-08      550244.
       971.00000  1.41597e-08      550244.
       971.10000  1.41597e-08      550244.
       971.20000  1.41597e-08      550103.
       971.30000  1.38979e-08      539932.
       971.40000  1.38979e-08      539793.
       971.50000  1.42500e-08      553470.
       971.60000  1.42500e-08      553327.
       971.70000  1.42500e-08      553185.
       971.80000  1.42500e-08      553042.
       971.90000  1.42500e-08      552900.
       972.00000  1.42500e-08      552615.
       972.10000  1.42500e-08      552045.
       972.20000  1.42500e-08      551475.
       972.30000  1.42500e-08      551047.
       972.40000  1.42500e-08      550477.
       972.50000  1.22818e-08      474078.
       972.60000  1.22818e-08      473587.
       972.70000  1.22818e-08      473219.
       972.80000  1.22818e-08      472850.
       972.90000  1.22818e-08      472482.
       973.00000  1.22818e-08      472236.
       973.10000  1.22818e-08      471868.
       973.20000  1.22818e-08      471622.
       973.30000  1.22818e-08      471376.
       973.40000  1.22818e-08      471131.
       973.50000  1.14901e-08      440531.
       973.60000  1.14901e-08      440302.
       973.70000  1.14901e-08      440187.
       973.80000  1.12663e-08      431387.
       973.90000  1.12663e-08      431274.
       974.00000  1.12663e-08      431162.
       974.10000  1.12663e-08      431274.
       974.20000  1.12663e-08      431500.
       974.30000  1.12663e-08      431612.
       974.40000  1.12663e-08      431725.
       974.50000  1.02688e-08      393602.
       974.60000  1.02688e-08      393705.
       974.70000  1.02688e-08      393808.
       974.80000  1.02688e-08      393910.
       974.90000  1.02688e-08      393910.
       975.00000  1.02688e-08      394013.
       975.10000  1.02688e-08      394116.
       975.20000  1.02688e-08      394116.
       975.30000  1.02688e-08      394218.
       975.40000  1.02688e-08      394218.
       975.50000  1.46952e-08      564150.
       975.60000  1.46952e-08      564297.
       975.70000  1.46952e-08      564297.
       975.80000  1.46952e-08      564297.
       975.90000  1.46952e-08      564297.
       976.00000  1.46952e-08      564297.
       976.10000  1.46952e-08      564150.
       976.20000  1.46952e-08      564003.
       976.30000  1.44142e-08      553073.
       976.40000  1.44142e-08      552929.
       976.50000  1.11543e-08      427880.
       976.60000  1.11543e-08      427768.
       976.70000  1.11543e-08      427657.
       976.80000  1.11543e-08      427545.
       976.90000  1.11543e-08      427545.
       977.00000  1.11543e-08      427434.
       977.10000  1.11543e-08      427322.
       977.20000  1.11543e-08      427210.
       977.30000  1.11543e-08      427210.
       977.40000  1.11543e-08      427099.
       977.50000  9.12356e-09      349250.
       977.60000  9.12356e-09      349250.
       977.70000  9.12356e-09      349159.
       977.80000  9.12356e-09      349067.
       977.90000  9.12356e-09      349067.
       978.00000  9.12356e-09      348976.
       978.10000  9.12356e-09      348976.
       978.20000  9.12356e-09      348885.
       978.30000  9.12356e-09      348885.
       978.40000  9.12356e-09      348794.
       978.50000  9.06472e-09      346454.
       978.60000  9.06472e-09      346454.
       978.70000  9.06472e-09      346454.
       978.80000  8.88828e-09      339621.
       978.90000  8.88828e-09      339621.
       979.00000  8.88828e-09      339532.
       979.10000  8.88828e-09      339532.
       979.20000  8.88828e-09      339443.
       979.30000  8.88828e-09      339443.
       979.40000  8.88828e-09      339443.
       979.50000  1.24528e-08      475448.
       979.60000  1.24528e-08      475448.
       979.70000  1.24528e-08      475448.
       979.80000  1.24528e-08      475323.
       979.90000  1.24528e-08      475323.
       980.00000  1.24528e-08      475323.
       980.10000  1.24528e-08      475572.
       980.20000  1.24528e-08      475697.
       980.30000  1.24528e-08      475946.
       980.40000  1.24528e-08      476070.
       980.50000  9.25558e-09      354026.
       980.60000  9.25558e-09      354119.
       980.70000  9.25558e-09      354211.
       980.80000  9.25558e-09      354304.
       980.90000  9.25558e-09      354396.
       981.00000  9.25558e-09      354489.
       981.10000  9.25558e-09      354581.
       981.20000  9.25558e-09      354674.
       981.30000  9.06829e-09      347497.
       981.40000  9.06829e-09      347588.
       981.50000  8.85001e-09      339221.
       981.60000  8.85001e-09      339221.
       981.70000  8.85001e-09      339309.
       981.80000  8.85001e-09      339309.
       981.90000  8.85001e-09      339309.
       982.00000  8.85001e-09      339221.
       982.10000  8.85001e-09      339132.
       982.20000  8.85001e-09      338956.
       982.30000  8.85001e-09      338867.
       982.40000  8.85001e-09      338690.
       982.50000  8.50507e-09      325404.
       982.60000  8.50507e-09      325234.
       982.70000  8.50507e-09      325149.
       982.80000  8.50507e-09      325064.
       982.90000  8.50507e-09      324894.
       983.00000  8.50507e-09      324809.
       983.10000  8.50507e-09      324724.
       983.20000  8.50507e-09      324639.
       983.30000  8.50507e-09      324554.
       983.40000  8.50507e-09      324383.
       983.50000  1.13881e-08      434230.
       983.60000  1.13881e-08      434116.
       983.70000  1.13881e-08      434002.
       983.80000  1.11635e-08      425331.
       983.90000  1.11635e-08      425219.
       984.00000  1.11635e-08      425107.
       984.10000  1.11635e-08      425107.
       984.20000  1.11635e-08      424996.
       984.30000  1.11635e-08      424884.
       984.40000  1.11635e-08      424772.
       984.50000  7.95127e-09      302546.
       984.60000  7.95127e-09      302466.
       984.70000  7.95127e-09      302387.
       984.80000  7.95127e-09      302387.
       984.90000  7.95127e-09      302307.
       985.00000  7.95127e-09      302228.
       985.10000  7.95127e-09      302228.
       985.20000  7.95127e-09      302148.
       985.30000  7.95127e-09      302148.
       985.40000  7.95127e-09      302148.
       985.50000  8.35380e-09      317361.
       985.60000  8.35380e-09      317361.
       985.70000  8.35380e-09      317361.
       985.80000  8.35380e-09      317277.
       985.90000  8.35380e-09      317277.
       986.00000  8.35380e-09      317277.
       986.10000  8.35380e-09      317194.
       986.20000  8.35380e-09      317194.
       986.30000  8.18916e-09      310942.
       986.40000  8.18916e-09      310860.
       986.50000  7.60370e-09      288560.
       986.60000  7.60370e-09      288560.
       986.70000  7.60370e-09      288484.
       986.80000  7.60370e-09      288484.
       986.90000  7.60370e-09      288408.
       987.00000  7.60370e-09      288332.
       987.10000  7.60370e-09      288256.
       987.20000  7.60370e-09      288256.
       987.30000  7.60370e-09      288180.
       987.40000  7.60370e-09      288104.
       987.50000  6.80513e-09      257778.
       987.60000  6.80513e-09      257710.
       987.70000  6.80513e-09      257642.
       987.80000  6.80513e-09      257574.
       987.90000  6.80513e-09      257506.
       988.00000  6.80513e-09      257438.
       988.10000  6.80513e-09      257234.
       988.20000  6.80513e-09      257098.
       988.30000  6.80513e-09      256894.
       988.40000  6.80513e-09      256758.
       988.50000  7.23635e-09      272883.
       988.60000  7.23635e-09      272738.
       988.70000  7.23635e-09      272593.
       988.80000  7.09536e-09      267140.
       988.90000  7.09536e-09      266998.
       989.00000  7.09536e-09      266927.
       989.10000  7.09536e-09      266856.
       989.20000  7.09536e-09      266714.
       989.30000  7.09536e-09      266644.
       989.40000  7.09536e-09      266573.
       989.50000  8.03125e-09      301654.
       989.60000  8.03125e-09      301574.
       989.70000  8.03125e-09      301574.
       989.80000  8.03125e-09      301493.
       989.90000  8.03125e-09      301493.
       990.00000  8.03125e-09      301493.
       990.10000  8.03125e-09      301413.
       990.20000  8.03125e-09      301413.
       990.30000  8.03125e-09      301493.
       990.40000  8.03125e-09      301493.
       990.50000  6.69318e-09      251262.
       990.60000  6.69318e-09      251329.
       990.70000  6.69318e-09      251329.
       990.80000  6.69318e-09      251396.
       990.90000  6.69318e-09      251463.
       991.00000  6.69318e-09      251530.
       991.10000  6.69318e-09      251596.
       991.20000  6.69318e-09      251663.
       991.30000  6.56914e-09      247066.
       991.40000  6.56914e-09      247197.
       991.50000  6.26976e-09      235994.
       991.60000  6.26976e-09      236119.
       991.70000  6.26976e-09      236245.
       991.80000  6.26976e-09      236370.
       991.90000  6.26976e-09      236495.
       992.00000  6.26976e-09      236621.
       992.10000  6.26976e-09      236683.
       992.20000  6.26976e-09      236683.
       992.30000  6.26976e-09      236683.
       992.40000  6.26976e-09      236683.
       992.50000  5.64866e-09      213293.
       992.60000  5.64866e-09      213293.
       992.70000  5.64866e-09      213293.
       992.80000  5.64866e-09      213293.
       992.90000  5.64866e-09      213293.
       993.00000  5.64866e-09      213350.
       993.10000  5.64866e-09      213350.
       993.20000  5.64866e-09      213350.
       993.30000  5.64866e-09      213350.
       993.40000  5.64866e-09      213350.
       993.50000  6.34071e-09      239489.
       993.60000  6.34071e-09      239489.
       993.70000  6.34071e-09      239489.
       993.80000  6.23128e-09      235356.
       993.90000  6.23128e-09      235293.
       994.00000  6.23128e-09      235293.
       994.10000  6.23128e-09      235293.
       994.20000  6.23128e-09      235231.
       994.30000  6.23128e-09      235231.
       994.40000  6.23128e-09      235169.
       994.50000  5.44000e-09      205306.
       994.60000  5.44000e-09      205251.
       994.70000  5.44000e-09      205251.
       994.80000  5.44000e-09      205197.
       994.90000  5.44000e-09      205197.
       995.00000  5.44000e-09      205143.
       995.10000  5.44000e-09      205143.
       995.20000  5.44000e-09      205143.
       995.30000  5.44000e-09      205088.
       995.40000  5.44000e-09      205088.
       995.50000  4.82990e-09      182087.
       995.60000  4.82990e-09      182039.
       995.70000  4.82990e-09      182039.
       995.80000  4.82990e-09      182039.
       995.90000  4.82990e-09      182039.
       996.00000  4.82990e-09      181991.
       996.10000  4.82990e-09      182039.
       996.20000  4.82990e-09      182039.
       996.30000  4.74895e-09      178988.
       996.40000  4.74895e-09      178988.
       996.50000  4.72399e-09      178047.
       996.60000  4.72399e-09      178047.
       996.70000  4.72399e-09      178047.
       996.80000  4.72399e-09      178047.
       996.90000  4.72399e-09      178047.
       997.00000  4.72399e-09      178047.
       997.10000  4.72399e-09      178047.
       997.20000  4.72399e-09      178047.
       997.30000  4.72399e-09      178047.
       997.40000  4.72399e-09      178047.
       997.50000  4.48356e-09      168985.
       997.60000  4.48356e-09      168985.
       997.70000  4.48356e-09      168985.
       997.80000  4.48356e-09      168985.
       997.90000  4.48356e-09      168985.
       998.00000  4.48356e-09      168941.
       998.10000  4.48356e-09      168941.
       998.20000  4.48356e-09      168896.
       998.30000  4.48356e-09      168896.
       998.40000  4.48356e-09      168851.
       998.50000  4.55065e-09      171332.
       998.60000  4.55065e-09      171332.
       998.70000  4.55065e-09      171286.
       998.80000  4.48129e-09      168676.
       998.90000  4.48129e-09      168676.
       999.00000  4.48129e-09      168631.
       999.10000  4.48129e-09      168631.
       999.20000  4.48129e-09      168586.
       999.30000  4.48129e-09      168586.
       999.40000  4.48129e-09      168586.
       999.50000  4.40819e-09      165792.
       999.60000  4.40819e-09      165792.
       999.70000  4.40819e-09      165792.
       999.80000  4.40819e-09      165792.
       999.90000  4.40819e-09      165792.
       1000.0000  4.40819e-09      165748.
       1000.1000  4.40819e-09      165748.
       1000.2000  4.40819e-09      165748.
       1000.3000  4.40819e-09      165748.
       1000.4000  4.40819e-09      165748.
       1000.5000  4.31493e-09      162241.
       1000.6000  4.31493e-09      162241.
       1000.7000  4.31493e-09      162241.
       1000.8000  4.31493e-09      162241.
       1000.9000  4.31493e-09      162241.
       1001.0000  4.31493e-09      162241.
       1001.1000  4.31493e-09      162241.
       1001.2000  4.31493e-09      162284.
       1001.3000  4.25124e-09      159889.
       1001.4000  4.25124e-09      159889.
       1001.5000  4.16303e-09      156572.
       1001.6000  4.16303e-09      156572.
       1001.7000  4.16303e-09      156613.
       1001.8000  4.16303e-09      156613.
       1001.9000  4.16303e-09      156613.
       1002.0000  4.16303e-09      156655.
       1002.1000  4.16303e-09      156405.
       1002.2000  4.16303e-09      156155.
       1002.3000  4.16303e-09      155947.
       1002.4000  4.16303e-09      155697.
       1002.5000  3.78200e-09      141258.
       1002.6000  3.78200e-09      141031.
       1002.7000  3.78200e-09      140842.
       1002.8000  3.78200e-09      140652.
       1002.9000  3.78200e-09      140463.
       1003.0000  3.78200e-09      140274.
       1003.1000  3.78200e-09      140085.
       1003.2000  3.78200e-09      139896.
       1003.3000  3.78200e-09      139745.
       1003.4000  3.78200e-09      139556.
       1003.5000  3.24896e-09      119757.
       1003.6000  3.24896e-09      119627.
       1003.7000  3.24896e-09      119464.
       1003.8000  3.20471e-09      117709.
       1003.9000  3.20471e-09      117581.
       1004.0000  3.20471e-09      117453.
       1004.1000  3.20471e-09      117260.
       1004.2000  3.20471e-09      117036.
       1004.3000  3.20471e-09      116876.
       1004.4000  3.20471e-09      116683.
       1004.5000  3.89433e-09      141598.
       1004.6000  3.89433e-09      141403.
       1004.7000  3.89433e-09      141247.
       1004.8000  3.89433e-09      141092.
       1004.9000  3.89433e-09      140975.
       1005.0000  3.89433e-09      140858.
       1005.1000  3.89433e-09      140741.
       1005.2000  3.89433e-09      140663.
       1005.3000  3.89433e-09      140585.
       1005.4000  3.89433e-09      140546.
       1005.5000  3.97023e-09      143246.
       1005.6000  3.97023e-09      143206.
       1005.7000  3.97023e-09      143206.
       1005.8000  3.97023e-09      143246.
       1005.9000  3.97023e-09      143246.
       1006.0000  3.97023e-09      143286.
       1006.1000  3.97023e-09      143365.
       1006.2000  3.97023e-09      143445.
       1006.3000  3.91973e-09      141698.
       1006.4000  3.91973e-09      141816.
       1006.5000  3.39501e-09      122933.
       1006.6000  3.39501e-09      123069.
       1006.7000  3.39501e-09      123205.
       1006.8000  3.39501e-09      123341.
       1006.9000  3.39501e-09      123511.
       1007.0000  3.39501e-09      123680.
       1007.1000  3.39501e-09      123884.
       1007.2000  3.39501e-09      124088.
       1007.3000  3.39501e-09      124291.
       1007.4000  3.39501e-09      124529.
       1007.5000  3.76287e-09      138285.
       1007.6000  3.76287e-09      138586.
       1007.7000  3.76287e-09      138887.
       1007.8000  3.76287e-09      139188.
       1007.9000  3.76287e-09      139527.
       1008.0000  3.76287e-09      139866.
       1008.1000  3.76287e-09      139903.
       1008.2000  3.76287e-09      139903.
       1008.3000  3.76287e-09      139903.
       1008.4000  3.76287e-09      139903.
       1008.5000  3.63903e-09      135299.
       1008.6000  3.63903e-09      135299.
       1008.7000  3.63903e-09      135299.
       1008.8000  3.59644e-09      133716.
       1008.9000  3.59644e-09      133716.
       1009.0000  3.59644e-09      133680.
       1009.1000  3.59644e-09      133680.
       1009.2000  3.59644e-09      133680.
       1009.3000  3.59644e-09      133680.
       1009.4000  3.59644e-09      133644.
       1009.5000  3.48455e-09      129486.
       1009.6000  3.48455e-09      129486.
       1009.7000  3.48455e-09      129451.
       1009.8000  3.48455e-09      129451.
       1009.9000  3.48455e-09      129416.
       1010.0000  3.48455e-09      129416.
       1010.1000  3.48455e-09      129381.
       1010.2000  3.48455e-09      129347.
       1010.3000  3.48455e-09      129312.
       1010.4000  3.48455e-09      129277.
       1010.5000  3.16384e-09      117347.
       1010.6000  3.16384e-09      117315.
       1010.7000  3.16384e-09      117283.
       1010.8000  3.16384e-09      117252.
       1010.9000  3.16384e-09      117220.
       1011.0000  3.16384e-09      117188.
       1011.1000  3.16384e-09      117188.
       1011.2000  3.16384e-09      117157.
       1011.3000  3.12893e-09      115833.
       1011.4000  3.12893e-09      115802.
       1011.5000  3.36201e-09      124394.
       1011.6000  3.36201e-09      124361.
       1011.7000  3.36201e-09      124327.
       1011.8000  3.36201e-09      124294.
       1011.9000  3.36201e-09      124260.
       1012.0000  3.36201e-09      124226.
       1012.1000  3.36201e-09      124193.
       1012.2000  3.36201e-09      124159.
       1012.3000  3.36201e-09      124125.
       1012.4000  3.36201e-09      124092.
       1012.5000  3.44402e-09      127084.
       1012.6000  3.44402e-09      127050.
       1012.7000  3.44402e-09      127015.
       1012.8000  3.44402e-09      126981.
       1012.9000  3.44402e-09      126981.
       1013.0000  3.44402e-09      126946.
       1013.1000  3.44402e-09      126912.
       1013.2000  3.44402e-09      126878.
       1013.3000  3.44402e-09      126843.
       1013.4000  3.44402e-09      126809.
       1013.5000  3.02808e-09      111464.
       1013.6000  3.02808e-09      111433.
       1013.7000  3.02808e-09      111403.
       1013.8000  2.99694e-09      110227.
       1013.9000  2.99694e-09      110197.
       1014.0000  2.99694e-09      110167.
       1014.1000  2.99694e-09      110108.
       1014.2000  2.99694e-09      110048.
       1014.3000  2.99694e-09      109988.
       1014.4000  2.99694e-09      109928.
       1014.5000  2.90016e-09      106349.
       1014.6000  2.90016e-09      106291.
       1014.7000  2.90016e-09      106233.
       1014.8000  2.90016e-09      106204.
       1014.9000  2.90016e-09      106146.
       1015.0000  2.90016e-09      106117.
       1015.1000  2.90016e-09      106059.
       1015.2000  2.90016e-09      106030.
       1015.3000  2.90016e-09      106001.
       1015.4000  2.90016e-09      105943.
       1015.5000  2.51698e-09      91920.2
       1015.6000  2.51698e-09      91895.0
       1015.7000  2.51698e-09      91869.9
       1015.8000  2.51698e-09      91844.7
       1015.9000  2.51698e-09      91819.5
       1016.0000  2.51698e-09      91794.4
       1016.1000  2.51698e-09      91794.4
       1016.2000  2.51698e-09      91794.4
       1016.3000  2.49307e-09      90922.1
       1016.4000  2.49307e-09      90897.1
       1016.5000  1.88988e-09      68905.1
       1016.6000  1.88988e-09      68905.1
       1016.7000  1.88988e-09      68905.1
       1016.8000  1.88988e-09      68886.2
       1016.9000  1.88988e-09      68886.2
       1017.0000  1.88988e-09      68867.3
       1017.1000  1.88988e-09      68867.3
       1017.2000  1.88988e-09      68848.4
       1017.3000  1.88988e-09      68848.4
       1017.4000  1.88988e-09      68829.5
       1017.5000  1.91388e-09      69703.4
       1017.6000  1.91388e-09      69684.2
       1017.7000  1.91388e-09      69665.1
       1017.8000  1.91388e-09      69645.9
       1017.9000  1.91388e-09      69626.8
       1018.0000  1.91388e-09      69626.8
       1018.1000  1.91388e-09      69588.5
       1018.2000  1.91388e-09      69550.2
       1018.3000  1.91388e-09      69512.0
       1018.4000  1.91388e-09      69473.7
       1018.5000  1.70354e-09      61821.6
       1018.6000  1.70354e-09      61787.6
       1018.7000  1.70354e-09      61770.5
       1018.8000  1.68795e-09      61171.1
       1018.9000  1.68795e-09      61154.3
       1019.0000  1.68795e-09      61120.5
       1019.1000  1.68795e-09      61103.6
       1019.2000  1.68795e-09      61086.7
       1019.3000  1.68795e-09      61069.9
       1019.4000  1.68795e-09      61036.1
       1019.5000  1.46993e-09      53138.0
       1019.6000  1.46993e-09      53123.3
       1019.7000  1.46993e-09      53108.6
       1019.8000  1.46993e-09      53108.6
       1019.9000  1.46993e-09      53093.9
       1020.0000  1.46993e-09      53079.2
       1020.1000  1.46993e-09      53064.5
       1020.2000  1.46993e-09      53049.8
       1020.3000  1.46993e-09      53049.8
       1020.4000  1.46993e-09      53035.1
       1020.5000  1.05295e-09      37990.4
       1020.6000  1.05295e-09      37979.9
       1020.7000  1.05295e-09      37979.9
       1020.8000  1.05295e-09      37969.4
       1020.9000  1.05295e-09      37969.4
       1021.0000  1.05295e-09      37969.4
       1021.1000  1.05295e-09      37969.4
       1021.2000  1.05295e-09      37969.4
       1021.3000  1.04513e-09      37687.3
       1021.4000  1.04513e-09      37687.3
       1021.5000  8.97052e-10      32347.7
       1021.6000  8.97052e-10      32347.7
       1021.7000  8.97052e-10      32347.7
       1021.8000  8.97052e-10      32356.7
       1021.9000  8.97052e-10      32356.7
       1022.0000  8.97052e-10      32365.6
       1022.1000  8.97052e-10      32365.6
       1022.2000  8.97052e-10      32374.6
       1022.3000  8.97052e-10      32383.6
       1022.4000  8.97052e-10      32383.6
       1022.5000  7.67108e-10      27700.3
       1022.6000  7.67108e-10      27708.0
       1022.7000  7.67108e-10      27715.6
       1022.8000  7.67108e-10      27723.3
       1022.9000  7.67108e-10      27731.0
       1023.0000  7.67108e-10      27738.6
       1023.1000  7.67108e-10      27754.0
       1023.2000  7.67108e-10      27761.7
       1023.3000  7.67108e-10      27769.3
       1023.4000  7.67108e-10      27784.7
       1023.5000  6.18442e-10      22406.2
       1023.6000  6.18442e-10      22418.5
       1023.7000  6.18442e-10      22424.7
       1023.8000  6.14562e-10      22296.3
       1023.9000  6.14562e-10      22308.6
       1024.0000  6.14562e-10      22320.9
       1024.1000  6.14562e-10      22320.9
       1024.2000  6.14562e-10      22314.7
       1024.3000  6.14562e-10      22314.7
       1024.4000  6.14562e-10      22314.7
       1024.5000  4.97939e-10      18080.2
       1024.6000  4.97939e-10      18075.2
       1024.7000  4.97939e-10      18075.2
       1024.8000  4.97939e-10      18075.2
       1024.9000  4.97939e-10      18070.2
       1025.0000  4.97939e-10      18070.2
       1025.1000  4.97939e-10      18070.2
       1025.2000  4.97939e-10      18065.2
       1025.3000  4.97939e-10      18065.2
       1025.4000  4.97939e-10      18065.2
       1025.5000  3.82165e-10      13861.1
       1025.6000  3.82165e-10      13861.1
       1025.7000  3.82165e-10      13857.3
       1025.8000  3.82165e-10      13857.3
       1025.9000  3.82165e-10      13853.5
       1026.0000  3.82165e-10      13853.5
       1026.1000  3.82165e-10      13853.5
       1026.2000  3.82165e-10      13849.7
       1026.3000  3.79782e-10      13763.3
       1026.4000  3.79782e-10      13759.5
       1026.5000  3.13506e-10      11358.3
       1026.6000  3.13506e-10      11355.2
       1026.7000  3.13506e-10      11352.1
       1026.8000  3.13506e-10      11352.1
       1026.9000  3.13506e-10      11348.9
       1027.0000  3.13506e-10      11348.9
       1027.1000  3.13506e-10      11345.8
       1027.2000  3.13506e-10      11342.6
       1027.3000  3.13506e-10      11342.6
       1027.4000  3.13506e-10      11339.5
       1027.5000  2.88121e-10      10418.5
       1027.6000  2.88121e-10      10418.5
       1027.7000  2.88121e-10      10415.6
       1027.8000  2.88121e-10      10412.7
       1027.9000  2.88121e-10      10409.8
       1028.0000  2.88121e-10      10406.9
       1028.1000  2.88121e-10      10406.9
       1028.2000  2.88121e-10      10404.1
       1028.3000  2.88121e-10      10401.2
       1028.4000  2.88121e-10      10398.3
       1028.5000  2.01955e-10      7286.54
       1028.6000  2.01955e-10      7284.52
       1028.7000  2.01955e-10      7282.50
       1028.8000  2.00223e-10      7218.05
       1028.9000  2.00223e-10      7216.05
       1029.0000  2.00223e-10      7214.04
       1029.1000  2.00223e-10      7212.04
       1029.2000  2.00223e-10      7210.04
       1029.3000  2.00223e-10      7208.04
       1029.4000  2.00223e-10      7206.04
       1029.5000  1.56054e-10      5614.83
       1029.6000  1.56054e-10      5613.27
       1029.7000  1.56054e-10      5611.71
       1029.8000  1.56054e-10      5610.15
       1029.9000  1.56054e-10      5608.59
       1030.0000  1.56054e-10      5605.47
       1030.1000  1.56054e-10      5607.03
       1030.2000  1.56054e-10      5607.03
       1030.3000  1.56054e-10      5607.03
       1030.4000  1.56054e-10      5607.03
       1030.5000  1.17666e-10      4227.73
       1030.6000  1.17666e-10      4227.73
       1030.7000  1.17666e-10      4226.55
       1030.8000  1.17666e-10      4226.55
       1030.9000  1.17666e-10      4226.55
       1031.0000  1.17666e-10      4225.37
       1031.1000  1.17666e-10      4225.37
       1031.2000  1.17666e-10      4224.20
       1031.3000  1.16065e-10      4166.72
       1031.4000  1.16065e-10      4165.56
       1031.5000  9.11500e-11      3270.46
       1031.6000  9.11500e-11      3269.55
       1031.7000  9.11500e-11      3268.64
       1031.8000  9.11500e-11      3267.73
       1031.9000  9.11500e-11      3266.81
       1032.0000  9.11500e-11      3265.90
       1032.1000  9.11500e-11      3263.17
       1032.2000  9.11500e-11      3259.52
       1032.3000  9.11500e-11      3256.79
       1032.4000  9.11500e-11      3254.97
       1032.5000  7.63721e-11      2724.96
       1032.6000  7.63721e-11      2722.66
       1032.7000  7.63721e-11      2721.14
       1032.8000  7.63721e-11      2718.85
       1032.9000  7.63721e-11      2717.32
       1033.0000  7.63721e-11      2715.79
       1033.1000  7.63721e-11      2714.26
       1033.2000  7.63721e-11      2713.50
       1033.3000  7.63721e-11      2711.97
       1033.4000  7.63721e-11      2711.21
       1033.5000  6.48182e-11      2299.75
       1033.6000  6.48182e-11      2299.10
       1033.7000  6.48182e-11      2298.45
       1033.8000  6.35844e-11      2254.07
       1033.9000  6.35844e-11      2254.07
       1034.0000  6.35844e-11      2253.43
       1034.1000  6.35844e-11      2253.43
       1034.2000  6.35844e-11      2252.79
       1034.3000  6.35844e-11      2252.79
       1034.4000  6.35844e-11      2252.79
       1034.5000  5.01868e-11      1778.12
       1034.6000  5.01868e-11      1778.62
       1034.7000  5.01868e-11      1778.62
       1034.8000  5.01868e-11      1779.12
       1034.9000  5.01868e-11      1779.12
       1035.0000  5.01868e-11      1779.62
       1035.1000  5.01868e-11      1780.12
       1035.2000  5.01868e-11      1780.63
       1035.3000  5.01868e-11      1781.63
       1035.4000  5.01868e-11      1782.13
       1035.5000  4.23225e-11      1503.72
       1035.6000  4.23225e-11      1504.56
       1035.7000  4.23225e-11      1504.99
       1035.8000  4.23225e-11      1505.83
       1035.9000  4.23225e-11      1507.10
       1036.0000  4.23225e-11      1507.95
       1036.1000  4.23225e-11      1507.10
       1036.2000  4.23225e-11      1506.26
       1036.3000  4.13342e-11      1470.26
       1036.4000  4.13342e-11      1469.43
       1036.5000  3.03342e-11      1077.77
       1036.6000  3.03342e-11      1077.17
       1036.7000  3.03342e-11      1076.86
       1036.8000  3.03342e-11      1076.26
       1036.9000  3.03342e-11      1075.65
       1037.0000  3.03342e-11      1075.35
       1037.1000  3.03342e-11      1075.04
       1037.2000  3.03342e-11      1074.44
       1037.3000  3.03342e-11      1074.13
       1037.4000  3.03342e-11      1073.83
       1037.5000  2.29648e-11      812.723
       1037.6000  2.29648e-11      812.493
       1037.7000  2.29648e-11      812.263
       1037.8000  2.29648e-11      812.034
       1037.9000  2.29648e-11      811.804
       1038.0000  2.29648e-11      811.574
       1038.1000  2.29648e-11      811.574
       1038.2000  2.29648e-11      811.574
       1038.3000  2.29648e-11      811.804
       1038.4000  2.29648e-11      811.804
       1038.5000  1.85907e-11      657.183
       1038.6000  1.85907e-11      657.183
       1038.7000  1.85907e-11      657.183
       1038.8000  1.81070e-11      640.083
       1038.9000  1.81070e-11      640.083
       1039.0000  1.81070e-11      640.083
       1039.1000  1.81070e-11      640.083
       1039.2000  1.81070e-11      640.083
       1039.3000  1.81070e-11      640.083
       1039.4000  1.81070e-11      640.083
       1039.5000  1.35155e-11      477.773
       1039.6000  1.35155e-11      477.773
       1039.7000  1.35155e-11      477.773
       1039.8000  1.35155e-11      477.773
       1039.9000  1.35155e-11      477.773
       1040.0000  1.35155e-11      477.773
       1040.1000  1.35155e-11      477.773
       1040.2000  1.35155e-11      477.773
       1040.3000  1.35155e-11      477.773
       1040.4000  1.35155e-11      477.773
       1040.5000  1.34080e-11      473.973
       1040.6000  1.34080e-11      473.973
       1040.7000  1.34080e-11      473.973
       1040.8000  1.34080e-11      473.973
       1040.9000  1.34080e-11      473.973
       1041.0000  1.34080e-11      473.973
       1041.1000  1.34080e-11      473.973
       1041.2000  1.34080e-11      473.973
       1041.3000  1.30240e-11      460.398
       1041.4000  1.30240e-11      460.398
       1041.5000  1.03755e-11      366.773
       1041.6000  1.03755e-11      366.773
       1041.7000  1.03755e-11      366.773
       1041.8000  1.03755e-11      366.669
       1041.9000  1.03755e-11      366.669
       1042.0000  1.03755e-11      366.669
       1042.1000  1.03755e-11      366.773
       1042.2000  1.03755e-11      366.773
       1042.3000  1.03755e-11      366.876
       1042.4000  1.03755e-11      366.876
       1042.5000  8.54984e-12      302.322
       1042.6000  8.54984e-12      302.322
       1042.7000  8.54984e-12      302.322
       1042.8000  8.54984e-12      302.237
       1042.9000  8.54984e-12      302.237
       1043.0000  8.54984e-12      302.237
       1043.1000  8.54984e-12      302.151
       1043.2000  8.54984e-12      302.066
       1043.3000  8.54984e-12      302.066
       1043.4000  8.54984e-12      301.980
       1043.5000  6.13444e-12      216.607
       1043.6000  6.13444e-12      216.546
       1043.7000  6.13444e-12      216.484
       1043.8000  5.95896e-12      210.172
       1043.9000  5.95896e-12      210.113
       1044.0000  5.95896e-12      209.994
       1044.1000  5.95896e-12      209.755
       1044.2000  5.95896e-12      209.457
       1044.3000  5.95896e-12      209.219
       1044.4000  5.95896e-12      208.981
       1044.5000  5.57884e-12      195.427
       1044.6000  5.57884e-12      195.259
       1044.7000  5.57884e-12      195.036
       1044.8000  5.57884e-12      194.869
       1044.9000  5.57884e-12      194.702
       1045.0000  5.57884e-12      194.534
       1045.1000  5.57884e-12      194.423
       1045.2000  5.57884e-12      194.255
       1045.3000  5.57884e-12      194.144
       1045.4000  5.57884e-12      194.032
       1045.5000  4.42391e-12      153.819
       1045.6000  4.42391e-12      153.731
       1045.7000  4.42391e-12      153.687
       1045.8000  4.42391e-12      153.642
       1045.9000  4.42391e-12      153.598
       1046.0000  4.42391e-12      153.554
       1046.1000  4.42391e-12      153.554
       1046.2000  4.42391e-12      153.510
       1046.3000  4.29833e-12      149.152
       1046.4000  4.29833e-12      149.152
       1046.5000  3.22781e-12      112.037
       1046.6000  3.22781e-12      112.037
       1046.7000  3.22781e-12      112.069
       1046.8000  3.22781e-12      112.102
       1046.9000  3.22781e-12      112.134
       1047.0000  3.22781e-12      112.199
       1047.1000  3.22781e-12      112.231
       1047.2000  3.22781e-12      112.295
       1047.3000  3.22781e-12      112.360
       1047.4000  3.22781e-12      112.424
       1047.5000  2.86714e-12      99.9483
       1047.6000  2.86714e-12      100.006
       1047.7000  2.86714e-12      100.092
       1047.8000  2.86714e-12      100.178
       1047.9000  2.86714e-12      100.264
       1048.0000  2.86714e-12      100.378
       1048.1000  2.86714e-12      100.378
       1048.2000  2.86714e-12      100.378
       1048.3000  2.86714e-12      100.378
       1048.4000  2.86714e-12      100.350
       1048.5000  2.10525e-12      73.6837
       1048.6000  2.10525e-12      73.6837
       1048.7000  2.10525e-12      73.6837
       1048.8000  2.05019e-12      71.7567
       1048.9000  2.05019e-12      71.7567
       1049.0000  2.05019e-12      71.7362
       1049.1000  2.05019e-12      71.7362
       1049.2000  2.05019e-12      71.7362
       1049.3000  2.05019e-12      71.7157
       1049.4000  2.05019e-12      71.7157
       1049.5000  1.89724e-12      66.3656
       1049.6000  1.89724e-12      66.3466
       1049.7000  1.89724e-12      66.3466
       1049.8000  1.89724e-12      66.3466
       1049.9000  1.89724e-12      66.3277
       1050.0000  1.89724e-12      66.3277
       1050.1000  1.89724e-12      66.3087
       1050.2000  1.89724e-12      66.3087
       1050.3000  1.89724e-12      66.2897
       1050.4000  1.89724e-12      66.2707
       1050.5000  1.44571e-12      50.4985
       1050.6000  1.44571e-12      50.4840
       1050.7000  1.44571e-12      50.4840
       1050.8000  1.44571e-12      50.4696
       1050.9000  1.44571e-12      50.4551
       1051.0000  1.44571e-12      50.4551
       1051.1000  1.44571e-12      50.4407
       1051.2000  1.44571e-12      50.4407
       1051.3000  1.41336e-12      49.2978
       1051.4000  1.41336e-12      49.2837
       1051.5000  1.17241e-12      40.8819
       1051.6000  1.17241e-12      40.8702
       1051.7000  1.17241e-12      40.8584
       1051.8000  1.17241e-12      40.8584
       1051.9000  1.17241e-12      40.8467
       1052.0000  1.17241e-12      40.8467
       1052.1000  1.17241e-12      40.8350
       1052.2000  1.17241e-12      40.8233
       1052.3000  1.17241e-12      40.8233
       1052.4000  1.17241e-12      40.8115
       1052.5000  9.07746e-13      31.5896
       1052.6000  9.07746e-13      31.5896
       1052.7000  9.07746e-13      31.5805
       1052.8000  9.07746e-13      31.5714
       1052.9000  9.07746e-13      31.5714
       1053.0000  9.07746e-13      31.5623
       1053.1000  9.07746e-13      31.5623
       1053.2000  9.07746e-13      31.5533
       1053.3000  9.07746e-13      31.5442
       1053.4000  9.07746e-13      31.5442
       1053.5000  5.62480e-13      19.5406
       1053.6000  5.62480e-13      19.5349
       1053.7000  5.62480e-13      19.5349
       1053.8000  5.51974e-13      19.1645
       1053.9000  5.51974e-13      19.1590
       1054.0000  5.51974e-13      19.1590
       1054.1000  5.51974e-13      19.1701
       1054.2000  5.51974e-13      19.1756
       1054.3000  5.51974e-13      19.1866
       1054.4000  5.51974e-13      19.1976
       1054.5000  5.80879e-13      20.2088
       1054.6000  5.80879e-13      20.2146
       1054.7000  5.80879e-13      20.2204
       1054.8000  5.80879e-13      20.2262
       1054.9000  5.80879e-13      20.2320
       1055.0000  5.80879e-13      20.2378
       1055.1000  5.80879e-13      20.2378
       1055.2000  5.80879e-13      20.2378
       1055.3000  5.80879e-13      20.2436
       1055.4000  5.80879e-13      20.2436
       1055.5000  3.72160e-13      12.9661
       1055.6000  3.72160e-13      12.9661
       1055.7000  3.72160e-13      12.9661
       1055.8000  3.72160e-13      12.9623
       1055.9000  3.72160e-13      12.9586
       1056.0000  3.72160e-13      12.9549
       1056.1000  3.72160e-13      12.9437
       1056.2000  3.72160e-13      12.9326
       1056.3000  3.65373e-13      12.6858
       1056.4000  3.65373e-13      12.6711
       1056.5000  2.06009e-13      7.13820
       1056.6000  2.06009e-13      7.13408
       1056.7000  2.06009e-13      7.12790
       1056.8000  2.06009e-13      7.12172
       1056.9000  2.06009e-13      7.11553
       1057.0000  2.06009e-13      7.11141
