PDS_VERSION_ID         = PDS3
RECORD_TYPE            = STREAM
OBJECT                 = TEXT
  PUBLICATION_DATE     = 2014-04-25
  INTERCHANGE_FORMAT   = ASCII
  NOTE                 = "System transmission vs. wavelength."
END_OBJECT             = TEXT
END
    
The systrans directory contains the non-wavelength-integrated system 
transmission values (QE*optics*filter1*filter2) for each filter combination. 
The naming convention for these files is as follows:

<camera><filter 1><filter 2>_systrans.tab

where <camera> is "issna" or "isswa," and <filter 1> and <filter 2> represent
the filter names. For polarized filter combinations, values are given for the
parallel orientation of the filter (full transmission), with values for the 
perpendicular (blocking) orientation provided in files with subscript 
"_b_systrans.tab". 

Columns in systrans files are as follows:

 1st column: Wavelength (nm)  
 2nd column: Transmitted Flux
 3rd column: Transmitted Flux * Solar Flux (phot per cm^2-s-angstrom at 1 AU)

The solar spectrum used for this calculation is provided in solarflux.tab.

\begindata
       600.00000  4.61919e-10      24601.8
       600.10000  4.61919e-10      24564.9
       600.20000  4.61919e-10      24523.3
       600.30000  4.61919e-10      24472.5
       600.40000  4.61919e-10      24412.4
       600.50000  3.60485e-10      19004.7
       600.60000  3.60485e-10      19030.0
       600.70000  3.60485e-10      19051.6
       600.80000  3.60485e-10      19073.2
       600.90000  3.60485e-10      19087.7
       601.00000  3.60485e-10      19098.5
       601.10000  3.60485e-10      19102.1
       601.20000  3.60485e-10      19105.7
       601.30000  3.60301e-10      19095.9
       601.40000  3.60301e-10      19088.7
       601.50000  6.37696e-10      33772.4
       601.60000  6.37696e-10      33625.7
       601.70000  6.37696e-10      33504.5
       601.80000  6.37696e-10      33396.1
       601.90000  6.37696e-10      33313.2
       602.00000  6.37696e-10      33249.4
       602.10000  6.37696e-10      33198.4
       602.20000  6.37696e-10      33172.9
       602.30000  6.37696e-10      33166.5
       602.40000  6.37696e-10      33179.3
       602.50000  2.20029e-10      11456.9
       602.60000  2.20029e-10      11474.5
       602.70000  2.20029e-10      11498.7
       602.80000  2.20029e-10      11529.5
       602.90000  2.20029e-10      11566.9
       603.00000  2.20029e-10      11610.9
       603.10000  2.20029e-10      11661.5
       603.20000  2.20029e-10      11718.7
       603.30000  2.20029e-10      11782.6
       603.40000  2.20029e-10      11853.0
       603.50000  5.14197e-10      27879.8
       603.60000  5.14197e-10      27869.5
       603.70000  5.14197e-10      27859.2
       603.80000  5.14461e-10      27863.2
       603.90000  5.14461e-10      27847.8
       604.00000  5.14461e-10      27837.5
       604.10000  5.14461e-10      27822.0
       604.20000  5.14461e-10      27811.8
       604.30000  5.14461e-10      27796.3
       604.40000  5.14461e-10      27786.0
       604.50000  3.07422e-10      16594.6
       604.60000  3.07422e-10      16582.3
       604.70000  3.07422e-10      16570.0
       604.80000  3.07422e-10      16557.7
       604.90000  3.07422e-10      16545.4
       605.00000  3.07422e-10      16536.2
       605.10000  3.07422e-10      16527.0
       605.20000  3.07422e-10      16520.8
       605.30000  3.07422e-10      16511.6
       605.40000  3.07422e-10      16505.5
       605.50000  1.69788e-10      9112.54
       605.60000  1.69788e-10      9110.85
       605.70000  1.69788e-10      9107.45
       605.80000  1.69788e-10      9105.75
       605.90000  1.69788e-10      9105.75
       606.00000  1.69788e-10      9104.05
       606.10000  1.69788e-10      9104.05
       606.20000  1.69788e-10      9104.05
       606.30000  1.69973e-10      9113.96
       606.40000  1.69973e-10      9115.66
       606.50000  6.61069e-10      35459.7
       606.60000  6.61069e-10      35473.0
       606.70000  6.61069e-10      35479.6
       606.80000  6.61069e-10      35492.8
       606.90000  6.61069e-10      35492.8
       607.00000  6.61069e-10      35499.4
       607.10000  6.61069e-10      35499.4
       607.20000  6.61069e-10      35499.4
       607.30000  6.61069e-10      35492.8
       607.40000  6.61069e-10      35486.2
       607.50000  4.38394e-10      23528.6
       607.60000  4.38394e-10      23502.3
       607.70000  4.38394e-10      23480.4
       607.80000  4.38394e-10      23462.8
       607.90000  4.38394e-10      23445.3
       608.00000  4.38394e-10      23427.8
       608.10000  4.38394e-10      23414.6
       608.20000  4.38394e-10      23401.5
       608.30000  4.38394e-10      23392.7
       608.40000  4.38394e-10      23383.9
       608.50000  3.01088e-10      16057.0
       608.60000  3.01088e-10      16054.0
       608.70000  3.01088e-10      16051.0
       608.80000  3.01221e-10      16058.1
       608.90000  3.01221e-10      16061.1
       609.00000  3.01221e-10      16064.1
       609.10000  3.01221e-10      16067.1
       609.20000  3.01221e-10      16073.1
       609.30000  3.01221e-10      16079.2
       609.40000  3.01221e-10      16088.2
       609.50000  6.17241e-10      32991.5
       609.60000  6.17241e-10      32843.4
       609.70000  6.17241e-10      32713.8
       609.80000  6.17241e-10      32602.6
       609.90000  6.17241e-10      32510.1
       610.00000  6.17241e-10      32429.8
       610.10000  6.17241e-10      32361.9
       610.20000  6.17241e-10      32312.5
       610.30000  6.17241e-10      32281.7
       610.40000  6.17241e-10      32269.3
       610.50000  1.15969e-10      6061.71
       610.60000  1.15969e-10      6091.86
       610.70000  1.15969e-10      6118.53
       610.80000  1.15969e-10      6142.89
       610.90000  1.15969e-10      6163.76
       611.00000  1.15969e-10      6181.16
       611.10000  1.15969e-10      6196.23
       611.20000  1.15969e-10      6207.83
       611.30000  1.16014e-10      6219.53
       611.40000  1.16014e-10      6225.33
       611.50000  3.81096e-10      20457.3
       611.60000  3.81096e-10      20457.3
       611.70000  3.81096e-10      20445.8
       611.80000  3.81096e-10      20426.8
       611.90000  3.81096e-10      20396.3
       612.00000  3.81096e-10      20358.2
       612.10000  3.81096e-10      20308.6
       612.20000  3.81096e-10      20247.6
       612.30000  3.81096e-10      20179.1
       612.40000  3.81096e-10      20099.0
       612.50000  4.29533e-10      22554.8
       612.60000  4.29533e-10      22498.9
       612.70000  4.29533e-10      22447.4
       612.80000  4.29533e-10      22404.4
       612.90000  4.29533e-10      22370.1
       613.00000  4.29533e-10      22340.0
       613.10000  4.29533e-10      22318.5
       613.20000  4.29533e-10      22301.4
       613.30000  4.29533e-10      22292.8
       613.40000  4.29533e-10      22292.8
       613.50000  3.22090e-10      16719.7
       613.60000  3.22090e-10      16768.0
       613.70000  3.22090e-10      16809.9
       613.80000  3.22022e-10      16845.0
       613.90000  3.22022e-10      16883.6
       614.00000  3.22022e-10      16919.0
       614.10000  3.22022e-10      16948.0
       614.20000  3.22022e-10      16977.0
       614.30000  3.22022e-10      17002.8
       614.40000  3.22022e-10      17025.3
       614.50000  3.65523e-10      19347.2
       614.60000  3.65523e-10      19365.4
       614.70000  3.65523e-10      19380.1
       614.80000  3.65523e-10      19391.0
       614.90000  3.65523e-10      19398.3
       615.00000  3.65523e-10      19402.0
       615.10000  3.65523e-10      19405.6
       615.20000  3.65523e-10      19402.0
       615.30000  3.65523e-10      19398.3
       615.40000  3.65523e-10      19391.0
       615.50000  2.14450e-10      11368.0
       615.60000  2.14450e-10      11241.5
       615.70000  2.14450e-10      11125.6
       615.80000  2.14450e-10      11024.9
       615.90000  2.14450e-10      10939.1
       616.00000  2.14450e-10      10864.0
       616.10000  2.14450e-10      10804.0
       616.20000  2.14450e-10      10756.8
       616.30000  2.14784e-10      10739.2
       616.40000  2.14784e-10      10719.9
       616.50000  4.99222e-11      2489.62
       616.60000  4.99222e-11      2511.09
       616.70000  4.99222e-11      2531.05
       616.80000  4.99222e-11      2549.53
       616.90000  4.99222e-11      2567.00
       617.00000  4.99222e-11      2583.47
       617.10000  4.99222e-11      2598.45
       617.20000  4.99222e-11      2611.93
       617.30000  4.99222e-11      2624.41
       617.40000  4.99222e-11      2635.89
       617.50000  1.78631e-10      9467.44
       617.60000  1.78631e-10      9497.80
       617.70000  1.78631e-10      9524.60
       617.80000  1.78631e-10      9547.82
       617.90000  1.78631e-10      9563.90
       618.00000  1.78631e-10      9578.19
       618.10000  1.78631e-10      9587.12
       618.20000  1.78631e-10      9590.69
       618.30000  1.78631e-10      9590.69
       618.40000  1.78631e-10      9585.33
       618.50000  1.38748e-10      7438.27
       618.60000  1.38748e-10      7424.40
       618.70000  1.38748e-10      7410.52
       618.80000  1.38888e-10      7408.31
       618.90000  1.38888e-10      7398.59
       619.00000  1.38888e-10      7391.65
       619.10000  1.38888e-10      7386.09
       619.20000  1.38888e-10      7383.31
       619.30000  1.38888e-10      7381.92
       619.40000  1.38888e-10      7381.92
       619.50000  2.35138e-10      12502.3
       619.60000  2.35138e-10      12547.0
       619.70000  2.35138e-10      12586.9
       619.80000  2.35138e-10      12622.2
       619.90000  2.35138e-10      12652.8
       620.00000  2.35138e-10      12676.3
       620.10000  2.35138e-10      12695.1
       620.20000  2.35138e-10      12709.2
       620.30000  2.35138e-10      12718.6
       620.40000  2.35138e-10      12721.0
       620.50000  1.87383e-10      10137.4
       620.60000  1.87383e-10      10096.2
       620.70000  1.87383e-10      10056.8
       620.80000  1.87383e-10      10023.1
       620.90000  1.87383e-10      9993.11
       621.00000  1.87383e-10      9966.88
       621.10000  1.87383e-10      9944.39
       621.20000  1.87383e-10      9927.53
       621.30000  1.87448e-10      9915.99
       621.40000  1.87448e-10      9904.74
       621.50000  2.91262e-10      15381.6
       621.60000  2.91262e-10      15434.0
       621.70000  2.91262e-10      15480.6
       621.80000  2.91262e-10      15518.4
       621.90000  2.91262e-10      15553.4
       622.00000  2.91262e-10      15579.6
       622.10000  2.91262e-10      15600.0
       622.20000  2.91262e-10      15611.7
       622.30000  2.91262e-10      15620.4
       622.40000  2.91262e-10      15620.4
       622.50000  1.62550e-10      8714.31
       622.60000  1.62550e-10      8707.81
       622.70000  1.62550e-10      8698.05
       622.80000  1.62550e-10      8685.05
       622.90000  1.62550e-10      8667.17
       623.00000  1.62550e-10      8647.66
       623.10000  1.62550e-10      8623.28
       623.20000  1.62550e-10      8594.02
       623.30000  1.62550e-10      8563.14
       623.40000  1.62550e-10      8527.38
       623.50000  2.75617e-10      14395.4
       623.60000  2.75617e-10      14392.7
       623.70000  2.75617e-10      14392.7
       623.80000  2.75485e-10      14380.3
       623.90000  2.75485e-10      14377.6
       624.00000  2.75485e-10      14372.1
       624.10000  2.75485e-10      14363.8
       624.20000  2.75485e-10      14355.5
       624.30000  2.75485e-10      14347.3
       624.40000  2.75485e-10      14336.3
       624.50000  3.67254e-10      19097.2
       624.60000  3.67254e-10      19023.7
       624.70000  3.67254e-10      18965.0
       624.80000  3.67254e-10      18913.6
       624.90000  3.67254e-10      18873.2
       625.00000  3.67254e-10      18843.8
       625.10000  3.67254e-10      18825.4
       625.20000  3.67254e-10      18814.4
       625.30000  3.67254e-10      18818.1
       625.40000  3.67254e-10      18829.1
       625.50000  1.40886e-10      7231.66
       625.60000  1.40886e-10      7242.93
       625.70000  1.40886e-10      7259.83
       625.80000  1.40886e-10      7279.56
       625.90000  1.40886e-10      7303.51
       626.00000  1.40886e-10      7331.69
       626.10000  1.40886e-10      7364.09
       626.20000  1.40886e-10      7399.31
       626.30000  1.40723e-10      7431.60
       626.40000  1.40723e-10      7475.23
       626.50000  4.38955e-10      23462.1
       626.60000  4.38955e-10      23466.5
       626.70000  4.38955e-10      23470.9
       626.80000  4.38955e-10      23475.3
       626.90000  4.38955e-10      23479.7
       627.00000  4.38955e-10      23484.1
       627.10000  4.38955e-10      23488.5
       627.20000  4.38955e-10      23488.5
       627.30000  4.38955e-10      23492.9
       627.40000  4.38955e-10      23497.3
       627.50000  9.78680e-11      5239.85
       627.60000  9.78680e-11      5243.77
       627.70000  9.78680e-11      5246.70
       627.80000  9.78680e-11      5248.66
       627.90000  9.78680e-11      5250.62
       628.00000  9.78680e-11      5251.60
       628.10000  9.78680e-11      5252.58
       628.20000  9.78680e-11      5252.58
       628.30000  9.78680e-11      5251.60
       628.40000  9.78680e-11      5250.62
       628.50000  1.46358e-10      7849.17
       628.60000  1.46358e-10      7844.78
       628.70000  1.46358e-10      7840.38
       628.80000  1.46030e-10      7816.98
       628.90000  1.46030e-10      7809.68
       629.00000  1.46030e-10      7802.37
       629.10000  1.46030e-10      7793.61
       629.20000  1.46030e-10      7784.85
       629.30000  1.46030e-10      7774.63
       629.40000  1.46030e-10      7762.95
       629.50000  2.15292e-10      11427.7
       629.60000  2.15292e-10      11404.0
       629.70000  2.15292e-10      11380.4
       629.80000  2.15292e-10      11358.8
       629.90000  2.15292e-10      11339.5
       630.00000  2.15292e-10      11320.1
       630.10000  2.15292e-10      11300.7
       630.20000  2.15292e-10      11285.6
       630.30000  2.15292e-10      11268.4
       630.40000  2.15292e-10      11255.5
       630.50000  1.68664e-10      8807.64
       630.60000  1.68664e-10      8797.52
       630.70000  1.68664e-10      8789.09
       630.80000  1.68664e-10      8782.34
       630.90000  1.68664e-10      8775.59
       631.00000  1.68664e-10      8770.53
       631.10000  1.68664e-10      8775.59
       631.20000  1.68664e-10      8780.65
       631.30000  1.68206e-10      8763.54
       631.40000  1.68206e-10      8768.59
       631.50000  8.03235e-11      4189.67
       631.60000  8.03235e-11      4192.08
       631.70000  8.03235e-11      4194.49
       631.80000  8.03235e-11      4196.10
       631.90000  8.03235e-11      4198.51
       632.00000  8.03235e-11      4200.92
       632.10000  8.03235e-11      4203.33
       632.20000  8.03235e-11      4204.93
       632.30000  8.03235e-11      4207.34
       632.40000  8.03235e-11      4209.75
       632.50000  8.29543e-11      4349.30
       632.60000  8.29543e-11      4350.96
       632.70000  8.29543e-11      4353.44
       632.80000  8.29543e-11      4355.10
       632.90000  8.29543e-11      4356.76
       633.00000  8.29543e-11      4359.25
       633.10000  8.29543e-11      4360.91
       633.20000  8.29543e-11      4362.57
       633.30000  8.29543e-11      4364.23
       633.40000  8.29543e-11      4365.89
       633.50000  1.36969e-10      7211.42
       633.60000  1.36969e-10      7214.16
       633.70000  1.36969e-10      7216.90
       633.80000  1.36602e-10      7198.95
       633.90000  1.36602e-10      7201.68
       634.00000  1.36602e-10      7204.41
       634.10000  1.36602e-10      7205.78
       634.20000  1.36602e-10      7208.51
       634.30000  1.36602e-10      7209.88
       634.40000  1.36602e-10      7212.61
       634.50000  1.69319e-10      8941.74
       634.60000  1.69319e-10      8943.43
       634.70000  1.69319e-10      8946.82
       634.80000  1.69319e-10      8948.51
       634.90000  1.69319e-10      8950.21
       635.00000  1.69319e-10      8951.90
       635.10000  1.69319e-10      8953.59
       635.20000  1.69319e-10      8953.59
       635.30000  1.69319e-10      8955.29
       635.40000  1.69319e-10      8955.29
       635.50000  5.33060e-11      2819.89
       635.60000  5.33060e-11      2820.42
       635.70000  5.33060e-11      2820.42
       635.80000  5.33060e-11      2820.95
       635.90000  5.33060e-11      2820.95
       636.00000  5.33060e-11      2821.49
       636.10000  5.33060e-11      2821.49
       636.20000  5.33060e-11      2822.02
       636.30000  5.31138e-11      2811.84
       636.40000  5.31138e-11      2812.37
       636.50000  1.61064e-10      8528.33
       636.60000  1.61064e-10      8529.94
       636.70000  1.61064e-10      8529.94
       636.80000  1.61064e-10      8531.55
       636.90000  1.61064e-10      8531.55
       637.00000  1.61064e-10      8531.55
       637.10000  1.61064e-10      8533.16
       637.20000  1.61064e-10      8533.16
       637.30000  1.61064e-10      8534.77
       637.40000  1.61064e-10      8534.77
       637.50000  1.08946e-10      5773.07
       637.60000  1.08946e-10      5774.16
       637.70000  1.08946e-10      5774.16
       637.80000  1.08946e-10      5775.25
       637.90000  1.08946e-10      5775.25
       638.00000  1.08946e-10      5775.25
       638.10000  1.08946e-10      5776.34
       638.20000  1.08946e-10      5776.34
       638.30000  1.08946e-10      5776.34
       638.40000  1.08946e-10      5777.43
       638.50000  1.49924e-10      7950.46
       638.60000  1.49924e-10      7950.46
       638.70000  1.49924e-10      7951.96
       638.80000  1.49501e-10      7929.55
       638.90000  1.49501e-10      7929.55
       639.00000  1.49501e-10      7929.55
       639.10000  1.49501e-10      7917.59
       639.20000  1.49501e-10      7905.63
       639.30000  1.49501e-10      7893.67
       639.40000  1.49501e-10      7883.21
       639.50000  1.09000e-10      5738.86
       639.60000  1.09000e-10      5732.32
       639.70000  1.09000e-10      5724.69
       639.80000  1.09000e-10      5718.15
       639.90000  1.09000e-10      5712.70
       640.00000  1.09000e-10      5706.16
       640.10000  1.09000e-10      5700.71
       640.20000  1.09000e-10      5696.35
       640.30000  1.09000e-10      5691.99
       640.40000  1.09000e-10      5687.63
       640.50000  3.70008e-11      1929.22
       640.60000  3.70008e-11      1928.11
       640.70000  3.70008e-11      1927.00
       640.80000  3.70008e-11      1926.26
       640.90000  3.70008e-11      1925.15
       641.00000  3.70008e-11      1924.78
       641.10000  3.70008e-11      1925.52
       641.20000  3.70008e-11      1926.26
       641.30000  3.68844e-11      1920.94
       641.40000  3.68844e-11      1921.68
       641.50000  1.33567e-10      6961.49
       641.60000  1.33567e-10      6964.17
       641.70000  1.33567e-10      6966.84
       641.80000  1.33567e-10      6969.51
       641.90000  1.33567e-10      6972.18
       642.00000  1.33567e-10      6974.85
       642.10000  1.33567e-10      6976.19
       642.20000  1.33567e-10      6978.86
       642.30000  1.33567e-10      6981.53
       642.40000  1.33567e-10      6984.20
       642.50000  1.04547e-10      5468.84
       642.60000  1.04547e-10      5470.93
       642.70000  1.04547e-10      5473.03
       642.80000  1.04547e-10      5475.12
       642.90000  1.04547e-10      5477.21
       643.00000  1.04547e-10      5479.30
       643.10000  1.04547e-10      5480.34
       643.20000  1.04547e-10      5482.43
       643.30000  1.04547e-10      5484.53
       643.40000  1.04547e-10      5486.62
       643.50000  9.75994e-11      5123.97
       643.60000  9.75994e-11      5125.92
       643.70000  9.75994e-11      5126.90
       643.80000  9.72344e-11      5109.67
       643.90000  9.72344e-11      5111.61
       644.00000  9.72344e-11      5113.56
       644.10000  9.72344e-11      5115.50
       644.20000  9.72344e-11      5116.48
       644.30000  9.72344e-11      5118.42
       644.40000  9.72344e-11      5120.36
       644.50000  7.38651e-11      3891.21
       644.60000  7.38651e-11      3891.95
       644.70000  7.38651e-11      3893.43
       644.80000  7.38651e-11      3894.91
       644.90000  7.38651e-11      3896.38
       645.00000  7.38651e-11      3897.12
       645.10000  7.38651e-11      3896.38
       645.20000  7.38651e-11      3894.91
       645.30000  7.38651e-11      3894.17
       645.40000  7.38651e-11      3892.69
       645.50000  8.94123e-11      4709.34
       645.60000  8.94123e-11      4707.56
       645.70000  8.94123e-11      4705.77
       645.80000  8.94123e-11      4703.08
       645.90000  8.94123e-11      4700.40
       646.00000  8.94123e-11      4697.72
       646.10000  8.94123e-11      4695.04
       646.20000  8.94123e-11      4692.35
       646.30000  8.90416e-11      4669.34
       646.40000  8.90416e-11      4665.78
       646.50000  1.38289e-10      7242.20
       646.60000  1.38289e-10      7235.28
       646.70000  1.38289e-10      7229.75
       646.80000  1.38289e-10      7224.22
       646.90000  1.38289e-10      7217.30
       647.00000  1.38289e-10      7211.77
       647.10000  1.38289e-10      7192.41
       647.20000  1.38289e-10      7174.43
       647.30000  1.38289e-10      7157.84
       647.40000  1.38289e-10      7141.24
       647.50000  4.53374e-11      2336.23
       647.60000  4.53374e-11      2332.15
       647.70000  4.53374e-11      2327.62
       647.80000  4.53374e-11      2323.99
       647.90000  4.53374e-11      2320.37
       648.00000  4.53374e-11      2317.19
       648.10000  4.53374e-11      2314.47
       648.20000  4.53374e-11      2312.21
       648.30000  4.53374e-11      2309.94
       648.40000  4.53374e-11      2308.12
       648.50000  8.80676e-11      4480.88
       648.60000  8.80676e-11      4479.12
       648.70000  8.80676e-11      4477.36
       648.80000  8.77059e-11      4458.09
       648.90000  8.77059e-11      4458.09
       649.00000  8.77059e-11      4458.97
       649.10000  8.77059e-11      4459.84
       649.20000  8.77059e-11      4462.48
       649.30000  8.77059e-11      4464.23
       649.40000  8.77059e-11      4467.74
       649.50000  2.22951e-11      1136.83
       649.60000  2.22951e-11      1137.94
       649.70000  2.22951e-11      1139.28
       649.80000  2.22951e-11      1140.84
       649.90000  2.22951e-11      1142.40
       650.00000  2.22951e-11      1144.18
       650.10000  2.22951e-11      1146.19
       650.20000  2.22951e-11      1148.42
       650.30000  2.22951e-11      1150.87
       650.40000  2.22951e-11      1153.32
       650.50000  1.39587e-10      7237.60
       650.60000  1.39587e-10      7255.75
       650.70000  1.39587e-10      7273.89
       650.80000  1.39587e-10      7294.83
       650.90000  1.39587e-10      7315.77
       651.00000  1.39587e-10      7338.10
       651.10000  1.39587e-10      7343.69
       651.20000  1.39587e-10      7349.27
       651.30000  1.38970e-10      7320.92
       651.40000  1.38970e-10      7325.09
       651.50000  6.21707e-11      3278.88
       651.60000  6.21707e-11      3279.50
       651.70000  6.21707e-11      3280.75
       651.80000  6.21707e-11      3281.37
       651.90000  6.21707e-11      3281.37
       652.00000  6.21707e-11      3281.37
       652.10000  6.21707e-11      3280.75
       652.20000  6.21707e-11      3280.13
       652.30000  6.21707e-11      3279.50
       652.40000  6.21707e-11      3278.26
       652.50000  9.11945e-11      4805.95
       652.60000  9.11945e-11      4803.21
       652.70000  9.11945e-11      4800.48
       652.80000  9.11945e-11      4795.92
       652.90000  9.11945e-11      4792.27
       653.00000  9.11945e-11      4787.71
       653.10000  9.11945e-11      4784.06
       653.20000  9.11945e-11      4780.41
       653.30000  9.11945e-11      4774.94
       653.40000  9.11945e-11      4769.47
       653.50000  6.19136e-11      3234.37
       653.60000  6.19136e-11      3230.03
       653.70000  6.19136e-11      3225.08
       653.80000  6.17693e-11      3212.00
       653.90000  6.17693e-11      3206.44
       654.00000  6.17693e-11      3200.27
       654.10000  6.17693e-11      3194.09
       654.20000  6.17693e-11      3186.68
       654.30000  6.17693e-11      3179.26
       654.40000  6.17693e-11      3171.85
       654.50000  1.42405e-10      7293.98
       654.60000  1.42405e-10      7274.05
       654.70000  1.42405e-10      7252.69
       654.80000  1.42405e-10      7231.33
       654.90000  1.42405e-10      7208.54
       655.00000  1.42405e-10      7184.33
       655.10000  1.42405e-10      7115.98
       655.20000  1.42405e-10      7050.47
       655.30000  1.42405e-10      6989.24
       655.40000  1.42405e-10      6932.27
       655.50000  8.48549e-11      4098.49
       655.60000  8.48549e-11      4068.79
       655.70000  8.48549e-11      4040.79
       655.80000  8.48549e-11      4015.33
       655.90000  8.48549e-11      3991.57
       656.00000  8.48549e-11      3970.36
       656.10000  8.48549e-11      3951.69
       656.20000  8.48549e-11      3934.72
       656.30000  8.47466e-11      3915.29
       656.40000  8.47466e-11      3902.58
       656.50000  1.55988e-11      716.454
       656.60000  1.55988e-11      715.050
       656.70000  1.55988e-11      713.958
       656.80000  1.55988e-11      713.334
       656.90000  1.55988e-11      713.022
       657.00000  1.55988e-11      713.178
       657.10000  1.55988e-11      719.262
       657.20000  1.55988e-11      725.189
       657.30000  1.55988e-11      730.961
       657.40000  1.55988e-11      736.576
       657.50000  5.43450e-11      2584.65
       657.60000  5.43450e-11      2603.13
       657.70000  5.43450e-11      2620.52
       657.80000  5.43450e-11      2637.36
       657.90000  5.43450e-11      2653.12
       658.00000  5.43450e-11      2668.88
       658.10000  5.43450e-11      2684.10
       658.20000  5.43450e-11      2698.23
       658.30000  5.43450e-11      2711.82
       658.40000  5.43450e-11      2724.86
       658.50000  1.69852e-12      85.5375
       658.60000  1.69852e-12      85.9112
       658.70000  1.69852e-12      86.2509
       658.80000  1.69284e-12      86.3011
       658.90000  1.69284e-12      86.6058
       659.00000  1.69284e-12      86.8766
       659.10000  1.69284e-12      87.1475
       659.20000  1.69284e-12      87.4014
       659.30000  1.69284e-12      87.6215
       659.40000  1.69284e-12      87.8246
       659.50000  4.47069e-11      2324.31
       659.60000  4.47069e-11      2328.78
       659.70000  4.47069e-11      2332.36
       659.80000  4.47069e-11      2335.93
       659.90000  4.47069e-11      2338.62
       660.00000  4.47069e-11      2340.85
       660.10000  4.47069e-11      2342.64
       660.20000  4.47069e-11      2343.53
       660.30000  4.47069e-11      2344.43
       660.40000  4.47069e-11      2344.43
       660.50000  4.62999e-11      2427.50
       660.60000  4.62999e-11      2426.58
       660.70000  4.62999e-11      2425.19
       660.80000  4.62999e-11      2422.87
       660.90000  4.62999e-11      2420.56
       661.00000  4.62999e-11      2417.32
       661.10000  4.62999e-11      2415.93
       661.20000  4.62999e-11      2414.07
       661.30000  4.59609e-11      2395.02
       661.40000  4.59609e-11      2393.64
       661.50000  4.89451e-11      2547.59
       661.60000  4.89451e-11      2546.61
       661.70000  4.89451e-11      2545.14
       661.80000  4.89451e-11      2544.17
       661.90000  4.89451e-11      2543.19
       662.00000  4.89451e-11      2542.21
       662.10000  4.89451e-11      2541.23
       662.20000  4.89451e-11      2540.25
       662.30000  4.89451e-11      2539.76
       662.40000  4.89451e-11      2539.27
       662.50000  1.08658e-10      5635.01
       662.60000  1.08658e-10      5635.01
       662.70000  1.08658e-10      5633.92
       662.80000  1.08658e-10      5632.83
       662.90000  1.08658e-10      5632.83
       663.00000  1.08658e-10      5632.83
       663.10000  1.08658e-10      5637.18
       663.20000  1.08658e-10      5640.44
       663.30000  1.08658e-10      5644.79
       663.40000  1.08658e-10      5648.05
       663.50000  5.71920e-11      2974.56
       663.60000  5.71920e-11      2976.27
       663.70000  5.71920e-11      2977.42
       663.80000  5.67217e-11      2954.63
       663.90000  5.67217e-11      2955.77
       664.00000  5.67217e-11      2956.33
       664.10000  5.67217e-11      2957.47
       664.20000  5.67217e-11      2958.04
       664.30000  5.67217e-11      2958.60
       664.40000  5.67217e-11      2959.17
       664.50000  4.33194e-11      2259.97
       664.60000  4.33194e-11      2259.97
       664.70000  4.33194e-11      2259.97
       664.80000  4.33194e-11      2259.97
       664.90000  4.33194e-11      2259.97
       665.00000  4.33194e-11      2259.54
       665.10000  4.33194e-11      2259.11
       665.20000  4.33194e-11      2258.67
       665.30000  4.33194e-11      2257.81
       665.40000  4.33194e-11      2256.94
       665.50000  1.00377e-11      522.761
       665.60000  1.00377e-11      522.560
       665.70000  1.00377e-11      522.259
       665.80000  1.00377e-11      522.058
       665.90000  1.00377e-11      521.757
       666.00000  1.00377e-11      521.356
       666.10000  1.00377e-11      521.055
       666.20000  1.00377e-11      520.653
       666.30000  9.97277e-12      516.889
       666.40000  9.97277e-12      516.490
       666.50000  4.17335e-11      2159.29
       666.60000  4.17335e-11      2157.20
       666.70000  4.17335e-11      2155.12
       666.80000  4.17335e-11      2153.03
       666.90000  4.17335e-11      2150.95
       667.00000  4.17335e-11      2148.44
       667.10000  4.17335e-11      2150.95
       667.20000  4.17335e-11      2153.03
       667.30000  4.17335e-11      2155.12
       667.40000  4.17335e-11      2157.20
       667.50000  1.02002e-10      5277.59
       667.60000  1.02002e-10      5281.67
       667.70000  1.02002e-10      5285.75
       667.80000  1.02002e-10      5288.81
       667.90000  1.02002e-10      5291.87
       668.00000  1.02002e-10      5294.93
       668.10000  1.02002e-10      5297.99
       668.20000  1.02002e-10      5300.03
       668.30000  1.02002e-10      5302.07
       668.40000  1.02002e-10      5303.09
       668.50000  2.76176e-11      1436.12
       668.60000  2.76176e-11      1436.39
       668.70000  2.76176e-11      1436.39
       668.80000  2.74592e-11      1428.15
       668.90000  2.74592e-11      1428.15
       669.00000  2.74592e-11      1427.88
       669.10000  2.74592e-11      1425.96
       669.20000  2.74592e-11      1424.03
       669.30000  2.74592e-11      1422.39
       669.40000  2.74592e-11      1420.74
       669.50000  4.80072e-11      2481.01
       669.60000  4.80072e-11      2478.13
       669.70000  4.80072e-11      2475.73
       669.80000  4.80072e-11      2473.33
       669.90000  4.80072e-11      2470.93
       670.00000  4.80072e-11      2469.01
       670.10000  4.80072e-11      2467.09
       670.20000  4.80072e-11      2465.17
       670.30000  4.80072e-11      2463.25
       670.40000  4.80072e-11      2461.81
       670.50000  1.30565e-11      669.144
       670.60000  1.30565e-11      668.752
       670.70000  1.30565e-11      668.491
       670.80000  1.30565e-11      668.230
       670.90000  1.30565e-11      667.969
       671.00000  1.30565e-11      667.838
       671.10000  1.30565e-11      667.577
       671.20000  1.30565e-11      667.577
       671.30000  1.29825e-11      663.665
       671.40000  1.29825e-11      663.665
       671.50000  3.16297e-11      1616.91
       671.60000  3.16297e-11      1616.91
       671.70000  3.16297e-11      1616.91
       671.80000  3.16297e-11      1617.22
       671.90000  3.16297e-11      1617.54
       672.00000  3.16297e-11      1618.17
       672.10000  3.16297e-11      1618.81
       672.20000  3.16297e-11      1619.44
       672.30000  3.16297e-11      1620.07
       672.40000  3.16297e-11      1621.02
       672.50000  4.97438e-11      2550.86
       672.60000  4.97438e-11      2552.35
       672.70000  4.97438e-11      2553.84
       672.80000  4.97438e-11      2555.83
       672.90000  4.97438e-11      2557.82
       673.00000  4.97438e-11      2560.31
       673.10000  4.97438e-11      2559.32
       673.20000  4.97438e-11      2558.32
       673.30000  4.97438e-11      2557.33
       673.40000  4.97438e-11      2556.83
       673.50000  3.10195e-12      159.378
       673.60000  3.10195e-12      159.347
       673.70000  3.10195e-12      159.316
       673.80000  3.08265e-12      158.263
       673.90000  3.08265e-12      158.232
       674.00000  3.08265e-12      158.202
       674.10000  3.08265e-12      158.171
       674.20000  3.08265e-12      158.140
       674.30000  3.08265e-12      158.109
       674.40000  3.08265e-12      158.078
       674.50000  2.51832e-11      1291.14
       674.60000  2.51832e-11      1291.14
       674.70000  2.51832e-11      1290.89
       674.80000  2.51832e-11      1290.89
       674.90000  2.51832e-11      1290.64
       675.00000  2.51832e-11      1290.64
       675.10000  2.51832e-11      1290.89
       675.20000  2.51832e-11      1291.14
       675.30000  2.51832e-11      1291.39
       675.40000  2.51832e-11      1291.64
       675.50000  3.51763e-11      1804.19
       675.60000  3.51763e-11      1804.54
       675.70000  3.51763e-11      1804.90
       675.80000  3.51763e-11      1804.90
       675.90000  3.51763e-11      1805.25
       676.00000  3.51763e-11      1805.25
       676.10000  3.51763e-11      1805.60
       676.20000  3.51763e-11      1805.60
       676.30000  3.49104e-11      1791.95
       676.40000  3.49104e-11      1791.95
       676.50000  3.52249e-11      1808.45
       676.60000  3.52249e-11      1808.45
       676.70000  3.52249e-11      1808.45
       676.80000  3.52249e-11      1808.09
       676.90000  3.52249e-11      1808.09
       677.00000  3.52249e-11      1808.09
       677.10000  3.52249e-11      1808.09
       677.20000  3.52249e-11      1807.74
       677.30000  3.52249e-11      1807.74
       677.40000  3.52249e-11      1807.39
       677.50000  3.61928e-11      1857.05
       677.60000  3.61928e-11      1856.69
       677.70000  3.61928e-11      1856.69
       677.80000  3.61928e-11      1856.33
       677.90000  3.61928e-11      1855.97
       678.00000  3.61928e-11      1855.60
       678.10000  3.61928e-11      1855.24
       678.20000  3.61928e-11      1854.88
       678.30000  3.61928e-11      1854.52
       678.40000  3.61928e-11      1854.16
       678.50000  3.61933e-11      1853.46
       678.60000  3.61933e-11      1853.10
       678.70000  3.61933e-11      1852.74
       678.80000  3.59205e-11      1838.05
       678.90000  3.59205e-11      1837.69
       679.00000  3.59205e-11      1836.98
       679.10000  3.59205e-11      1836.98
       679.20000  3.59205e-11      1837.34
       679.30000  3.59205e-11      1837.34
       679.40000  3.59205e-11      1837.34
       679.50000  1.36852e-11      700.000
       679.60000  1.36852e-11      700.000
       679.70000  1.36852e-11      700.000
       679.80000  1.36852e-11      700.000
       679.90000  1.36852e-11      700.000
       680.00000  1.36852e-11      699.863
       680.10000  1.36852e-11      699.863
       680.20000  1.36852e-11      699.863
       680.30000  1.36852e-11      699.726
       680.40000  1.36852e-11      699.726
       680.50000  3.69876e-11      1890.80
       680.60000  3.69876e-11      1890.80
       680.70000  3.69876e-11      1890.44
       680.80000  3.69876e-11      1890.07
       680.90000  3.69876e-11      1889.70
       681.00000  3.69876e-11      1889.70
       681.10000  3.69876e-11      1889.33
       681.20000  3.69876e-11      1888.96
       681.30000  3.66753e-11      1873.01
       681.40000  3.66753e-11      1872.64
       681.50000  2.73851e-11      1398.01
       681.60000  2.73851e-11      1397.74
       681.70000  2.73851e-11      1397.46
       681.80000  2.73851e-11      1396.91
       681.90000  2.73851e-11      1396.64
       682.00000  2.73851e-11      1396.37
       682.10000  2.73851e-11      1395.82
       682.20000  2.73851e-11      1395.27
       682.30000  2.73851e-11      1395.00
       682.40000  2.73851e-11      1394.45
       682.50000  1.89591e-11      965.017
       682.60000  1.89591e-11      964.638
       682.70000  1.89591e-11      964.259
       682.80000  1.89591e-11      963.880
       682.90000  1.89591e-11      963.311
       683.00000  1.89591e-11      962.932
       683.10000  1.89591e-11      962.553
       683.20000  1.89591e-11      961.984
       683.30000  1.89591e-11      961.415
       683.40000  1.89591e-11      960.846
       683.50000  1.23026e-11      623.249
       683.60000  1.23026e-11      622.880
       683.70000  1.23026e-11      622.510
       683.80000  1.21858e-11      616.112
       683.90000  1.21858e-11      615.747
       684.00000  1.21858e-11      615.381
       684.10000  1.21858e-11      614.894
       684.20000  1.21858e-11      614.528
       684.30000  1.21858e-11      614.041
       684.40000  1.21858e-11      613.675
       684.50000  2.52120e-11      1268.67
       684.60000  2.52120e-11      1267.66
       684.70000  2.52120e-11      1266.65
       684.80000  2.52120e-11      1265.64
       684.90000  2.52120e-11      1264.38
       685.00000  2.52120e-11      1263.37
       685.10000  2.52120e-11      1264.38
       685.20000  2.52120e-11      1265.64
       685.30000  2.52120e-11      1266.65
       685.40000  2.52120e-11      1267.41
       685.50000  1.45950e-11      734.273
       685.60000  1.45950e-11      734.857
       685.70000  1.45950e-11      735.295
       685.80000  1.45950e-11      735.733
       685.90000  1.45950e-11      736.170
       686.00000  1.45950e-11      736.608
       686.10000  1.45950e-11      737.046
       686.20000  1.45950e-11      737.338
       686.30000  1.44571e-11      730.808
       686.40000  1.44571e-11      731.097
       686.50000  1.84588e-11      933.833
       686.60000  1.84588e-11      934.202
       686.70000  1.84588e-11      934.571
       686.80000  1.84588e-11      934.755
       686.90000  1.84588e-11      935.125
       687.00000  1.84588e-11      935.309
       687.10000  1.84588e-11      935.494
       687.20000  1.84588e-11      935.494
       687.30000  1.84588e-11      935.494
       687.40000  1.84588e-11      935.494
       687.50000  1.93173e-11      979.001
       687.60000  1.93173e-11      979.001
       687.70000  1.93173e-11      979.001
       687.80000  1.93173e-11      979.001
       687.90000  1.93173e-11      979.001
       688.00000  1.93173e-11      978.808
       688.10000  1.93173e-11      978.808
       688.20000  1.93173e-11      978.808
       688.30000  1.93173e-11      978.615
       688.40000  1.93173e-11      978.615
       688.50000  1.21217e-11      613.963
       688.60000  1.21217e-11      613.842
       688.70000  1.21217e-11      613.842
       688.80000  1.20222e-11      608.683
       688.90000  1.20222e-11      608.562
       689.00000  1.20222e-11      608.442
       689.10000  1.20222e-11      608.322
       689.20000  1.20222e-11      608.202
       689.30000  1.20222e-11      608.081
       689.40000  1.20222e-11      607.961
       689.50000  2.14049e-11      1082.23
       689.60000  2.14049e-11      1082.02
       689.70000  2.14049e-11      1081.59
       689.80000  2.14049e-11      1081.38
       689.90000  2.14049e-11      1081.16
       690.00000  2.14049e-11      1080.73
       690.10000  2.14049e-11      1080.30
       690.20000  2.14049e-11      1080.09
       690.30000  2.14049e-11      1079.66
       690.40000  2.14049e-11      1079.23
       690.50000  2.93959e-13      14.8185
       690.60000  2.93959e-13      14.8126
       690.70000  2.93959e-13      14.8067
       690.80000  2.93959e-13      14.8009
       690.90000  2.93959e-13      14.7950
       691.00000  2.93959e-13      14.7891
       691.10000  2.93959e-13      14.7950
       691.20000  2.93959e-13      14.7979
       691.30000  2.91733e-13      14.6917
       691.40000  2.91733e-13      14.6946
       691.50000  1.41863e-11      714.706
       691.60000  1.41863e-11      714.990
       691.70000  1.41863e-11      715.131
       691.80000  1.41863e-11      715.273
       691.90000  1.41863e-11      715.415
       692.00000  1.41863e-11      715.415
       692.10000  1.41863e-11      715.557
       692.20000  1.41863e-11      715.699
       692.30000  1.41863e-11      715.699
       692.40000  1.41863e-11      715.699
       692.50000  6.59245e-12      332.655
       692.60000  6.59245e-12      332.655
       692.70000  6.59245e-12      332.655
       692.80000  6.59245e-12      332.655
       692.90000  6.59245e-12      332.655
       693.00000  6.59245e-12      332.589
       693.10000  6.59245e-12      332.589
       693.20000  6.59245e-12      332.523
       693.30000  6.59245e-12      332.457
       693.40000  6.59245e-12      332.391
       693.50000  1.58168e-11      797.327
       693.60000  1.58168e-11      797.169
       693.70000  1.58168e-11      797.011
       693.80000  1.57078e-11      791.357
       693.90000  1.57078e-11      791.043
       694.00000  1.57078e-11      790.885
       694.10000  1.57078e-11      790.728
       694.20000  1.57078e-11      790.414
       694.30000  1.57078e-11      790.257
       694.40000  1.57078e-11      789.943
       694.50000  3.47214e-12      174.544
       694.60000  3.47214e-12      174.510
       694.70000  3.47214e-12      174.440
       694.80000  3.47214e-12      174.371
       694.90000  3.47214e-12      174.301
       695.00000  3.47214e-12      174.232
       695.10000  3.47214e-12      174.162
       695.20000  3.47214e-12      174.093
       695.30000  3.47214e-12      173.989
       695.40000  3.47214e-12      173.919
       695.50000  1.28019e-11      640.991
       695.60000  1.28019e-11      640.607
       695.70000  1.28019e-11      640.351
       695.80000  1.28019e-11      639.967
       695.90000  1.28019e-11      639.583
       696.00000  1.28019e-11      639.327
       696.10000  1.28019e-11      638.943
       696.20000  1.28019e-11      638.559
       696.30000  1.27270e-11      634.441
       696.40000  1.27270e-11      634.059
       696.50000  4.14303e-12      206.281
       696.60000  4.14303e-12      206.157
       696.70000  4.14303e-12      205.991
       696.80000  4.14303e-12      205.867
       696.90000  4.14303e-12      205.743
       697.00000  4.14303e-12      205.577
       697.10000  4.14303e-12      205.867
       697.20000  4.14303e-12      206.074
       697.30000  4.14303e-12      206.323
       697.40000  4.14303e-12      206.530
       697.50000  3.19031e-12      159.197
       697.60000  3.19031e-12      159.324
       697.70000  3.19031e-12      159.452
       697.80000  3.19031e-12      159.548
       697.90000  3.19031e-12      159.643
       698.00000  3.19031e-12      159.707
       698.10000  3.19031e-12      159.771
       698.20000  3.19031e-12      159.835
       698.30000  3.19031e-12      159.867
       698.40000  3.19031e-12      159.898
       698.50000  3.90413e-12      195.714
       698.60000  3.90413e-12      195.714
       698.70000  3.90413e-12      195.675
       698.80000  3.88020e-12      194.437
       698.90000  3.88020e-12      194.398
       699.00000  3.88020e-12      194.320
       699.10000  3.88020e-12      193.971
       699.20000  3.88020e-12      193.583
       699.30000  3.88020e-12      193.273
       699.40000  3.88020e-12      192.924
       699.50000  1.94323e-11      964.618
       699.60000  1.94323e-11      963.063
       699.70000  1.94323e-11      961.703
       699.80000  1.94323e-11      960.343
       699.90000  1.94323e-11      958.983
       700.00000  1.94323e-11      957.817
       700.10000  1.94323e-11      956.651
       700.20000  1.94323e-11      955.485
       700.30000  1.94323e-11      954.513
       700.40000  1.94323e-11      953.542
       700.50000  2.32339e-12      113.893
       700.60000  2.32339e-12      113.800
       700.70000  2.32339e-12      113.707
       700.80000  2.32339e-12      113.637
       700.90000  2.32339e-12      113.567
       701.00000  2.32339e-12      113.498
       701.10000  2.32339e-12      113.474
       701.20000  2.32339e-12      113.451
       701.30000  2.30618e-12      112.587
       701.40000  2.30618e-12      112.587
       701.50000  8.07245e-12      394.097
       701.60000  8.07245e-12      394.097
       701.70000  8.07245e-12      394.097
       701.80000  8.07245e-12      394.178
       701.90000  8.07245e-12      394.178
       702.00000  8.07245e-12      394.258
       702.10000  8.07245e-12      394.420
       702.20000  8.07245e-12      394.500
       702.30000  8.07245e-12      394.662
       702.40000  8.07245e-12      394.743
       702.50000  9.61844e-12      470.534
       702.60000  9.61844e-12      470.822
       702.70000  9.61844e-12      471.015
       702.80000  9.61844e-12      471.303
       702.90000  9.61844e-12      471.592
       703.00000  9.61844e-12      471.880
       703.10000  9.61844e-12      472.746
       703.20000  9.61844e-12      473.612
       703.30000  9.61844e-12      474.381
       703.40000  9.61844e-12      475.151
       703.50000  5.24229e-12      259.336
       703.60000  5.24229e-12      259.755
       703.70000  5.24229e-12      260.070
       703.80000  5.19363e-12      258.020
       703.90000  5.19363e-12      258.331
       704.00000  5.19363e-12      258.591
       704.10000  5.19363e-12      258.903
       704.20000  5.19363e-12      259.162
       704.30000  5.19363e-12      259.370
       704.40000  5.19363e-12      259.578
       704.50000  3.51947e-12      176.044
       704.60000  3.51947e-12      176.185
       704.70000  3.51947e-12      176.290
       704.80000  3.51947e-12      176.361
       704.90000  3.51947e-12      176.466
       705.00000  3.51947e-12      176.537
       705.10000  3.51947e-12      176.572
       705.20000  3.51947e-12      176.607
       705.30000  3.51947e-12      176.642
       705.40000  3.51947e-12      176.677
       705.50000  8.87854e-12      445.703
       705.60000  8.87854e-12      445.703
       705.70000  8.87854e-12      445.614
       705.80000  8.87854e-12      445.525
       705.90000  8.87854e-12      445.436
       706.00000  8.87854e-12      445.259
       706.10000  8.87854e-12      445.081
       706.20000  8.87854e-12      444.815
       706.30000  8.79096e-12      440.163
       706.40000  8.79096e-12      439.900
       706.50000  9.61654e-12      480.827
       706.60000  9.61654e-12      480.442
       706.70000  9.61654e-12      480.058
       706.80000  9.61654e-12      479.577
       706.90000  9.61654e-12      479.096
       707.00000  9.61654e-12      478.615
       707.10000  9.61654e-12      478.231
       707.20000  9.61654e-12      477.942
       707.30000  9.61654e-12      477.557
       707.40000  9.61654e-12      477.269
       707.50000  7.69107e-12      381.477
       707.60000  7.69107e-12      381.246
       707.70000  7.69107e-12      381.093
       707.80000  7.69107e-12      380.862
       707.90000  7.69107e-12      380.708
       708.00000  7.69107e-12      380.554
       708.10000  7.69107e-12      380.400
       708.20000  7.69107e-12      380.247
       708.30000  7.69107e-12      380.093
       708.40000  7.69107e-12      379.939
       708.50000  1.09746e-11      542.034
       708.60000  1.09746e-11      541.814
       708.70000  1.09746e-11      541.704
       708.80000  1.08488e-11      535.390
       708.90000  1.08488e-11      535.282
       709.00000  1.08488e-11      535.282
       709.10000  1.08488e-11      535.499
       709.20000  1.08488e-11      535.716
       709.30000  1.08488e-11      535.824
       709.40000  1.08488e-11      536.041
       709.50000  2.19627e-12      108.540
       709.60000  2.19627e-12      108.583
       709.70000  2.19627e-12      108.605
       709.80000  2.19627e-12      108.627
       709.90000  2.19627e-12      108.649
       710.00000  2.19627e-12      108.671
       710.10000  2.19627e-12      108.693
       710.20000  2.19627e-12      108.715
       710.30000  2.19627e-12      108.715
       710.40000  2.19627e-12      108.737
       710.50000  3.68704e-12      182.545
       710.60000  3.68704e-12      182.545
       710.70000  3.68704e-12      182.545
       710.80000  3.68704e-12      182.545
       710.90000  3.68704e-12      182.545
       711.00000  3.68704e-12      182.545
       711.10000  3.68704e-12      182.545
       711.20000  3.68704e-12      182.508
       711.30000  3.63317e-12      179.842
       711.40000  3.63317e-12      179.806
       711.50000  5.62898e-13      27.8522
       711.60000  5.62898e-13      27.8466
       711.70000  5.62898e-13      27.8409
       711.80000  5.62898e-13      27.8353
       711.90000  5.62898e-13      27.8297
       712.00000  5.62898e-13      27.8184
       712.10000  5.62898e-13      27.8128
       712.20000  5.62898e-13      27.8015
       712.30000  5.62898e-13      27.7959
       712.40000  5.62898e-13      27.7847
       712.50000  4.12104e-12      203.332
       712.60000  4.12104e-12      203.250
       712.70000  4.12104e-12      203.126
       712.80000  4.12104e-12      203.044
       712.90000  4.12104e-12      202.961
       713.00000  4.12104e-12      202.838
       713.10000  4.12104e-12      202.838
       713.20000  4.12104e-12      202.838
       713.30000  4.12104e-12      202.838
       713.40000  4.12104e-12      202.796
       713.50000  6.49783e-12      319.758
       713.60000  6.49783e-12      319.758
       713.70000  6.49783e-12      319.693
       713.80000  6.40926e-12      315.336
       713.90000  6.40926e-12      315.272
       714.00000  6.40926e-12      315.272
       714.10000  6.40926e-12      315.208
       714.20000  6.40926e-12      315.144
       714.30000  6.40926e-12      315.144
       714.40000  6.40926e-12      315.079
       714.50000  1.83792e-12      90.3336
       714.60000  1.83792e-12      90.3152
       714.70000  1.83792e-12      90.3152
       714.80000  1.83792e-12      90.2968
       714.90000  1.83792e-12      90.2784
       715.00000  1.83792e-12      90.2600
       715.10000  1.83792e-12      90.2417
       715.20000  1.83792e-12      90.2417
       715.30000  1.83792e-12      90.2417
       715.40000  1.83792e-12      90.2233
       715.50000  4.62731e-12      227.109
       715.60000  4.62731e-12      227.062
       715.70000  4.62731e-12      227.016
       715.80000  4.62731e-12      226.970
       715.90000  4.62731e-12      226.923
       716.00000  4.62731e-12      226.831
       716.10000  4.62731e-12      226.785
       716.20000  4.62731e-12      226.692
       716.30000  4.56548e-12      223.572
       716.40000  4.56548e-12      223.480
       716.50000  5.85346e-12      286.410
       716.60000  5.85346e-12      286.293
       716.70000  5.85346e-12      286.176
       716.80000  5.85346e-12      286.000
       716.90000  5.85346e-12      285.883
       717.00000  5.85346e-12      285.707
       717.10000  5.85346e-12      285.532
       717.20000  5.85346e-12      285.356
       717.30000  5.85346e-12      285.181
       717.40000  5.85346e-12      285.005
       717.50000  7.79464e-12      379.287
       717.60000  7.79464e-12      378.975
       717.70000  7.79464e-12      378.742
       717.80000  7.79464e-12      378.430
       717.90000  7.79464e-12      378.118
       718.00000  7.79464e-12      377.806
       718.10000  7.79464e-12      377.494
       718.20000  7.79464e-12      377.183
       718.30000  7.79464e-12      376.871
       718.40000  7.79464e-12      376.481
       718.50000  7.51957e-12      362.894
       718.60000  7.51957e-12      362.518
       718.70000  7.51957e-12      362.142
       718.80000  7.42927e-12      357.422
       718.90000  7.42927e-12      357.051
       719.00000  7.42927e-12      356.679
       719.10000  7.42927e-12      356.679
       719.20000  7.42927e-12      356.679
       719.30000  7.42927e-12      356.679
       719.40000  7.42927e-12      356.754
       719.50000  3.85304e-12      185.023
       719.60000  3.85304e-12      185.061
       719.70000  3.85304e-12      185.061
       719.80000  3.85304e-12      185.100
       719.90000  3.85304e-12      185.138
       720.00000  3.85304e-12      185.215
       720.10000  3.85304e-12      185.254
       720.20000  3.85304e-12      185.292
       720.30000  3.85304e-12      185.370
       720.40000  3.85304e-12      185.408
       720.50000  3.48286e-12      167.665
       720.60000  3.48286e-12      167.735
       720.70000  3.48286e-12      167.804
       720.80000  3.48286e-12      167.874
       720.90000  3.48286e-12      167.978
       721.00000  3.48286e-12      168.048
       721.10000  3.48286e-12      168.222
       721.20000  3.48286e-12      168.396
       721.30000  3.44358e-12      166.669
       721.40000  3.44358e-12      166.807
       721.50000  3.13292e-12      151.916
       721.60000  3.13292e-12      152.041
       721.70000  3.13292e-12      152.166
       721.80000  3.13292e-12      152.323
       721.90000  3.13292e-12      152.448
       722.00000  3.13292e-12      152.542
       722.10000  3.13292e-12      152.667
       722.20000  3.13292e-12      152.793
       722.30000  3.13292e-12      152.887
       722.40000  3.13292e-12      152.981
       722.50000  6.59775e-12      322.366
       722.60000  6.59775e-12      322.630
       722.70000  6.59775e-12      322.762
       722.80000  6.59775e-12      322.960
       722.90000  6.59775e-12      323.158
       723.00000  6.59775e-12      323.290
       723.10000  6.59775e-12      323.487
       723.20000  6.59775e-12      323.619
       723.30000  6.59775e-12      323.751
       723.40000  6.59775e-12      323.883
       723.50000  1.03429e-11      507.941
       723.60000  1.03429e-11      508.044
       723.70000  1.03429e-11      508.251
       723.80000  1.02262e-11      502.616
       723.90000  1.02262e-11      502.719
       724.00000  1.02262e-11      502.821
       724.10000  1.02262e-11      502.923
       724.20000  1.02262e-11      503.025
       724.30000  1.02262e-11      503.128
       724.40000  1.02262e-11      503.230
       724.50000  6.87267e-12      338.204
       724.60000  6.87267e-12      338.204
       724.70000  6.87267e-12      338.204
       724.80000  6.87267e-12      338.204
       724.90000  6.87267e-12      338.204
       725.00000  6.87267e-12      338.204
       725.10000  6.87267e-12      338.342
       725.20000  6.87267e-12      338.479
       725.30000  6.87267e-12      338.548
       725.40000  6.87267e-12      338.685
       725.50000  3.34629e-12      164.939
       725.60000  3.34629e-12      164.972
       725.70000  3.34629e-12      164.972
       725.80000  3.34629e-12      165.006
       725.90000  3.34629e-12      165.006
       726.00000  3.34629e-12      165.006
       726.10000  3.34629e-12      165.006
       726.20000  3.34629e-12      165.006
       726.30000  3.30898e-12      163.133
       726.40000  3.30898e-12      163.099
       726.50000  2.11541e-12      104.247
       726.60000  2.11541e-12      104.226
       726.70000  2.11541e-12      104.205
       726.80000  2.11541e-12      104.163
       726.90000  2.11541e-12      104.120
       727.00000  2.11541e-12      104.078
       727.10000  2.11541e-12      103.930
       727.20000  2.11541e-12      103.782
       727.30000  2.11541e-12      103.634
       727.40000  2.11541e-12      103.507
       727.50000  1.77059e-12      86.5290
       727.60000  1.77059e-12      86.4227
       727.70000  1.77059e-12      86.3342
       727.80000  1.77059e-12      86.2457
       727.90000  1.77059e-12      86.1571
       728.00000  1.77059e-12      86.0863
       728.10000  1.77059e-12      86.0155
       728.20000  1.77059e-12      85.9447
       728.30000  1.77059e-12      85.8738
       728.40000  1.77059e-12      85.8207
       728.50000  6.42716e-13      31.1332
       728.60000  6.42716e-13      31.1203
       728.70000  6.42716e-13      31.1010
       728.80000  6.35548e-13      30.7478
       728.90000  6.35548e-13      30.7351
       729.00000  6.35548e-13      30.7288
       729.10000  6.35548e-13      30.7224
       729.20000  6.35548e-13      30.7161
       729.30000  6.35548e-13      30.7161
       729.40000  6.35548e-13      30.7097
       729.50000  2.80415e-12      135.525
       729.60000  2.80415e-12      135.525
       729.70000  2.80415e-12      135.553
       729.80000  2.80415e-12      135.581
       729.90000  2.80415e-12      135.637
       730.00000  2.80415e-12      135.693
       730.10000  2.80415e-12      135.749
       730.20000  2.80415e-12      135.805
       730.30000  2.80415e-12      135.889
       730.40000  2.80415e-12      135.973
       730.50000  1.18122e-12      57.3127
       730.60000  1.18122e-12      57.3599
       730.70000  1.18122e-12      57.4072
       730.80000  1.18122e-12      57.4544
       730.90000  1.18122e-12      57.5135
       731.00000  1.18122e-12      57.5725
       731.10000  1.18122e-12      57.5607
       731.20000  1.18122e-12      57.5489
       731.30000  1.16658e-12      56.8239
       731.40000  1.16658e-12      56.8239
       731.50000  8.40005e-12      409.082
       731.60000  8.40005e-12      408.998
       731.70000  8.40005e-12      408.914
       731.80000  8.40005e-12      408.914
       731.90000  8.40005e-12      408.830
       732.00000  8.40005e-12      408.746
       732.10000  8.40005e-12      408.662
       732.20000  8.40005e-12      408.578
       732.30000  8.40005e-12      408.578
       732.40000  8.40005e-12      408.494
       732.50000  3.99863e-12      194.413
       732.60000  3.99863e-12      194.373
       732.70000  3.99863e-12      194.333
       732.80000  3.99863e-12      194.293
       732.90000  3.99863e-12      194.253
       733.00000  3.99863e-12      194.213
       733.10000  3.99863e-12      194.173
       733.20000  3.99863e-12      194.093
       733.30000  3.99863e-12      194.053
       733.40000  3.99863e-12      193.973
       733.50000  8.16802e-12      396.149
       733.60000  8.16802e-12      396.067
       733.70000  8.16802e-12      395.904
       733.80000  8.05594e-12      390.391
       733.90000  8.05594e-12      390.310
       734.00000  8.05594e-12      390.230
       734.10000  8.05594e-12      390.149
       734.20000  8.05594e-12      390.069
       734.30000  8.05594e-12      389.988
       734.40000  8.05594e-12      389.988
       734.50000  5.30356e-12      256.693
       734.60000  5.30356e-12      256.639
       734.70000  5.30356e-12      256.639
       734.80000  5.30356e-12      256.586
       734.90000  5.30356e-12      256.586
       735.00000  5.30356e-12      256.533
       735.10000  5.30356e-12      256.533
       735.20000  5.30356e-12      256.533
       735.30000  5.30356e-12      256.533
       735.40000  5.30356e-12      256.480
       735.50000  5.22736e-12      252.795
       735.60000  5.22736e-12      252.795
       735.70000  5.22736e-12      252.795
       735.80000  5.22736e-12      252.848
       735.90000  5.22736e-12      252.848
       736.00000  5.22736e-12      252.848
       736.10000  5.22736e-12      252.848
       736.20000  5.22736e-12      252.900
       736.30000  5.14507e-12      248.918
       736.40000  5.14507e-12      248.970
       736.50000  4.05614e-12      196.277
       736.60000  4.05614e-12      196.317
       736.70000  4.05614e-12      196.358
       736.80000  4.05614e-12      196.358
       736.90000  4.05614e-12      196.398
       737.00000  4.05614e-12      196.439
       737.10000  4.05614e-12      196.236
       737.20000  4.05614e-12      195.993
       737.30000  4.05614e-12      195.790
       737.40000  4.05614e-12      195.587
       737.50000  3.91737e-12      188.661
       737.60000  3.91737e-12      188.465
       737.70000  3.91737e-12      188.269
       737.80000  3.91737e-12      188.073
       737.90000  3.91737e-12      187.916
       738.00000  3.91737e-12      187.720
       738.10000  3.91737e-12      187.525
       738.20000  3.91737e-12      187.329
       738.30000  3.91737e-12      187.172
       738.40000  3.91737e-12      187.015
       738.50000  5.16366e-12      246.255
       738.60000  5.16366e-12      246.049
       738.70000  5.16366e-12      245.842
       738.80000  5.07482e-12      241.409
       738.90000  5.07482e-12      241.206
       739.00000  5.07482e-12      241.003
       739.10000  5.07482e-12      240.597
       739.20000  5.07482e-12      240.242
       739.30000  5.07482e-12      239.937
       739.40000  5.07482e-12      239.633
       739.50000  2.88423e-12      136.020
       739.60000  2.88423e-12      135.876
       739.70000  2.88423e-12      135.761
       739.80000  2.88423e-12      135.617
       739.90000  2.88423e-12      135.530
       740.00000  2.88423e-12      135.415
       740.10000  2.88423e-12      135.357
       740.20000  2.88423e-12      135.270
       740.30000  2.88423e-12      135.213
       740.40000  2.88423e-12      135.184
       740.50000  2.22030e-12      104.043
       740.60000  2.22030e-12      104.021
       740.70000  2.22030e-12      104.021
       740.80000  2.22030e-12      104.021
       740.90000  2.22030e-12      104.043
       741.00000  2.22030e-12      104.066
       741.10000  2.22030e-12      104.110
       741.20000  2.22030e-12      104.154
       741.30000  2.18192e-12      102.398
       741.40000  2.18192e-12      102.463
       741.50000  5.60297e-13      26.3284
       741.60000  5.60297e-13      26.3508
       741.70000  5.60297e-13      26.3788
       741.80000  5.60297e-13      26.4012
       741.90000  5.60297e-13      26.4348
       742.00000  5.60297e-13      26.4628
       742.10000  5.60297e-13      26.4965
       742.20000  5.60297e-13      26.5357
       742.30000  5.60297e-13      26.5749
       742.40000  5.60297e-13      26.6141
       742.50000  6.10548e-12      290.499
       742.60000  6.10548e-12      290.987
       742.70000  6.10548e-12      291.537
       742.80000  6.10548e-12      292.086
       742.90000  6.10548e-12      292.697
       743.00000  6.10548e-12      293.307
       743.10000  6.10548e-12      293.185
       743.20000  6.10548e-12      293.124
       743.30000  6.10548e-12      293.063
       743.40000  6.10548e-12      292.941
       743.50000  2.59323e-12      124.397
       743.60000  2.59323e-12      124.372
       743.70000  2.59323e-12      124.346
       743.80000  2.55321e-12      122.401
       743.90000  2.55321e-12      122.375
       744.00000  2.55321e-12      122.350
       744.10000  2.55321e-12      122.350
       744.20000  2.55321e-12      122.324
       744.30000  2.55321e-12      122.324
       744.40000  2.55321e-12      122.324
       744.50000  2.63881e-13      12.6399
       744.60000  2.63881e-13      12.6399
       744.70000  2.63881e-13      12.6399
       744.80000  2.63881e-13      12.6399
       744.90000  2.63881e-13      12.6425
       745.00000  2.63881e-13      12.6425
       745.10000  2.63881e-13      12.6505
       745.20000  2.63881e-13      12.6584
       745.30000  2.63881e-13      12.6636
       745.40000  2.63881e-13      12.6716
       745.50000  3.88919e-12      186.837
       745.60000  3.88919e-12      186.915
       745.70000  3.88919e-12      186.992
       745.80000  3.88919e-12      187.070
       745.90000  3.88919e-12      187.109
       746.00000  3.88919e-12      187.187
       746.10000  3.88919e-12      187.226
       746.20000  3.88919e-12      187.265
       746.30000  3.84454e-12      185.153
       746.40000  3.84454e-12      185.191
       746.50000  3.11006e-13      14.9843
       746.60000  3.11006e-13      14.9843
       746.70000  3.11006e-13      14.9874
       746.80000  3.11006e-13      14.9874
       746.90000  3.11006e-13      14.9874
       747.00000  3.11006e-13      14.9874
       747.10000  3.11006e-13      14.9780
       747.20000  3.11006e-13      14.9718
       747.30000  3.11006e-13      14.9656
       747.40000  3.11006e-13      14.9594
       747.50000  8.31952e-13      40.0003
       747.60000  8.31952e-13      39.9836
       747.70000  8.31952e-13      39.9670
       747.80000  8.31952e-13      39.9504
       747.90000  8.31952e-13      39.9337
       748.00000  8.31952e-13      39.9171
       748.10000  8.31952e-13      39.9088
       748.20000  8.31952e-13      39.8921
       748.30000  8.31952e-13      39.8755
       748.40000  8.31952e-13      39.8672
       748.50000  1.74082e-13      8.33851
       748.60000  1.74082e-13      8.33503
       748.70000  1.74082e-13      8.33329
       748.80000  1.72094e-13      8.23469
       748.90000  1.72094e-13      8.23297
       749.00000  1.72094e-13      8.23125
       749.10000  1.72094e-13      8.22781
       749.20000  1.72094e-13      8.22609
       749.30000  1.72094e-13      8.22436
       749.40000  1.72094e-13      8.22264
       749.50000  3.32242e-12      158.712
       749.60000  3.32242e-12      158.679
       749.70000  3.32242e-12      158.613
       749.80000  3.32242e-12      158.579
       749.90000  3.32242e-12      158.579
       750.00000  3.32242e-12      158.546
       750.10000  3.32242e-12      158.513
       750.20000  3.32242e-12      158.480
       750.30000  3.32242e-12      158.446
       750.40000  3.32242e-12      158.446
       750.50000  6.84409e-12      326.326
       750.60000  6.84409e-12      326.258
       750.70000  6.84409e-12      326.258
       750.80000  6.84409e-12      326.189
       750.90000  6.84409e-12      326.189
       751.00000  6.84409e-12      326.121
       751.10000  6.84409e-12      326.121
       751.20000  6.84409e-12      326.121
       751.30000  6.75631e-12      321.871
       751.40000  6.75631e-12      321.871
       751.50000  4.10928e-12      195.766
       751.60000  4.10928e-12      195.766
       751.70000  4.10928e-12      195.766
       751.80000  4.10928e-12      195.766
       751.90000  4.10928e-12      195.766
       752.00000  4.10928e-12      195.766
       752.10000  4.10928e-12      195.766
       752.20000  4.10928e-12      195.766
       752.30000  4.10928e-12      195.766
       752.40000  4.10928e-12      195.766
       752.50000  9.30512e-13      44.3389
       752.60000  9.30512e-13      44.3389
       752.70000  9.30512e-13      44.3389
       752.80000  9.30512e-13      44.3482
       752.90000  9.30512e-13      44.3482
       753.00000  9.30512e-13      44.3575
       753.10000  9.30512e-13      44.3575
       753.20000  9.30512e-13      44.3575
       753.30000  9.30512e-13      44.3575
       753.40000  9.30512e-13      44.3575
       753.50000  4.67661e-12      222.934
       753.60000  4.67661e-12      222.934
       753.70000  4.67661e-12      222.934
       753.80000  4.61078e-12      219.796
       753.90000  4.61078e-12      219.796
       754.00000  4.61078e-12      219.796
       754.10000  4.61078e-12      219.796
       754.20000  4.61078e-12      219.750
       754.30000  4.61078e-12      219.750
       754.40000  4.61078e-12      219.750
       754.50000  4.09863e-13      19.5341
       754.60000  4.09863e-13      19.5341
       754.70000  4.09863e-13      19.5300
       754.80000  4.09863e-13      19.5300
       754.90000  4.09863e-13      19.5259
       755.00000  4.09863e-13      19.5259
       755.10000  4.09863e-13      19.5218
       755.20000  4.09863e-13      19.5218
       755.30000  4.09863e-13      19.5177
       755.40000  4.09863e-13      19.5177
       755.50000  3.67022e-12      174.739
       755.60000  3.67022e-12      174.702
       755.70000  3.67022e-12      174.702
       755.80000  3.67022e-12      174.666
       755.90000  3.67022e-12      174.629
       756.00000  3.67022e-12      174.629
       756.10000  3.67022e-12      174.592
       756.20000  3.67022e-12      174.555
       756.30000  3.61742e-12      172.008
       756.40000  3.61742e-12      172.008
       756.50000  1.15884e-12      55.0913
       756.60000  1.15884e-12      55.0797
       756.70000  1.15884e-12      55.0681
       756.80000  1.15884e-12      55.0681
       756.90000  1.15884e-12      55.0566
       757.00000  1.15884e-12      55.0450
       757.10000  1.15884e-12      55.0334
       757.20000  1.15884e-12      55.0218
       757.30000  1.15884e-12      55.0218
       757.40000  1.15884e-12      55.0102
       757.50000  1.40423e-12      66.6448
       757.60000  1.40423e-12      66.6307
       757.70000  1.40423e-12      66.6167
       757.80000  1.40423e-12      66.6026
       757.90000  1.40423e-12      66.5886
       758.00000  1.40423e-12      66.5886
       758.10000  1.40423e-12      66.5746
       758.20000  1.40423e-12      66.5605
       758.30000  1.40423e-12      66.5465
       758.40000  1.40423e-12      66.5324
       758.50000  3.90501e-12      184.980
       758.60000  3.90501e-12      184.941
       758.70000  3.90501e-12      184.902
       758.80000  3.83590e-12      181.592
       758.90000  3.83590e-12      181.553
       759.00000  3.83590e-12      181.515
       759.10000  3.83590e-12      181.515
       759.20000  3.83590e-12      181.477
       759.30000  3.83590e-12      181.477
       759.40000  3.83590e-12      181.438
       759.50000  1.04759e-13      4.95511
       759.60000  1.04759e-13      4.95511
       759.70000  1.04759e-13      4.95406
       759.80000  1.04759e-13      4.95406
       759.90000  1.04759e-13      4.95406
       760.00000  1.04759e-13      4.95406
       760.10000  1.04759e-13      4.95406
       760.20000  1.04759e-13      4.95406
       760.30000  1.04759e-13      4.95511
       760.40000  1.04759e-13      4.95511
       760.50000  1.33151e-13      6.29806
       760.60000  1.33151e-13      6.29939
       760.70000  1.33151e-13      6.29939
       760.80000  1.33151e-13      6.30072
       760.90000  1.33151e-13      6.30072
       761.00000  1.33151e-13      6.30206
       761.10000  1.33151e-13      6.30738
       761.20000  1.33151e-13      6.31138
       761.30000  1.30407e-13      6.18522
       761.40000  1.30407e-13      6.18913
       761.50000  3.55471e-12      168.813
       761.60000  3.55471e-12      168.884
       761.70000  3.55471e-12      168.955
       761.80000  3.55471e-12      169.026
       761.90000  3.55471e-12      169.097
       762.00000  3.55471e-12      169.133
       762.10000  3.55471e-12      169.204
       762.20000  3.55471e-12      169.240
       762.30000  3.55471e-12      169.275
       762.40000  3.55471e-12      169.275
       762.50000  2.88917e-12      137.582
       762.60000  2.88917e-12      137.611
       762.70000  2.88917e-12      137.611
       762.80000  2.88917e-12      137.582
       762.90000  2.88917e-12      137.582
       763.00000  2.88917e-12      137.553
       763.10000  2.88917e-12      137.525
       763.20000  2.88917e-12      137.496
       763.30000  2.88917e-12      137.438
       763.40000  2.88917e-12      137.380
       763.50000  3.61274e-12      171.714
       763.60000  3.61274e-12      171.641
       763.70000  3.61274e-12      171.569
       763.80000  3.52241e-12      167.174
       763.90000  3.52241e-12      167.068
       764.00000  3.52241e-12      166.962
       764.10000  3.52241e-12      166.857
       764.20000  3.52241e-12      166.716
       764.30000  3.52241e-12      166.575
       764.40000  3.52241e-12      166.434
       764.50000  3.08021e-12      145.417
       764.60000  3.08021e-12      145.293
       764.70000  3.08021e-12      145.139
       764.80000  3.08021e-12      144.985
       764.90000  3.08021e-12      144.831
       765.00000  3.08021e-12      144.647
       765.10000  3.08021e-12      144.308
       765.20000  3.08021e-12      143.969
       765.30000  3.08021e-12      143.661
       765.40000  3.08021e-12      143.353
       765.50000  4.75748e-12      220.985
       765.60000  4.75748e-12      220.604
       765.70000  4.75748e-12      220.176
       765.80000  4.75748e-12      219.843
       765.90000  4.75748e-12      219.510
       766.00000  4.75748e-12      219.177
       766.10000  4.75748e-12      218.892
       766.20000  4.75748e-12      218.606
       766.30000  4.64003e-12      212.977
       766.40000  4.64003e-12      212.792
       766.50000  1.19802e-12      54.8933
       766.60000  1.19802e-12      54.8454
       766.70000  1.19802e-12      54.8214
       766.80000  1.19802e-12      54.7855
       766.90000  1.19802e-12      54.7615
       767.00000  1.19802e-12      54.7496
       767.10000  1.19802e-12      54.8095
       767.20000  1.19802e-12      54.8813
       767.30000  1.19802e-12      54.9412
       767.40000  1.19802e-12      55.0011
       767.50000  2.26266e-12      103.992
       767.60000  2.26266e-12      104.105
       767.70000  2.26266e-12      104.218
       767.80000  2.26266e-12      104.309
       767.90000  2.26266e-12      104.422
       768.00000  2.26266e-12      104.512
       768.10000  2.26266e-12      104.603
       768.20000  2.26266e-12      104.693
       768.30000  2.26266e-12      104.761
       768.40000  2.26266e-12      104.852
       768.50000  4.01772e-12      186.302
       768.60000  4.01772e-12      186.422
       768.70000  4.01772e-12      186.543
       768.80000  3.92635e-12      182.418
       768.90000  3.92635e-12      182.536
       769.00000  3.92635e-12      182.615
       769.10000  3.92635e-12      182.732
       769.20000  3.92635e-12      182.811
       769.30000  3.92635e-12      182.890
       769.40000  3.92635e-12      182.968
       769.50000  3.64197e-12      169.752
       769.60000  3.64197e-12      169.825
       769.70000  3.64197e-12      169.861
       769.80000  3.64197e-12      169.934
       769.90000  3.64197e-12      169.971
       770.00000  3.64197e-12      169.971
       770.10000  3.64197e-12      170.007
       770.20000  3.64197e-12      170.044
       770.30000  3.64197e-12      170.044
       770.40000  3.64197e-12      170.044
       770.50000  7.24861e-13      33.8437
       770.60000  7.24861e-13      33.8437
       770.70000  7.24861e-13      33.8437
       770.80000  7.24861e-13      33.8437
       770.90000  7.24861e-13      33.8365
       771.00000  7.24861e-13      33.8292
       771.10000  7.24861e-13      33.8582
       771.20000  7.24861e-13      33.8800
       771.30000  7.11196e-13      33.2626
       771.40000  7.11196e-13      33.2840
       771.50000  3.85430e-12      180.497
       771.60000  3.85430e-12      180.574
       771.70000  3.85430e-12      180.689
       771.80000  3.85430e-12      180.767
       771.90000  3.85430e-12      180.805
       772.00000  3.85430e-12      180.882
       772.10000  3.85430e-12      180.921
       772.20000  3.85430e-12      180.959
       772.30000  3.85430e-12      180.998
       772.40000  3.85430e-12      181.036
       772.50000  2.91197e-12      136.775
       772.60000  2.91197e-12      136.775
       772.70000  2.91197e-12      136.775
       772.80000  2.91197e-12      136.746
       772.90000  2.91197e-12      136.746
       773.00000  2.91197e-12      136.717
       773.10000  2.91197e-12      136.542
       773.20000  2.91197e-12      136.397
       773.30000  2.91197e-12      136.222
       773.40000  2.91197e-12      136.076
       773.50000  2.06621e-12      96.4505
       773.60000  2.06621e-12      96.3679
       773.70000  2.06621e-12      96.2852
       773.80000  2.03396e-12      94.7010
       773.90000  2.03396e-12      94.6197
       774.00000  2.03396e-12      94.5383
       774.10000  2.03396e-12      94.4773
       774.20000  2.03396e-12      94.4163
       774.30000  2.03396e-12      94.3756
       774.40000  2.03396e-12      94.3146
       774.50000  1.42603e-12      66.0966
       774.60000  1.42603e-12      66.0823
       774.70000  1.42603e-12      66.0538
       774.80000  1.42603e-12      66.0395
       774.90000  1.42603e-12      66.0253
       775.00000  1.42603e-12      66.0110
       775.10000  1.42603e-12      66.0110
       775.20000  1.42603e-12      66.0110
       775.30000  1.42603e-12      66.0110
       775.40000  1.42603e-12      66.0110
       775.50000  2.45391e-12      113.616
       775.60000  2.45391e-12      113.640
       775.70000  2.45391e-12      113.665
       775.80000  2.45391e-12      113.690
       775.90000  2.45391e-12      113.739
       776.00000  2.45391e-12      113.788
       776.10000  2.45391e-12      113.837
       776.20000  2.45391e-12      113.910
       776.30000  2.41839e-12      112.334
       776.40000  2.41839e-12      112.407
       776.50000  7.86158e-13      36.5642
       776.60000  7.86158e-13      36.5956
       776.70000  7.86158e-13      36.6271
       776.80000  7.86158e-13      36.6585
       776.90000  7.86158e-13      36.6978
       777.00000  7.86158e-13      36.7293
       777.10000  7.86158e-13      36.7136
       777.20000  7.86158e-13      36.7057
       777.30000  7.86158e-13      36.6900
       777.40000  7.86158e-13      36.6743
       777.50000  2.24325e-12      104.603
       777.60000  2.24325e-12      104.580
       777.70000  2.24325e-12      104.536
       777.80000  2.24325e-12      104.513
       777.90000  2.24325e-12      104.491
       778.00000  2.24325e-12      104.446
       778.10000  2.24325e-12      104.423
       778.20000  2.24325e-12      104.401
       778.30000  2.24325e-12      104.379
       778.40000  2.24325e-12      104.356
       778.50000  2.12832e-12      99.0092
       778.60000  2.12832e-12      98.9880
       778.70000  2.12832e-12      98.9667
       778.80000  2.10432e-12      97.8507
       778.90000  2.10432e-12      97.8507
       779.00000  2.10432e-12      97.8296
       779.10000  2.10432e-12      97.8717
       779.20000  2.10432e-12      97.8928
       779.30000  2.10432e-12      97.9349
       779.40000  2.10432e-12      97.9559
       779.50000  2.03054e-12      94.5421
       779.60000  2.03054e-12      94.5624
       779.70000  2.03054e-12      94.5827
       779.80000  2.03054e-12      94.6030
       779.90000  2.03054e-12      94.6233
       780.00000  2.03054e-12      94.6436
       780.10000  2.03054e-12      94.6436
       780.20000  2.03054e-12      94.6639
       780.30000  2.03054e-12      94.6639
       780.40000  2.03054e-12      94.6639
       780.50000  1.05147e-12      49.0193
       780.60000  1.05147e-12      49.0193
       780.70000  1.05147e-12      49.0193
       780.80000  1.05147e-12      49.0193
       780.90000  1.05147e-12      49.0193
       781.00000  1.05147e-12      49.0088
       781.10000  1.05147e-12      49.0088
       781.20000  1.05147e-12      48.9983
       781.30000  1.04198e-12      48.5459
       781.40000  1.04198e-12      48.5355
       781.50000  3.16648e-12      147.463
       781.60000  3.16648e-12      147.431
       781.70000  3.16648e-12      147.400
       781.80000  3.16648e-12      147.368
       781.90000  3.16648e-12      147.305
       782.00000  3.16648e-12      147.273
       782.10000  3.16648e-12      147.210
       782.20000  3.16648e-12      147.146
       782.30000  3.16648e-12      147.115
       782.40000  3.16648e-12      147.051
       782.50000  2.31624e-12      107.520
       782.60000  2.31624e-12      107.450
       782.70000  2.31624e-12      107.404
       782.80000  2.31624e-12      107.358
       782.90000  2.31624e-12      107.288
       783.00000  2.31624e-12      107.242
       783.10000  2.31624e-12      107.288
       783.20000  2.31624e-12      107.334
       783.30000  2.31624e-12      107.381
       783.40000  2.31624e-12      107.404
       783.50000  4.34025e-12      201.344
       783.60000  4.34025e-12      201.431
       783.70000  4.34025e-12      201.474
       783.80000  4.30066e-12      199.723
       783.90000  4.30066e-12      199.809
       784.00000  4.30066e-12      199.852
       784.10000  4.30066e-12      199.895
       784.20000  4.30066e-12      199.981
       784.30000  4.30066e-12      200.024
       784.40000  4.30066e-12      200.067
       784.50000  3.33297e-13      15.5083
       784.60000  3.33297e-13      15.5117
       784.70000  3.33297e-13      15.5150
       784.80000  3.33297e-13      15.5183
       784.90000  3.33297e-13      15.5217
       785.00000  3.33297e-13      15.5217
       785.10000  3.33297e-13      15.5217
       785.20000  3.33297e-13      15.5217
       785.30000  3.33297e-13      15.5217
       785.40000  3.33297e-13      15.5217
       785.50000  1.29337e-12      60.2322
       785.60000  1.29337e-12      60.2322
       785.70000  1.29337e-12      60.2322
       785.80000  1.29337e-12      60.2322
       785.90000  1.29337e-12      60.2322
       786.00000  1.29337e-12      60.2322
       786.10000  1.29337e-12      60.2322
       786.20000  1.29337e-12      60.2322
       786.30000  1.27814e-12      59.5228
       786.40000  1.27814e-12      59.5228
       786.50000  5.04736e-12      235.055
       786.60000  5.04736e-12      235.055
       786.70000  5.04736e-12      235.055
       786.80000  5.04736e-12      235.055
       786.90000  5.04736e-12      235.055
       787.00000  5.04736e-12      235.055
       787.10000  5.04736e-12      235.055
       787.20000  5.04736e-12      235.055
       787.30000  5.04736e-12      235.055
       787.40000  5.04736e-12      235.055
       787.50000  2.31342e-12      107.736
       787.60000  2.31342e-12      107.736
       787.70000  2.31342e-12      107.736
       787.80000  2.31342e-12      107.736
       787.90000  2.31342e-12      107.736
       788.00000  2.31342e-12      107.736
       788.10000  2.31342e-12      107.736
       788.20000  2.31342e-12      107.736
       788.30000  2.31342e-12      107.736
       788.40000  2.31342e-12      107.736
       788.50000  1.67518e-12      78.0130
       788.60000  1.67518e-12      78.0130
       788.70000  1.67518e-12      78.0130
       788.80000  1.65476e-12      77.0623
       788.90000  1.65476e-12      77.0623
       789.00000  1.65476e-12      77.0623
       789.10000  1.65476e-12      77.0293
       789.20000  1.65476e-12      76.9796
       789.30000  1.65476e-12      76.9300
       789.40000  1.65476e-12      76.8969
       789.50000  2.23092e-12      103.604
       789.60000  2.23092e-12      103.537
       789.70000  2.23092e-12      103.492
       789.80000  2.23092e-12      103.426
       789.90000  2.23092e-12      103.359
       790.00000  2.23092e-12      103.314
       790.10000  2.23092e-12      103.247
       790.20000  2.23092e-12      103.202
       790.30000  2.23092e-12      103.136
       790.40000  2.23092e-12      103.091
       790.50000  2.09837e-12      96.9029
       790.60000  2.09837e-12      96.8400
       790.70000  2.09837e-12      96.7980
       790.80000  2.09837e-12      96.7350
       790.90000  2.09837e-12      96.6931
       791.00000  2.09837e-12      96.6301
       791.10000  2.09837e-12      96.5672
       791.20000  2.09837e-12      96.5252
       791.30000  2.06661e-12      95.0022
       791.40000  2.06661e-12      94.9402
       791.50000  2.00013e-12      91.8258
       791.60000  2.00013e-12      91.7658
       791.70000  2.00013e-12      91.7258
       791.80000  2.00013e-12      91.6658
       791.90000  2.00013e-12      91.6258
       792.00000  2.00013e-12      91.5658
       792.10000  2.00013e-12      91.5258
       792.20000  2.00013e-12      91.4858
       792.30000  2.00013e-12      91.4258
       792.40000  2.00013e-12      91.3858
       792.50000  3.47821e-12      158.850
       792.60000  3.47821e-12      158.780
       792.70000  3.47821e-12      158.711
       792.80000  3.47821e-12      158.641
       792.90000  3.47821e-12      158.572
       793.00000  3.47821e-12      158.502
       793.10000  3.47821e-12      158.398
       793.20000  3.47821e-12      158.259
       793.30000  3.47821e-12      158.154
       793.40000  3.47821e-12      158.050
       793.50000  2.32162e-13      10.5425
       793.60000  2.32162e-13      10.5378
       793.70000  2.32162e-13      10.5308
       793.80000  2.28146e-13      10.3464
       793.90000  2.28146e-13      10.3418
       794.00000  2.28146e-13      10.3396
       794.10000  2.28146e-13      10.3350
       794.20000  2.28146e-13      10.3350
       794.30000  2.28146e-13      10.3327
       794.40000  2.28146e-13      10.3327
       794.50000  4.17890e-12      189.262
       794.60000  4.17890e-12      189.262
       794.70000  4.17890e-12      189.304
       794.80000  4.17890e-12      189.304
       794.90000  4.17890e-12      189.346
       795.00000  4.17890e-12      189.430
       795.10000  4.17890e-12      189.722
       795.20000  4.17890e-12      190.015
       795.30000  4.17890e-12      190.307
       795.40000  4.17890e-12      190.600
       795.50000  3.52325e-12      160.907
       795.60000  3.52325e-12      161.118
       795.70000  3.52325e-12      161.295
       795.80000  3.52325e-12      161.471
       795.90000  3.52325e-12      161.647
       796.00000  3.52325e-12      161.788
       796.10000  3.52325e-12      161.929
       796.20000  3.52325e-12      162.070
       796.30000  3.44952e-12      158.782
       796.40000  3.44952e-12      158.885
       796.50000  2.12715e-12      98.0404
       796.60000  2.12715e-12      98.0829
       796.70000  2.12715e-12      98.1255
       796.80000  2.12715e-12      98.1468
       796.90000  2.12715e-12      98.1680
       797.00000  2.12715e-12      98.1893
       797.10000  2.12715e-12      98.2106
       797.20000  2.12715e-12      98.2106
       797.30000  2.12715e-12      98.2106
       797.40000  2.12715e-12      98.1893
       797.50000  1.39156e-12      64.2203
       797.60000  1.39156e-12      64.2064
       797.70000  1.39156e-12      64.1786
       797.80000  1.39156e-12      64.1507
       797.90000  1.39156e-12      64.1229
       798.00000  1.39156e-12      64.0811
       798.10000  1.39156e-12      64.0394
       798.20000  1.39156e-12      63.9976
       798.30000  1.39156e-12      63.9420
       798.40000  1.39156e-12      63.8863
       798.50000  1.52382e-12      69.8977
       798.60000  1.52382e-12      69.8215
       798.70000  1.52382e-12      69.7453
       798.80000  1.48835e-12      68.0473
       798.90000  1.48835e-12      67.9580
       799.00000  1.48835e-12      67.8687
       799.10000  1.48835e-12      67.9133
       799.20000  1.48835e-12      67.9728
       799.30000  1.48835e-12      68.0324
       799.40000  1.48835e-12      68.0770
       799.50000  2.41778e-12      110.662
       799.60000  2.41778e-12      110.734
       799.70000  2.41778e-12      110.807
       799.80000  2.41778e-12      110.855
       799.90000  2.41778e-12      110.903
       800.00000  2.41778e-12      110.952
       800.10000  2.41778e-12      111.000
       800.20000  2.41778e-12      111.049
       800.30000  2.41778e-12      111.097
       800.40000  2.41778e-12      111.121
       800.50000  2.78079e-12      127.833
       800.60000  2.78079e-12      127.861
       800.70000  2.78079e-12      127.861
       800.80000  2.78079e-12      127.888
       800.90000  2.78079e-12      127.888
       801.00000  2.78079e-12      127.888
       801.10000  2.78079e-12      127.833
       801.20000  2.78079e-12      127.777
       801.30000  2.71669e-12      124.777
       801.40000  2.71669e-12      124.723
       801.50000  2.43283e-12      111.642
       801.60000  2.43283e-12      111.594
       801.70000  2.43283e-12      111.545
       801.80000  2.43283e-12      111.496
       801.90000  2.43283e-12      111.448
       802.00000  2.43283e-12      111.399
       802.10000  2.43283e-12      111.350
       802.20000  2.43283e-12      111.302
       802.30000  2.43283e-12      111.253
       802.40000  2.43283e-12      111.204
       802.50000  2.49948e-12      114.201
       802.60000  2.49948e-12      114.151
       802.70000  2.49948e-12      114.101
       802.80000  2.49948e-12      114.026
       802.90000  2.49948e-12      113.976
       803.00000  2.49948e-12      113.926
       803.10000  2.49948e-12      113.876
       803.20000  2.49948e-12      113.826
       803.30000  2.49948e-12      113.776
       803.40000  2.49948e-12      113.701
       803.50000  2.61618e-12      118.958
       803.60000  2.61618e-12      118.905
       803.70000  2.61618e-12      118.853
       803.80000  2.55487e-12      116.016
       803.90000  2.55487e-12      115.940
       804.00000  2.55487e-12      115.889
       804.10000  2.55487e-12      115.838
       804.20000  2.55487e-12      115.787
       804.30000  2.55487e-12      115.710
       804.40000  2.55487e-12      115.659
       804.50000  1.73029e-12      78.2957
       804.60000  1.73029e-12      78.2437
       804.70000  1.73029e-12      78.2091
       804.80000  1.73029e-12      78.1745
       804.90000  1.73029e-12      78.1226
       805.00000  1.73029e-12      78.0880
       805.10000  1.73029e-12      78.1572
       805.20000  1.73029e-12      78.2437
       805.30000  1.73029e-12      78.2957
       805.40000  1.73029e-12      78.3649
       805.50000  2.28801e-12      103.693
       805.60000  2.28801e-12      103.761
       805.70000  2.28801e-12      103.830
       805.80000  2.28801e-12      103.876
       805.90000  2.28801e-12      103.921
       806.00000  2.28801e-12      103.967
       806.10000  2.28801e-12      103.990
       806.20000  2.28801e-12      104.013
       806.30000  2.23073e-12      101.431
       806.40000  2.23073e-12      101.454
       806.50000  2.28228e-12      103.798
       806.60000  2.28228e-12      103.798
       806.70000  2.28228e-12      103.775
       806.80000  2.28228e-12      103.775
       806.90000  2.28228e-12      103.752
       807.00000  2.28228e-12      103.707
       807.10000  2.28228e-12      103.524
       807.20000  2.28228e-12      103.319
       807.30000  2.28228e-12      103.136
       807.40000  2.28228e-12      102.976
       807.50000  7.82799e-13      35.2651
       807.60000  7.82799e-13      35.2103
       807.70000  7.82799e-13      35.1633
       807.80000  7.82799e-13      35.1242
       807.90000  7.82799e-13      35.0851
       808.00000  7.82799e-13      35.0459
       808.10000  7.82799e-13      35.0146
       808.20000  7.82799e-13      34.9833
       808.30000  7.82799e-13      34.9520
       808.40000  7.82799e-13      34.9285
       808.50000  1.08667e-12      48.4654
       808.60000  1.08667e-12      48.4436
       808.70000  1.08667e-12      48.4219
       808.80000  1.05957e-12      47.2039
       808.90000  1.05957e-12      47.1933
       809.00000  1.05957e-12      47.1933
       809.10000  1.05957e-12      47.1933
       809.20000  1.05957e-12      47.2039
       809.30000  1.05957e-12      47.2145
       809.40000  1.05957e-12      47.2251
       809.50000  2.23535e-12      99.6743
       809.60000  2.23535e-12      99.7414
       809.70000  2.23535e-12      99.8084
       809.80000  2.23535e-12      99.8755
       809.90000  2.23535e-12      99.9649
       810.00000  2.23535e-12      100.054
       810.10000  2.23535e-12      100.166
       810.20000  2.23535e-12      100.278
       810.30000  2.23535e-12      100.390
       810.40000  2.23535e-12      100.524
       810.50000  4.37616e-13      19.7102
       810.60000  4.37616e-13      19.7365
       810.70000  4.37616e-13      19.7715
       810.80000  4.37616e-13      19.8065
       810.90000  4.37616e-13      19.8415
       811.00000  4.37616e-13      19.8809
       811.10000  4.37616e-13      19.8853
       811.20000  4.37616e-13      19.8940
       811.30000  4.26551e-13      19.3953
       811.40000  4.26551e-13      19.4038
       811.50000  1.39812e-13      6.36143
       811.60000  1.39812e-13      6.36283
       811.70000  1.39812e-13      6.36423
       811.80000  1.39812e-13      6.36563
       811.90000  1.39812e-13      6.36703
       812.00000  1.39812e-13      6.36843
       812.10000  1.39812e-13      6.36843
       812.20000  1.39812e-13      6.36982
       812.30000  1.39812e-13      6.37122
       812.40000  1.39812e-13      6.37122
       812.50000  1.34783e-12      61.4204
       812.60000  1.34783e-12      61.4339
       812.70000  1.34783e-12      61.4339
       812.80000  1.34783e-12      61.4339
       812.90000  1.34783e-12      61.4339
       813.00000  1.34783e-12      61.4339
       813.10000  1.34783e-12      61.4069
       813.20000  1.34783e-12      61.3935
       813.30000  1.34783e-12      61.3665
       813.40000  1.34783e-12      61.3530
       813.50000  1.07226e-12      48.7879
       813.60000  1.07226e-12      48.7772
       813.70000  1.07226e-12      48.7664
       813.80000  1.04618e-12      47.5696
       813.90000  1.04618e-12      47.5592
       814.00000  1.04618e-12      47.5382
       814.10000  1.04618e-12      47.5278
       814.20000  1.04618e-12      47.5173
       814.30000  1.04618e-12      47.5068
       814.40000  1.04618e-12      47.5068
       814.50000  4.58932e-13      20.8355
       814.60000  4.58932e-13      20.8309
       814.70000  4.58932e-13      20.8263
       814.80000  4.58932e-13      20.8217
       814.90000  4.58932e-13      20.8217
       815.00000  4.58932e-13      20.8171
       815.10000  4.58932e-13      20.8355
       815.20000  4.58932e-13      20.8493
       815.30000  4.58932e-13      20.8630
       815.40000  4.58932e-13      20.8722
       815.50000  9.48185e-13      43.1519
       815.60000  9.48185e-13      43.1614
       815.70000  9.48185e-13      43.1804
       815.80000  9.48185e-13      43.1804
       815.90000  9.48185e-13      43.1898
       816.00000  9.48185e-13      43.1898
       816.10000  9.48185e-13      43.1898
       816.20000  9.48185e-13      43.1804
       816.30000  9.24353e-13      42.0858
       816.40000  9.24353e-13      42.0765
       816.50000  9.83856e-13      44.7655
       816.60000  9.83856e-13      44.7458
       816.70000  9.83856e-13      44.7163
       816.80000  9.83856e-13      44.6867
       816.90000  9.83856e-13      44.6572
       817.00000  9.83856e-13      44.6179
       817.10000  9.83856e-13      44.4801
       817.20000  9.83856e-13      44.3522
       817.30000  9.83856e-13      44.2342
       817.40000  9.83856e-13      44.1161
       817.50000  7.65249e-13      34.2296
       817.60000  7.65249e-13      34.1531
       817.70000  7.65249e-13      34.0765
       817.80000  7.65249e-13      34.0000
       817.90000  7.65249e-13      33.9388
       818.00000  7.65249e-13      33.8699
       818.10000  7.65249e-13      33.8163
       818.20000  7.65249e-13      33.7628
       818.30000  7.65249e-13      33.7092
       818.40000  7.65249e-13      33.6710
       818.50000  1.87130e-12      82.2250
       818.60000  1.87130e-12      82.1502
       818.70000  1.87130e-12      82.0753
       818.80000  1.82389e-12      79.9231
       818.90000  1.82389e-12      79.8866
       819.00000  1.82389e-12      79.8319
       819.10000  1.82389e-12      79.8136
       819.20000  1.82389e-12      79.7954
       819.30000  1.82389e-12      79.7772
       819.40000  1.82389e-12      79.7772
       819.50000  1.42449e-12      62.3214
       819.60000  1.42449e-12      62.3357
       819.70000  1.42449e-12      62.3642
       819.80000  1.42449e-12      62.4069
       819.90000  1.42449e-12      62.4496
       820.00000  1.42449e-12      62.5066
       820.10000  1.42449e-12      62.5636
       820.20000  1.42449e-12      62.6348
       820.30000  1.42449e-12      62.7203
       820.40000  1.42449e-12      62.8058
       820.50000  1.60064e-12      70.6843
       820.60000  1.60064e-12      70.7963
       820.70000  1.60064e-12      70.9244
       820.80000  1.60064e-12      71.0524
       820.90000  1.60064e-12      71.1965
       821.00000  1.60064e-12      71.3566
       821.10000  1.60064e-12      71.3246
       821.20000  1.60064e-12      71.3085
       821.30000  1.56373e-12      69.6327
       821.40000  1.56373e-12      69.6171
       821.50000  9.64480e-13      42.9193
       821.60000  9.64480e-13      42.9097
       821.70000  9.64480e-13      42.9001
       821.80000  9.64480e-13      42.8808
       821.90000  9.64480e-13      42.8711
       822.00000  9.64480e-13      42.8615
       822.10000  9.64480e-13      42.8615
       822.20000  9.64480e-13      42.8518
       822.30000  9.64480e-13      42.8422
       822.40000  9.64480e-13      42.8422
       822.50000  9.84478e-13      43.7207
       822.60000  9.84478e-13      43.7207
       822.70000  9.84478e-13      43.7108
       822.80000  9.84478e-13      43.7108
       822.90000  9.84478e-13      43.7108
       823.00000  9.84478e-13      43.7108
       823.10000  9.84478e-13      43.7108
       823.20000  9.84478e-13      43.7108
       823.30000  9.84478e-13      43.7108
       823.40000  9.84478e-13      43.7108
       823.50000  9.80805e-13      43.5575
       823.60000  9.80805e-13      43.5575
       823.70000  9.80805e-13      43.5673
       823.80000  9.59002e-13      42.5989
       823.90000  9.59002e-13      42.6085
       824.00000  9.59002e-13      42.6181
       824.10000  9.59002e-13      42.6276
       824.20000  9.59002e-13      42.6372
       824.30000  9.59002e-13      42.6468
       824.40000  9.59002e-13      42.6660
       824.50000  1.54167e-12      68.6042
       824.60000  1.54167e-12      68.6350
       824.70000  1.54167e-12      68.6504
       824.80000  1.54167e-12      68.6813
       824.90000  1.54167e-12      68.7121
       825.00000  1.54167e-12      68.7429
       825.10000  1.54167e-12      68.7738
       825.20000  1.54167e-12      68.8046
       825.30000  1.54167e-12      68.8508
       825.40000  1.54167e-12      68.8817
       825.50000  5.31154e-13      23.7479
       825.60000  5.31154e-13      23.7585
       825.70000  5.31154e-13      23.7744
       825.80000  5.31154e-13      23.7904
       825.90000  5.31154e-13      23.8063
       826.00000  5.31154e-13      23.8223
       826.10000  5.31154e-13      23.8382
       826.20000  5.31154e-13      23.8488
       826.30000  5.20342e-13      23.3790
       826.40000  5.20342e-13      23.3894
       826.50000  1.07753e-12      48.4455
       826.60000  1.07753e-12      48.4671
       826.70000  1.07753e-12      48.4886
       826.80000  1.07753e-12      48.4994
       826.90000  1.07753e-12      48.5102
       827.00000  1.07753e-12      48.5210
       827.10000  1.07753e-12      48.5210
       827.20000  1.07753e-12      48.5317
       827.30000  1.07753e-12      48.5317
       827.40000  1.07753e-12      48.5317
       827.50000  1.61158e-12      72.5855
       827.60000  1.61158e-12      72.5855
       827.70000  1.61158e-12      72.5694
       827.80000  1.61158e-12      72.5533
       827.90000  1.61158e-12      72.5371
       828.00000  1.61158e-12      72.5210
       828.10000  1.61158e-12      72.4727
       828.20000  1.61158e-12      72.4082
       828.30000  1.61158e-12      72.3438
       828.40000  1.61158e-12      72.2793
       828.50000  3.22928e-13      14.4736
       828.60000  3.22928e-13      14.4607
       828.70000  3.22928e-13      14.4510
       828.80000  3.16587e-13      14.1578
       828.90000  3.16587e-13      14.1451
       829.00000  3.16587e-13      14.1356
       829.10000  3.16587e-13      14.1261
       829.20000  3.16587e-13      14.1166
       829.30000  3.16587e-13      14.1071
       829.40000  3.16587e-13      14.0976
       829.50000  1.31465e-12      58.5018
       829.60000  1.31465e-12      58.4624
       829.70000  1.31465e-12      58.4229
       829.80000  1.31465e-12      58.3835
       829.90000  1.31465e-12      58.3572
       830.00000  1.31465e-12      58.3177
       830.10000  1.31465e-12      58.2915
       830.20000  1.31465e-12      58.2520
       830.30000  1.31465e-12      58.2257
       830.40000  1.31465e-12      58.1863
       830.50000  1.40831e-13      6.23035
       830.60000  1.40831e-13      6.22753
       830.70000  1.40831e-13      6.22331
       830.80000  1.40831e-13      6.22049
       830.90000  1.40831e-13      6.21767
       831.00000  1.40831e-13      6.21486
       831.10000  1.40831e-13      6.21204
       831.20000  1.40831e-13      6.20922
       831.30000  1.38024e-13      6.08411
       831.40000  1.38024e-13      6.08135
       831.50000  1.82807e-12      80.5082
       831.60000  1.82807e-12      80.4900
       831.70000  1.82807e-12      80.4534
       831.80000  1.82807e-12      80.4168
       831.90000  1.82807e-12      80.3985
       832.00000  1.82807e-12      80.3803
       832.10000  1.82807e-12      80.3071
       832.20000  1.82807e-12      80.2340
       832.30000  1.82807e-12      80.1792
       832.40000  1.82807e-12      80.1243
       832.50000  8.09649e-14      3.54626
       832.60000  8.09649e-14      3.54464
       832.70000  8.09649e-14      3.54303
       832.80000  8.09649e-14      3.54060
       832.90000  8.09649e-14      3.53979
       833.00000  8.09649e-14      3.53817
       833.10000  8.09649e-14      3.53655
       833.20000  8.09649e-14      3.53574
       833.30000  8.09649e-14      3.53493
       833.40000  8.09649e-14      3.53412
       833.50000  3.32178e-13      14.4996
       833.60000  3.32178e-13      14.4963
       833.70000  3.32178e-13      14.4963
       833.80000  3.25979e-13      14.2257
       833.90000  3.25979e-13      14.2290
       834.00000  3.25979e-13      14.2290
       834.10000  3.25979e-13      14.2453
       834.20000  3.25979e-13      14.2583
       834.30000  3.25979e-13      14.2746
       834.40000  3.25979e-13      14.2877
       834.50000  9.70215e-13      42.5633
       834.60000  9.70215e-13      42.6021
       834.70000  9.70215e-13      42.6313
       834.80000  9.70215e-13      42.6604
       834.90000  9.70215e-13      42.6992
       835.00000  9.70215e-13      42.7283
       835.10000  9.70215e-13      42.7477
       835.20000  9.70215e-13      42.7768
       835.30000  9.70215e-13      42.7962
       835.40000  9.70215e-13      42.8156
       835.50000  4.97175e-13      21.9503
       835.60000  4.97175e-13      21.9602
       835.70000  4.97175e-13      21.9652
       835.80000  4.97175e-13      21.9751
       835.90000  4.97175e-13      21.9801
       836.00000  4.97175e-13      21.9851
       836.10000  4.97175e-13      21.9751
       836.20000  4.97175e-13      21.9702
       836.30000  4.89139e-13      21.6053
       836.40000  4.89139e-13      21.6004
       836.50000  1.37676e-12      60.7840
       836.60000  1.37676e-12      60.7565
       836.70000  1.37676e-12      60.7427
       836.80000  1.37676e-12      60.7289
       836.90000  1.37676e-12      60.7014
       837.00000  1.37676e-12      60.6876
       837.10000  1.37676e-12      60.6739
       837.20000  1.37676e-12      60.6601
       837.30000  1.37676e-12      60.6463
       837.40000  1.37676e-12      60.6325
       837.50000  1.78149e-12      78.4388
       837.60000  1.78149e-12      78.4210
       837.70000  1.78149e-12      78.4032
       837.80000  1.78149e-12      78.3853
       837.90000  1.78149e-12      78.3853
       838.00000  1.78149e-12      78.3675
       838.10000  1.78149e-12      78.3497
       838.20000  1.78149e-12      78.3497
       838.30000  1.78149e-12      78.3497
       838.40000  1.78149e-12      78.3497
       838.50000  1.47606e-12      64.9022
       838.60000  1.47606e-12      64.9022
       838.70000  1.47606e-12      64.9022
       838.80000  1.45436e-12      63.9335
       838.90000  1.45436e-12      63.9335
       839.00000  1.45436e-12      63.9335
       839.10000  1.45436e-12      63.9189
       839.20000  1.45436e-12      63.9189
       839.30000  1.45436e-12      63.9189
       839.40000  1.45436e-12      63.9044
       839.50000  2.93194e-13      12.8829
       839.60000  2.93194e-13      12.8829
       839.70000  2.93194e-13      12.8800
       839.80000  2.93194e-13      12.8800
       839.90000  2.93194e-13      12.8800
       840.00000  2.93194e-13      12.8771
       840.10000  2.93194e-13      12.8771
       840.20000  2.93194e-13      12.8771
       840.30000  2.93194e-13      12.8741
       840.40000  2.93194e-13      12.8741
       840.50000  7.44430e-14      3.26879
       840.60000  7.44430e-14      3.26805
       840.70000  7.44430e-14      3.26805
       840.80000  7.44430e-14      3.26805
       840.90000  7.44430e-14      3.26730
       841.00000  7.44430e-14      3.26730
       841.10000  7.44430e-14      3.26730
       841.20000  7.44430e-14      3.26730
       841.30000  7.32377e-14      3.21367
       841.40000  7.32377e-14      3.21367
       841.50000  7.20284e-13      31.6061
       841.60000  7.20284e-13      31.5989
       841.70000  7.20284e-13      31.5989
       841.80000  7.20284e-13      31.5989
       841.90000  7.20284e-13      31.5917
       842.00000  7.20284e-13      31.5917
       842.10000  7.20284e-13      31.5628
       842.20000  7.20284e-13      31.5412
       842.30000  7.20284e-13      31.5196
       842.40000  7.20284e-13      31.4908
       842.50000  1.54205e-12      67.3724
       842.60000  1.54205e-12      67.3415
       842.70000  1.54205e-12      67.2953
       842.80000  1.54205e-12      67.2644
       842.90000  1.54205e-12      67.2182
       843.00000  1.54205e-12      67.1873
       843.10000  1.54205e-12      67.1565
       843.20000  1.54205e-12      67.1256
       843.30000  1.54205e-12      67.1102
       843.40000  1.54205e-12      67.0794
       843.50000  3.42586e-14      1.48991
       843.60000  3.42586e-14      1.48956
       843.70000  3.42586e-14      1.48922
       843.80000  3.36611e-14      1.46291
       843.90000  3.36611e-14      1.46291
       844.00000  3.36611e-14      1.46257
       844.10000  3.36611e-14      1.46358
       844.20000  3.36611e-14      1.46426
       844.30000  3.36611e-14      1.46493
       844.40000  3.36611e-14      1.46560
       844.50000  5.56367e-13      24.2353
       844.60000  5.56367e-13      24.2465
       844.70000  5.56367e-13      24.2520
       844.80000  5.56367e-13      24.2632
       844.90000  5.56367e-13      24.2687
       845.00000  5.56367e-13      24.2799
       845.10000  5.56367e-13      24.2854
       845.20000  5.56367e-13      24.2910
       845.30000  5.56367e-13      24.3021
       845.40000  5.56367e-13      24.3077
       845.50000  1.57348e-13      6.87452
       845.60000  1.57348e-13      6.87609
       845.70000  1.57348e-13      6.87767
       845.80000  1.57348e-13      6.87924
       845.90000  1.57348e-13      6.87924
       846.00000  1.57348e-13      6.88081
       846.10000  1.57348e-13      6.88081
       846.20000  1.57348e-13      6.88081
       846.30000  1.54402e-13      6.75200
       846.40000  1.54402e-13      6.75354
       846.50000  2.77170e-13      12.1234
       846.60000  2.77170e-13      12.1206
       846.70000  2.77170e-13      12.1206
       846.80000  2.77170e-13      12.1206
       846.90000  2.77170e-13      12.1179
       847.00000  2.77170e-13      12.1179
       847.10000  2.77170e-13      12.1151
       847.20000  2.77170e-13      12.1151
       847.30000  2.77170e-13      12.1123
       847.40000  2.77170e-13      12.1095
       847.50000  1.30075e-12      56.8168
       847.60000  1.30075e-12      56.8038
       847.70000  1.30075e-12      56.7907
       847.80000  1.30075e-12      56.7777
       847.90000  1.30075e-12      56.7517
       848.00000  1.30075e-12      56.7387
       848.10000  1.30075e-12      56.4656
       848.20000  1.30075e-12      56.2184
       848.30000  1.30075e-12      55.9713
       848.40000  1.30075e-12      55.7371
       848.50000  5.93643e-13      25.3367
       848.60000  5.93643e-13      25.2476
       848.70000  5.93643e-13      25.1586
       848.80000  5.82785e-13      24.6169
       848.90000  5.82785e-13      24.5411
       849.00000  5.82785e-13      24.4712
       849.10000  5.82785e-13      24.4012
       849.20000  5.82785e-13      24.3429
       849.30000  5.82785e-13      24.2905
       849.40000  5.82785e-13      24.2380
       849.50000  2.93940e-11      1220.44
       849.60000  2.93940e-11      1218.38
       849.70000  2.93940e-11      1216.91
       849.80000  2.93940e-11      1215.44
       849.90000  2.93940e-11      1214.27
       850.00000  2.93940e-11      1213.38
       850.10000  2.93940e-11      1219.85
       850.20000  2.93940e-11      1226.02
       850.30000  2.93940e-11      1231.61
       850.40000  2.93940e-11      1236.60
       850.50000  3.45470e-11      1458.92
       850.60000  3.45470e-11      1463.76
       850.70000  3.45470e-11      1467.90
       850.80000  3.45470e-11      1471.70
       850.90000  3.45470e-11      1474.81
       851.00000  3.45470e-11      1477.58
       851.10000  3.45470e-11      1479.65
       851.20000  3.45470e-11      1481.38
       851.30000  3.39517e-11      1456.87
       851.40000  3.39517e-11      1457.21
       851.50000  3.94534e-11      1693.34
       851.60000  3.94534e-11      1692.55
       851.70000  3.94534e-11      1691.37
       851.80000  3.94534e-11      1689.40
       851.90000  3.94534e-11      1686.63
       852.00000  3.94534e-11      1683.48
       852.10000  3.94534e-11      1679.53
       852.20000  3.94534e-11      1675.19
       852.30000  3.94534e-11      1670.06
       852.40000  3.94534e-11      1664.54
       852.50000  2.08734e-11      877.102
       852.60000  2.08734e-11      873.553
       852.70000  2.08734e-11      869.379
       852.80000  2.08734e-11      865.204
       852.90000  2.08734e-11      860.403
       853.00000  2.08734e-11      855.393
       853.10000  2.08734e-11      849.966
       853.20000  2.08734e-11      844.331
       853.30000  2.08734e-11      838.277
       853.40000  2.08734e-11      832.015
       853.50000  2.48457e-11      982.398
       853.60000  2.48457e-11      973.951
       853.70000  2.48457e-11      965.255
       853.80000  2.44205e-11      939.700
       853.90000  2.44205e-11      930.420
       854.00000  2.44205e-11      920.652
       854.10000  2.44205e-11      927.490
       854.20000  2.44205e-11      934.327
       854.30000  2.44205e-11      940.921
       854.40000  2.44205e-11      947.270
       854.50000  2.72493e-11      1063.81
       854.60000  2.72493e-11      1070.62
       854.70000  2.72493e-11      1077.16
       854.80000  2.72493e-11      1083.43
       854.90000  2.72493e-11      1089.70
       855.00000  2.72493e-11      1095.69
       855.10000  2.72493e-11      1101.42
       855.20000  2.72493e-11      1106.87
       855.30000  2.72493e-11      1112.32
       855.40000  2.72493e-11      1117.22
       855.50000  2.08551e-11      859.023
       855.60000  2.08551e-11      862.569
       855.70000  2.08551e-11      866.114
       855.80000  2.08551e-11      869.451
       855.90000  2.08551e-11      872.579
       856.00000  2.08551e-11      875.499
       856.10000  2.08551e-11      877.793
       856.20000  2.08551e-11      879.879
       856.30000  2.04339e-11      864.149
       856.40000  2.04339e-11      866.192
       856.50000  1.50595e-11      639.727
       856.60000  1.50595e-11      641.083
       856.70000  1.50595e-11      642.287
       856.80000  1.50595e-11      643.492
       856.90000  1.50595e-11      644.546
       857.00000  1.50595e-11      645.601
       857.10000  1.50595e-11      646.655
       857.20000  1.50595e-11      647.558
       857.30000  1.50595e-11      648.462
       857.40000  1.50595e-11      649.215
       857.50000  1.63960e-11      707.649
       857.60000  1.63960e-11      708.469
       857.70000  1.63960e-11      709.125
       857.80000  1.63960e-11      709.781
       857.90000  1.63960e-11      710.273
       858.00000  1.63960e-11      710.929
       858.10000  1.63960e-11      711.257
       858.20000  1.63960e-11      711.584
       858.30000  1.63960e-11      711.912
       858.40000  1.63960e-11      712.076
       858.50000  2.67786e-11      1163.26
       858.60000  2.67786e-11      1163.53
       858.70000  2.67786e-11      1163.53
       858.80000  2.62059e-11      1138.65
       858.90000  2.62059e-11      1138.38
       859.00000  2.62059e-11      1138.12
       859.10000  2.62059e-11      1137.86
       859.20000  2.62059e-11      1137.34
       859.30000  2.62059e-11      1136.81
       859.40000  2.62059e-11      1136.03
       859.50000  1.09930e-11      476.219
       859.60000  1.09930e-11      475.889
       859.70000  1.09930e-11      475.449
       859.80000  1.09930e-11      474.899
       859.90000  1.09930e-11      474.460
       860.00000  1.09930e-11      473.910
       860.10000  1.09930e-11      473.800
       860.20000  1.09930e-11      473.690
       860.30000  1.09930e-11      473.690
       860.40000  1.09930e-11      473.690
       860.50000  2.47351e-11      1065.59
       860.60000  2.47351e-11      1065.59
       860.70000  2.47351e-11      1065.59
       860.80000  2.47351e-11      1065.59
       860.90000  2.47351e-11      1065.59
       861.00000  2.47351e-11      1065.59
       861.10000  2.47351e-11      1065.59
       861.20000  2.47351e-11      1065.59
       861.30000  2.42093e-11      1042.94
       861.40000  2.42093e-11      1043.18
       861.50000  3.21360e-11      1384.74
       861.60000  3.21360e-11      1384.74
       861.70000  3.21360e-11      1385.06
       861.80000  3.21360e-11      1385.38
       861.90000  3.21360e-11      1385.38
       862.00000  3.21360e-11      1385.71
       862.10000  3.21360e-11      1390.20
       862.20000  3.21360e-11      1394.06
       862.30000  3.21360e-11      1397.60
       862.40000  3.21360e-11      1400.81
       862.50000  3.09713e-11      1352.52
       862.60000  3.09713e-11      1354.68
       862.70000  3.09713e-11      1356.54
       862.80000  3.09713e-11      1358.09
       862.90000  3.09713e-11      1359.02
       863.00000  3.09713e-11      1359.64
       863.10000  3.09713e-11      1359.95
       863.20000  3.09713e-11      1359.95
       863.30000  3.09713e-11      1359.33
       863.40000  3.09713e-11      1358.40
       863.50000  2.54360e-11      1114.61
       863.60000  2.54360e-11      1113.08
       863.70000  2.54360e-11      1111.30
       863.80000  2.48922e-11      1085.55
       863.90000  2.48922e-11      1083.31
       864.00000  2.48922e-11      1080.57
       864.10000  2.48922e-11      1077.58
       864.20000  2.48922e-11      1074.35
       864.30000  2.48922e-11      1070.61
       864.40000  2.48922e-11      1066.88
       864.50000  1.27608e-11      544.631
       864.60000  1.27608e-11      542.334
       864.70000  1.27608e-11      539.782
       864.80000  1.27608e-11      537.230
       864.90000  1.27608e-11      534.295
       865.00000  1.27608e-11      531.360
       865.10000  1.27608e-11      528.170
       865.20000  1.27608e-11      524.852
       865.30000  1.27608e-11      521.406
       865.40000  1.27608e-11      517.706
       865.50000  2.02354e-11      814.878
       865.60000  2.02354e-11      808.605
       865.70000  2.02354e-11      802.130
       865.80000  2.02354e-11      795.250
       865.90000  2.02354e-11      788.168
       866.00000  2.02354e-11      780.883
       866.10000  2.02354e-11      783.716
       866.20000  2.02354e-11      786.347
       866.30000  1.98050e-11      772.394
       866.40000  1.98050e-11      774.968
       866.50000  8.17766e-12      321.055
       866.60000  8.17766e-12      322.118
       866.70000  8.17766e-12      323.181
       866.80000  8.17766e-12      324.244
       866.90000  8.17766e-12      325.226
       867.00000  8.17766e-12      326.207
       867.10000  8.17766e-12      327.188
       867.20000  8.17766e-12      328.170
       867.30000  8.17766e-12      329.151
       867.40000  8.17766e-12      330.051
       867.50000  1.78273e-11      721.471
       867.60000  1.78273e-11      723.432
       867.70000  1.78273e-11      725.393
       867.80000  1.78273e-11      727.354
       867.90000  1.78273e-11      729.137
       868.00000  1.78273e-11      730.920
       868.10000  1.78273e-11      732.881
       868.20000  1.78273e-11      734.842
       868.30000  1.78273e-11      736.624
       868.40000  1.78273e-11      738.407
       868.50000  1.60575e-11      666.707
       868.60000  1.60575e-11      668.152
       868.70000  1.60575e-11      669.758
       868.80000  1.57059e-11      656.352
       868.90000  1.57059e-11      657.765
       869.00000  1.57059e-11      659.022
       869.10000  1.57059e-11      660.278
       869.20000  1.57059e-11      661.535
       869.30000  1.57059e-11      662.791
       869.40000  1.57059e-11      663.890
       869.50000  1.16697e-11      494.097
       869.60000  1.16697e-11      494.797
       869.70000  1.16697e-11      495.498
       869.80000  1.16697e-11      496.198
       869.90000  1.16697e-11      496.898
       870.00000  1.16697e-11      497.598
       870.10000  1.16697e-11      498.182
       870.20000  1.16697e-11      498.765
       870.30000  1.16697e-11      499.232
       870.40000  1.16697e-11      499.699
       870.50000  3.08280e-12      132.129
       870.60000  3.08280e-12      132.252
       870.70000  3.08280e-12      132.345
       870.80000  3.08280e-12      132.468
       870.90000  3.08280e-12      132.530
       871.00000  3.08280e-12      132.622
       871.10000  3.08280e-12      132.684
       871.20000  3.08280e-12      132.745
       871.30000  3.01817e-12      130.023
       871.40000  3.01817e-12      130.053
       871.50000  1.04641e-11      451.001
       871.60000  1.04641e-11      451.106
       871.70000  1.04641e-11      451.106
       871.80000  1.04641e-11      451.211
       871.90000  1.04641e-11      451.106
       872.00000  1.04641e-11      451.106
       872.10000  1.04641e-11      450.792
       872.20000  1.04641e-11      450.583
       872.30000  1.04641e-11      450.269
       872.40000  1.04641e-11      450.060
       872.50000  8.88338e-12      381.808
       872.60000  8.88338e-12      381.630
       872.70000  8.88338e-12      381.453
       872.80000  8.88338e-12      381.275
       872.90000  8.88338e-12      381.008
       873.00000  8.88338e-12      380.831
       873.10000  8.88338e-12      380.653
       873.20000  8.88338e-12      380.475
       873.30000  8.88338e-12      380.298
       873.40000  8.88338e-12      380.120
       873.50000  1.46621e-12      62.7097
       873.60000  1.46621e-12      62.6804
       873.70000  1.46621e-12      62.6511
       873.80000  1.43293e-12      61.2149
       873.90000  1.43293e-12      61.1862
       874.00000  1.43293e-12      61.1576
       877.00000  2.37644e-11      1013.55
       877.10000  2.37644e-11      1014.27
       877.20000  2.37644e-11      1014.98
       877.30000  2.37644e-11      1015.69
       877.40000  2.37644e-11      1016.64
       877.50000  2.41998e-11      1036.24
       877.60000  2.41998e-11      1037.21
       877.70000  2.41998e-11      1038.17
       877.80000  2.41998e-11      1039.14
       877.90000  2.41998e-11      1040.35
       878.00000  2.41998e-11      1041.56
       878.10000  2.41998e-11      1040.11
       878.20000  2.41998e-11      1038.90
       878.30000  2.41998e-11      1037.69
       878.40000  2.41998e-11      1036.48
       878.50000  7.81015e-12      334.118
       878.60000  7.81015e-12      333.806
       878.70000  7.81015e-12      333.415
       878.80000  7.61960e-12      324.976
       878.90000  7.61960e-12      324.671
       879.00000  7.61960e-12      324.366
       883.00000  4.99490e-12      212.383
       883.10000  4.99490e-12      212.483
       883.20000  4.99490e-12      212.583
       883.30000  4.99490e-12      212.633
       883.40000  4.99490e-12      212.683
       883.50000  1.29274e-11      550.579
       883.60000  1.29274e-11      550.579
       883.70000  1.29274e-11      550.579
       883.80000  1.26272e-11      537.791
       883.90000  1.26272e-11      537.665
       884.00000  1.26272e-11      537.538
       886.00000  2.72969e-11      1141.01
       888.00000  2.96739e-11      1251.05
       890.00000  3.00040e-11      1279.37
       890.10000  3.00040e-11      1278.47
       890.20000  3.00040e-11      1277.57
       890.30000  3.00040e-11      1276.67
       890.40000  3.00040e-11      1275.77
       890.50000  4.11080e-11      1746.68
       890.60000  4.11080e-11      1745.45
       890.70000  4.11080e-11      1744.21
       890.80000  4.11080e-11      1742.98
       890.90000  4.11080e-11      1741.75
       891.00000  4.11080e-11      1740.93
       893.00000  1.19789e-11      503.112
       899.00000  4.41376e-11      1848.48
       899.10000  4.41376e-11      1846.72
       899.20000  4.41376e-11      1844.95
       899.30000  4.41376e-11      1843.19
       899.40000  4.41376e-11      1841.42
       899.50000  2.80297e-10      11682.8
       899.60000  2.80297e-10      11668.8
       899.70000  2.80297e-10      11657.6
       899.80000  2.80297e-10      11643.5
       899.90000  2.80297e-10      11629.5
       900.00000  2.80297e-10      11615.5
       900.10000  2.80297e-10      11581.9
       900.20000  2.80297e-10      11553.8
       900.30000  2.80297e-10      11523.0
       900.40000  2.80297e-10      11497.8
       900.50000  4.31161e-10      17647.4
       900.60000  4.31161e-10      17612.9
       900.70000  4.31161e-10      17578.4
       900.80000  4.31161e-10      17552.6
       900.90000  4.31161e-10      17526.7
       901.00000  4.31161e-10      17500.8
       901.10000  4.31161e-10      17483.6
       901.20000  4.31161e-10      17466.3
       901.30000  4.25038e-10      17201.3
       901.40000  4.25038e-10      17192.8
       901.50000  3.70337e-10      14972.7
       901.60000  3.70337e-10      14969.0
       901.70000  3.70337e-10      14965.3
       901.80000  3.70337e-10      14965.3
       901.90000  3.70337e-10      14969.0
       902.00000  3.70337e-10      14976.4
       902.10000  3.70337e-10      15028.3
       902.20000  3.70337e-10      15076.4
       902.30000  3.70337e-10      15124.6
       902.40000  3.70337e-10      15169.0
       902.50000  4.30211e-10      17673.1
       902.60000  4.30211e-10      17720.4
       902.70000  4.30211e-10      17767.7
       902.80000  4.30211e-10      17810.7
       902.90000  4.30211e-10      17853.8
       903.00000  4.30211e-10      17892.5
       903.10000  4.30211e-10      17931.2
       903.20000  4.30211e-10      17965.6
       903.30000  4.30211e-10      17995.7
       903.40000  4.30211e-10      18025.8
       903.50000  5.27187e-10      22120.8
       903.60000  5.27187e-10      22152.4
       903.70000  5.27187e-10      22184.0
       903.80000  5.19841e-10      21895.7
       903.90000  5.19841e-10      21921.7
       904.00000  5.19841e-10      21937.3
       904.10000  5.19841e-10      21952.9
       904.20000  5.19841e-10      21968.5
       904.30000  5.19841e-10      21978.9
       904.40000  5.19841e-10      21984.1
       904.50000  5.92451e-10      25060.7
       904.60000  5.92451e-10      25066.6
       904.70000  5.92451e-10      25066.6
       904.80000  5.92451e-10      25060.7
       904.90000  5.92451e-10      25054.7
       905.00000  5.92451e-10      25042.9
       905.10000  5.92451e-10      25031.0
       905.20000  5.92451e-10      25013.3
       905.30000  5.92451e-10      24995.5
       905.40000  5.92451e-10      24971.8
       905.50000  6.18526e-10      26040.0
       905.60000  6.18526e-10      26009.0
       905.70000  6.18526e-10      25978.1
       905.80000  6.18526e-10      25941.0
       905.90000  6.18526e-10      25897.7
       906.00000  6.18526e-10      25854.4
       906.10000  6.18526e-10      25829.7
       906.20000  6.18526e-10      25811.1
       906.30000  6.09589e-10      25419.9
       906.40000  6.09589e-10      25395.5
       906.50000  7.75507e-10      32284.3
       906.60000  7.75507e-10      32261.1
       906.70000  7.75507e-10      32237.8
       906.80000  7.75507e-10      32214.5
       906.90000  7.75507e-10      32191.3
       907.00000  7.75507e-10      32168.0
       907.10000  7.75507e-10      32144.8
       907.20000  7.75507e-10      32121.5
       907.30000  7.75507e-10      32098.2
       907.40000  7.75507e-10      32075.0
       907.50000  5.08993e-10      21036.7
       907.60000  5.08993e-10      21026.5
       907.70000  5.08993e-10      21011.2
       907.80000  5.08993e-10      20996.0
       907.90000  5.08993e-10      20985.8
       908.00000  5.08993e-10      20970.5
       908.10000  5.08993e-10      20950.2
       908.20000  5.08993e-10      20934.9
       908.30000  5.08993e-10      20914.5
       908.40000  5.08993e-10      20899.3
       908.50000  7.26066e-10      29790.5
       908.60000  7.26066e-10      29768.7
       908.70000  7.26066e-10      29754.2
       908.80000  7.15108e-10      29283.7
       908.90000  7.15108e-10      29269.4
       909.00000  7.15108e-10      29255.1
       909.10000  7.15108e-10      29240.8
       909.20000  7.15108e-10      29226.5
       909.30000  7.15108e-10      29212.2
       909.40000  7.15108e-10      29205.0
       909.50000  6.81507e-10      27825.9
       909.60000  6.81507e-10      27819.1
       909.70000  6.81507e-10      27812.3
       909.80000  6.81507e-10      27805.5
       909.90000  6.81507e-10      27805.5
       910.00000  6.81507e-10      27798.7
       910.10000  6.81507e-10      27798.7
       910.20000  6.81507e-10      27798.7
       910.30000  6.81507e-10      27805.5
       910.40000  6.81507e-10      27805.5
       910.50000  1.17647e-09      48011.7
       910.60000  1.17647e-09      48011.7
       910.70000  1.17647e-09      48023.5
       910.80000  1.17647e-09      48047.0
       910.90000  1.17647e-09      48058.8
       911.00000  1.17647e-09      48070.6
       911.10000  1.17647e-09      48094.1
       911.20000  1.17647e-09      48117.6
       911.30000  1.15771e-09      47373.7
       911.40000  1.15771e-09      47396.9
       911.50000  1.44127e-09      59049.0
       911.60000  1.44127e-09      59077.8
       911.70000  1.44127e-09      59121.1
       911.80000  1.44127e-09      59164.3
       911.90000  1.44127e-09      59207.5
       912.00000  1.44127e-09      59265.2
       912.10000  1.44127e-09      59337.2
       912.20000  1.44127e-09      59394.9
       912.30000  1.44127e-09      59452.5
       912.40000  1.44127e-09      59510.2
       912.50000  3.72988e-09      154156.
       912.60000  3.72988e-09      154305.
       912.70000  3.72988e-09      154454.
       912.80000  3.72988e-09      154566.
       912.90000  3.72988e-09      154678.
       913.00000  3.72988e-09      154790.
       913.10000  3.72988e-09      154902.
       913.20000  3.72988e-09      154976.
       913.30000  3.72988e-09      155088.
       913.40000  3.72988e-09      155163.
       913.50000  4.94914e-09      205983.
       913.60000  4.94914e-09      206082.
       913.70000  4.94914e-09      206132.
       913.80000  4.86431e-09      202647.
       913.90000  4.86431e-09      202745.
       914.00000  4.86431e-09      202793.
       914.10000  4.86431e-09      202696.
       914.20000  4.86431e-09      202647.
       914.30000  4.86431e-09      202599.
       914.40000  4.86431e-09      202550.
       914.50000  5.01718e-09      208865.
       914.60000  5.01718e-09      208765.
       914.70000  5.01718e-09      208715.
       914.80000  5.01718e-09      208665.
       914.90000  5.01718e-09      208614.
       915.00000  5.01718e-09      208564.
       915.10000  5.01718e-09      208514.
       915.20000  5.01718e-09      208464.
       915.30000  5.01718e-09      208414.
       915.40000  5.01718e-09      208364.
       915.50000  3.39112e-09      140799.
       915.60000  3.39112e-09      140765.
       915.70000  3.39112e-09      140731.
       915.80000  3.39112e-09      140698.
       915.90000  3.39112e-09      140664.
       916.00000  3.39112e-09      140630.
       916.10000  3.39112e-09      140596.
       916.20000  3.39112e-09      140562.
       916.30000  3.32808e-09      137916.
       916.40000  3.32808e-09      137883.
       916.50000  3.65152e-09      151246.
       916.60000  3.65152e-09      151246.
       916.70000  3.65152e-09      151209.
       916.80000  3.65152e-09      151173.
       916.90000  3.65152e-09      151136.
       917.00000  3.65152e-09      151100.
       917.10000  3.65152e-09      151100.
       917.20000  3.65152e-09      151063.
       917.30000  3.65152e-09      151027.
       917.40000  3.65152e-09      150990.
       917.50000  3.84024e-09      158794.
       917.60000  3.84024e-09      158755.
       917.70000  3.84024e-09      158717.
       917.80000  3.84024e-09      158717.
       917.90000  3.84024e-09      158679.
       918.00000  3.84024e-09      158640.
       918.10000  3.84024e-09      158717.
       918.20000  3.84024e-09      158794.
       918.30000  3.84024e-09      158871.
       918.40000  3.84024e-09      158909.
       918.50000  4.80162e-09      198739.
       918.60000  4.80162e-09      198787.
       918.70000  4.80162e-09      198787.
       918.80000  4.71180e-09      195069.
       918.90000  4.71180e-09      195069.
       919.00000  4.71180e-09      195069.
       919.10000  4.71180e-09      195021.
       919.20000  4.71180e-09      194974.
       919.30000  4.71180e-09      194927.
       919.40000  4.71180e-09      194833.
       919.50000  2.51041e-09      103755.
       919.60000  2.51041e-09      103705.
       919.70000  2.51041e-09      103655.
       919.80000  2.51041e-09      103580.
       919.90000  2.51041e-09      103529.
       920.00000  2.51041e-09      103454.
       920.10000  2.51041e-09      103228.
       920.20000  2.51041e-09      103027.
       920.30000  2.51041e-09      102826.
       920.40000  2.51041e-09      102626.
       920.50000  3.91791e-09      159851.
       920.60000  3.91791e-09      159576.
       920.70000  3.91791e-09      159302.
       920.80000  3.91791e-09      159067.
       920.90000  3.91791e-09      158793.
       921.00000  3.91791e-09      158558.
       921.10000  3.91791e-09      158323.
       921.20000  3.91791e-09      158127.
       921.30000  3.84267e-09      154860.
       921.40000  3.84267e-09      154668.
       921.50000  3.61882e-09      145476.
       921.60000  3.61882e-09      145332.
       921.70000  3.61882e-09      145187.
       921.80000  3.61882e-09      145042.
       921.90000  3.61882e-09      144897.
       922.00000  3.61882e-09      144789.
       922.10000  3.61882e-09      144644.
       922.20000  3.61882e-09      144572.
       922.30000  3.61882e-09      144463.
       922.40000  3.61882e-09      144391.
       922.50000  4.27651e-09      170505.
       922.60000  4.27651e-09      170462.
       922.70000  4.27651e-09      170376.
       922.80000  4.27651e-09      170334.
       922.90000  4.27651e-09      170291.
       923.00000  4.27651e-09      170248.
       923.10000  4.27651e-09      170248.
       923.20000  4.27651e-09      170205.
       923.30000  4.27651e-09      170205.
       923.40000  4.27651e-09      170248.
       923.50000  4.84995e-09      193076.
       923.60000  4.84995e-09      193125.
       923.70000  4.84995e-09      193173.
       923.80000  4.75557e-09      189510.
       923.90000  4.75557e-09      189557.
       924.00000  4.75557e-09      189652.
       924.10000  4.75557e-09      189652.
       924.20000  4.75557e-09      189652.
       924.30000  4.75557e-09      189652.
       924.40000  4.75557e-09      189652.
       924.50000  3.84643e-09      153396.
       924.60000  3.84643e-09      153396.
       924.70000  3.84643e-09      153434.
       924.80000  3.84643e-09      153473.
       924.90000  3.84643e-09      153473.
       925.00000  3.84643e-09      153511.
       925.10000  3.84643e-09      153588.
       925.20000  3.84643e-09      153627.
       925.30000  3.84643e-09      153665.
       925.40000  3.84643e-09      153742.
       925.50000  2.99597e-09      119809.
       925.60000  2.99597e-09      119869.
       925.70000  2.99597e-09      119929.
       925.80000  2.99597e-09      119989.
       925.90000  2.99597e-09      120049.
       926.00000  2.99597e-09      120138.
       926.10000  2.99597e-09      120318.
       926.20000  2.99597e-09      120528.
       926.30000  2.93759e-09      118355.
       926.40000  2.93759e-09      118532.
       926.50000  3.66964e-09      148290.
       926.60000  3.66964e-09      148474.
       926.70000  3.66964e-09      148657.
       926.80000  3.66964e-09      148840.
       926.90000  3.66964e-09      149024.
       927.00000  3.66964e-09      149171.
       927.10000  3.66964e-09      149318.
       927.20000  3.66964e-09      149464.
       927.30000  3.66964e-09      149574.
       927.40000  3.66964e-09      149684.
       927.50000  5.38531e-09      219828.
       927.60000  5.38531e-09      219936.
       927.70000  5.38531e-09      220098.
       927.80000  5.38531e-09      220205.
       927.90000  5.38531e-09      220259.
       928.00000  5.38531e-09      220313.
       928.10000  5.38531e-09      220205.
       928.20000  5.38531e-09      220098.
       928.30000  5.38531e-09      219936.
       928.40000  5.38531e-09      219828.
       928.50000  6.78062e-09      276650.
       928.60000  6.78062e-09      276514.
       928.70000  6.78062e-09      276378.
       928.80000  6.64945e-09      270899.
       928.90000  6.64945e-09      270766.
       929.00000  6.64945e-09      270699.
       929.10000  6.64945e-09      270566.
       929.20000  6.64945e-09      270433.
       929.30000  6.64945e-09      270367.
       929.40000  6.64945e-09      270234.
       929.50000  1.70408e-08      692369.
       929.60000  1.70408e-08      692199.
       929.70000  1.70408e-08      691858.
       929.80000  1.70408e-08      691687.
       929.90000  1.70408e-08      691517.
       930.00000  1.70408e-08      691346.
       930.10000  1.70408e-08      691346.
       930.20000  1.70408e-08      691346.
       930.30000  1.70408e-08      691176.
       930.40000  1.70408e-08      691176.
       930.50000  3.60232e-08  1.46110e+06
       930.60000  3.60232e-08  1.46110e+06
       930.70000  3.60232e-08  1.46074e+06
       930.80000  3.60232e-08  1.46074e+06
       930.90000  3.60232e-08  1.46074e+06
       931.00000  3.60232e-08  1.46074e+06
       931.10000  3.60232e-08  1.46074e+06
       931.20000  3.60232e-08  1.46038e+06
       931.30000  3.53644e-08  1.43367e+06
       931.40000  3.53644e-08  1.43367e+06
       931.50000  1.24602e-07  5.05135e+06
       931.60000  1.24602e-07  5.05135e+06
       931.70000  1.24602e-07  5.05135e+06
       931.80000  1.24602e-07  5.05135e+06
       931.90000  1.24602e-07  5.05135e+06
       932.00000  1.24602e-07  5.05135e+06
       932.10000  1.24602e-07  5.05135e+06
       932.20000  1.24602e-07  5.05135e+06
       932.30000  1.24602e-07  5.05135e+06
       932.40000  1.24602e-07  5.05135e+06
       932.50000  3.87709e-07  1.57177e+07
       932.60000  3.87709e-07  1.57177e+07
       932.70000  3.87709e-07  1.57177e+07
       932.80000  3.87709e-07  1.57216e+07
       932.90000  3.87709e-07  1.57216e+07
       933.00000  3.87709e-07  1.57216e+07
       933.10000  3.87709e-07  1.57216e+07
       933.20000  3.87709e-07  1.57216e+07
       933.30000  3.87709e-07  1.57255e+07
       933.40000  3.87709e-07  1.57255e+07
       933.50000  1.04663e-06  4.24514e+07
       933.60000  1.04663e-06  4.24619e+07
       933.70000  1.04663e-06  4.24619e+07
       933.80000  1.02889e-06  4.17420e+07
       933.90000  1.02889e-06  4.17523e+07
       934.00000  1.02889e-06  4.17523e+07
       934.10000  1.02889e-06  4.17214e+07
       934.20000  1.02889e-06  4.16905e+07
       934.30000  1.02889e-06  4.16597e+07
       934.40000  1.02889e-06  4.16288e+07
       934.50000  2.29009e-06  9.25884e+07
       934.60000  2.29009e-06  9.25426e+07
       934.70000  2.29009e-06  9.24968e+07
       934.80000  2.29009e-06  9.24281e+07
       934.90000  2.29009e-06  9.23823e+07
       935.00000  2.29009e-06  9.23594e+07
       935.10000  2.29009e-06  9.23136e+07
       935.20000  2.29009e-06  9.22678e+07
       935.30000  2.29009e-06  9.22449e+07
       935.40000  2.29009e-06  9.22220e+07
       935.50000  3.07380e-06  1.23751e+08
       935.60000  3.07380e-06  1.23720e+08
       935.70000  3.07380e-06  1.23690e+08
       935.80000  3.07380e-06  1.23659e+08
       935.90000  3.07380e-06  1.23659e+08
       936.00000  3.07380e-06  1.23628e+08
       936.10000  3.07380e-06  1.23720e+08
       936.20000  3.07380e-06  1.23813e+08
       936.30000  3.02325e-06  1.21867e+08
       936.40000  3.02325e-06  1.21958e+08
       936.50000  2.96612e-06  1.19713e+08
       936.60000  2.96612e-06  1.19772e+08
       936.70000  2.96612e-06  1.19831e+08
       936.80000  2.96612e-06  1.19891e+08
       936.90000  2.96612e-06  1.19920e+08
       937.00000  2.96612e-06  1.19980e+08
       937.10000  2.96612e-06  1.20009e+08
       937.20000  2.96612e-06  1.20039e+08
       937.30000  2.96612e-06  1.20039e+08
       937.40000  2.96612e-06  1.20069e+08
       937.50000  2.66046e-06  1.07695e+08
       937.60000  2.66046e-06  1.07695e+08
       937.70000  2.66046e-06  1.07695e+08
       937.80000  2.66046e-06  1.07695e+08
       937.90000  2.66046e-06  1.07669e+08
       938.00000  2.66046e-06  1.07669e+08
       938.10000  2.66046e-06  1.07642e+08
       938.20000  2.66046e-06  1.07589e+08
       938.30000  2.66046e-06  1.07562e+08
       938.40000  2.66046e-06  1.07509e+08
       938.50000  3.53395e-06  1.42772e+08
       938.60000  3.53395e-06  1.42701e+08
       938.70000  3.53395e-06  1.42595e+08
       938.80000  3.47886e-06  1.40302e+08
       938.90000  3.47886e-06  1.40198e+08
       939.00000  3.47886e-06  1.40128e+08
       939.10000  3.47886e-06  1.40024e+08
       939.20000  3.47886e-06  1.39885e+08
       939.30000  3.47886e-06  1.39781e+08
       939.40000  3.47886e-06  1.39641e+08
       939.50000  2.71365e-06  1.08817e+08
       939.60000  2.71365e-06  1.08709e+08
       939.70000  2.71365e-06  1.08600e+08
       939.80000  2.71365e-06  1.08492e+08
       939.90000  2.71365e-06  1.08356e+08
       940.00000  2.71365e-06  1.08220e+08
       940.10000  2.71365e-06  1.08030e+08
       940.20000  2.71365e-06  1.07840e+08
       940.30000  2.71365e-06  1.07678e+08
       940.40000  2.71365e-06  1.07515e+08
       940.50000  2.18595e-06  8.64761e+07
       940.60000  2.18595e-06  8.63668e+07
       940.70000  2.18595e-06  8.62575e+07
       940.80000  2.18595e-06  8.61482e+07
       940.90000  2.18595e-06  8.60389e+07
       941.00000  2.18595e-06  8.59515e+07
       941.10000  2.18595e-06  8.58640e+07
       941.20000  2.18595e-06  8.57984e+07
       941.30000  2.15337e-06  8.44552e+07
       941.40000  2.15337e-06  8.43906e+07
       941.50000  2.27920e-06  8.92536e+07
       941.60000  2.27920e-06  8.92080e+07
       941.70000  2.27920e-06  8.91624e+07
       941.80000  2.27920e-06  8.91169e+07
       941.90000  2.27920e-06  8.90713e+07
       942.00000  2.27920e-06  8.90485e+07
       942.10000  2.27920e-06  8.91169e+07
       942.20000  2.27920e-06  8.91624e+07
       942.30000  2.27920e-06  8.92308e+07
       942.40000  2.27920e-06  8.92764e+07
       942.50000  2.32731e-06  9.12071e+07
       942.60000  2.32731e-06  9.12770e+07
       942.70000  2.32731e-06  9.13235e+07
       942.80000  2.32731e-06  9.13700e+07
       942.90000  2.32731e-06  9.14166e+07
       943.00000  2.32731e-06  9.14631e+07
       943.10000  2.32731e-06  9.15330e+07
       943.20000  2.32731e-06  9.15795e+07
       943.30000  2.32731e-06  9.16260e+07
       943.40000  2.32731e-06  9.16726e+07
       943.50000  9.30279e-07  3.66623e+07
       943.60000  9.30279e-07  3.66809e+07
       943.70000  9.30279e-07  3.66995e+07
       943.80000  9.16091e-07  3.61581e+07
       943.90000  9.16091e-07  3.61765e+07
       944.00000  9.16091e-07  3.61948e+07
       944.10000  9.16091e-07  3.62131e+07
       944.20000  9.16091e-07  3.62314e+07
       944.30000  9.16091e-07  3.62406e+07
       944.40000  9.16091e-07  3.62589e+07
       944.50000  3.64990e-07  1.44536e+07
       944.60000  3.64990e-07  1.44609e+07
       944.70000  3.64990e-07  1.44645e+07
       944.80000  3.64990e-07  1.44718e+07
       944.90000  3.64990e-07  1.44791e+07
       945.00000  3.64990e-07  1.44828e+07
       945.10000  3.64990e-07  1.44901e+07
       945.20000  3.64990e-07  1.44974e+07
       945.30000  3.64990e-07  1.45010e+07
       945.40000  3.64990e-07  1.45083e+07
       945.50000  8.70482e-08  3.46104e+06
       945.60000  8.70482e-08  3.46278e+06
       945.70000  8.70482e-08  3.46365e+06
       945.80000  8.70482e-08  3.46539e+06
       945.90000  8.70482e-08  3.46626e+06
       946.00000  8.70482e-08  3.46713e+06
       946.10000  8.70482e-08  3.46887e+06
       946.20000  8.70482e-08  3.47061e+06
       946.30000  8.57419e-08  3.42024e+06
       946.40000  8.57419e-08  3.42196e+06
       946.50000  1.98839e-08      793965.
       946.60000  1.98839e-08      794164.
       946.70000  1.98839e-08      794562.
       946.80000  1.98839e-08      794761.
       946.90000  1.98839e-08      794960.
       947.00000  1.98839e-08      795357.
       947.10000  1.98839e-08      795556.
       947.20000  1.98839e-08      795755.
       947.30000  1.98839e-08      795954.
       947.40000  1.98839e-08      796153.
       947.50000  1.74535e-08      698839.
       947.60000  1.74535e-08      699013.
       947.70000  1.74535e-08      699188.
       947.80000  1.74535e-08      699188.
       947.90000  1.74535e-08      699362.
       948.00000  1.74535e-08      699362.
       948.10000  1.74535e-08      699362.
       948.20000  1.74535e-08      699362.
       948.30000  1.74535e-08      699188.
       948.40000  1.74535e-08      699188.
       948.50000  5.41845e-09      217009.
       948.60000  5.41845e-09      217009.
       948.70000  5.41845e-09      217009.
       948.80000  5.33144e-09      213471.
       948.90000  5.33144e-09      213471.
       949.00000  5.33144e-09      213418.
       949.10000  5.33144e-09      213418.
       949.20000  5.33144e-09      213364.
       949.30000  5.33144e-09      213364.
       949.40000  5.33144e-09      213311.
       949.50000  3.80456e-09      152220.
       949.60000  3.80456e-09      152182.
       949.70000  3.80456e-09      152144.
       949.80000  3.80456e-09      152144.
       949.90000  3.80456e-09      152106.
       950.00000  3.80456e-09      152068.
       950.10000  3.80456e-09      152068.
       950.20000  3.80456e-09      152030.
       950.30000  3.80456e-09      151992.
       950.40000  3.80456e-09      151992.
       950.50000  2.32924e-09      93030.0
       950.60000  2.32924e-09      93006.7
       950.70000  2.32924e-09      92983.4
       950.80000  2.32924e-09      92983.4
       950.90000  2.32924e-09      92960.1
       951.00000  2.32924e-09      92936.8
       951.10000  2.32924e-09      92913.5
       951.20000  2.32924e-09      92890.2
       951.30000  2.29198e-09      91404.1
       951.40000  2.29198e-09      91381.2
       951.50000  1.36115e-09      54255.3
       951.60000  1.36115e-09      54241.7
       951.70000  1.36115e-09      54228.1
       951.80000  1.36115e-09      54214.4
       951.90000  1.36115e-09      54200.8
       952.00000  1.36115e-09      54187.2
       952.10000  1.36115e-09      54078.3
       952.20000  1.36115e-09      53969.4
       952.30000  1.36115e-09      53874.2
       952.40000  1.36115e-09      53778.9
       952.50000  2.58505e-09      101954.
       952.60000  2.58505e-09      101773.
       952.70000  2.58505e-09      101618.
       952.80000  2.58505e-09      101463.
       952.90000  2.58505e-09      101308.
       953.00000  2.58505e-09      101179.
       953.10000  2.58505e-09      101050.
       953.20000  2.58505e-09      100920.
       953.30000  2.58505e-09      100817.
       953.40000  2.58505e-09      100688.
       953.50000  2.29338e-09      89235.4
       953.60000  2.29338e-09      89166.5
       953.70000  2.29338e-09      89074.8
       953.80000  2.25530e-09      87528.2
       953.90000  2.25530e-09      87460.5
       954.00000  2.25530e-09      87415.4
       954.10000  2.25530e-09      87392.9
       954.20000  2.25530e-09      87370.3
       954.30000  2.25530e-09      87370.3
       954.40000  2.25530e-09      87370.3
       954.50000  1.54400e-09      59799.0
       954.60000  1.54400e-09      59799.0
       954.70000  1.54400e-09      59799.0
       954.80000  1.54400e-09      59799.0
       954.90000  1.54400e-09      59814.4
       955.00000  1.54400e-09      59814.4
       955.10000  1.54400e-09      59829.8
       955.20000  1.54400e-09      59829.8
       955.30000  1.54400e-09      59845.3
       955.40000  1.54400e-09      59860.7
       955.50000  1.17962e-09      45745.8
       955.60000  1.17962e-09      45757.6
       955.70000  1.17962e-09      45769.4
       955.80000  1.17962e-09      45793.0
       955.90000  1.17962e-09      45804.8
       956.00000  1.17962e-09      45828.4
       956.10000  1.17962e-09      45852.0
       956.20000  1.17962e-09      45863.7
       956.30000  1.16037e-09      45138.3
       956.40000  1.16037e-09      45173.1
       956.50000  1.85008e-09      72060.6
       956.60000  1.85008e-09      72097.6
       956.70000  1.85008e-09      72153.1
       956.80000  1.85008e-09      72190.1
       956.90000  1.85008e-09      72245.6
       957.00000  1.85008e-09      72301.1
       957.10000  1.85008e-09      72356.6
       957.20000  1.85008e-09      72412.1
       957.30000  1.85008e-09      72486.1
       957.40000  1.85008e-09      72541.6
       957.50000  1.33402e-09      52346.9
       957.60000  1.33402e-09      52400.3
       957.70000  1.33402e-09      52453.7
       957.80000  1.33402e-09      52507.0
       957.90000  1.33402e-09      52560.4
       958.00000  1.33402e-09      52613.7
       958.10000  1.33402e-09      52613.7
       958.20000  1.33402e-09      52600.4
       958.30000  1.33402e-09      52600.4
       958.40000  1.33402e-09      52600.4
       958.50000  1.20856e-09      47653.4
       958.60000  1.20856e-09      47641.3
       958.70000  1.20856e-09      47641.3
       958.80000  1.18725e-09      46801.5
       958.90000  1.18725e-09      46789.6
       959.00000  1.18725e-09      46789.6
       959.10000  1.18725e-09      46777.8
       959.20000  1.18725e-09      46777.8
       959.30000  1.18725e-09      46765.9
       959.40000  1.18725e-09      46754.0
       959.50000  1.03002e-09      40562.0
       959.60000  1.03002e-09      40551.7
       959.70000  1.03002e-09      40551.7
       959.80000  1.03002e-09      40541.4
       959.90000  1.03002e-09      40531.1
       960.00000  1.03002e-09      40520.8
       960.10000  1.03002e-09      40510.5
       960.20000  1.03002e-09      40500.2
       960.30000  1.03002e-09      40489.9
       960.40000  1.03002e-09      40479.6
       960.50000  1.59005e-09      62473.1
       960.60000  1.59005e-09      62457.2
       960.70000  1.59005e-09      62441.3
       960.80000  1.59005e-09      62425.4
       960.90000  1.59005e-09      62409.5
       961.00000  1.59005e-09      62393.6
       961.10000  1.59005e-09      62377.7
       961.20000  1.59005e-09      62361.8
       961.30000  1.56243e-09      61262.7
       961.40000  1.56243e-09      61247.1
       961.50000  1.53798e-09      60273.5
       961.60000  1.53798e-09      60242.7
       961.70000  1.53798e-09      60227.4
       961.80000  1.53798e-09      60212.0
       961.90000  1.53798e-09      60196.6
       962.00000  1.53798e-09      60181.2
       962.10000  1.53798e-09      60150.5
       962.20000  1.53798e-09      60135.1
       962.30000  1.53798e-09      60119.7
       962.40000  1.53798e-09      60088.9
       962.50000  1.42214e-09      55548.8
       962.60000  1.42214e-09      55534.6
       962.70000  1.42214e-09      55506.2
       962.80000  1.42214e-09      55491.9
       962.90000  1.42214e-09      55463.5
       963.00000  1.42214e-09      55449.3
       963.10000  1.42214e-09      55435.1
       963.20000  1.42214e-09      55406.6
       963.30000  1.42214e-09      55392.4
       963.40000  1.42214e-09      55364.0
       963.50000  1.51910e-09      59123.3
       963.60000  1.51910e-09      59092.9
       963.70000  1.51910e-09      59077.7
       963.80000  1.49151e-09      57975.0
       963.90000  1.49151e-09      57945.2
       964.00000  1.49151e-09      57930.3
       964.10000  1.49151e-09      57900.5
       964.20000  1.49151e-09      57855.7
       964.30000  1.49151e-09      57825.9
       964.40000  1.49151e-09      57811.0
       964.50000  1.69027e-09      65481.2
       964.60000  1.69027e-09      65447.4
       964.70000  1.69027e-09      65430.5
       964.80000  1.69027e-09      65396.7
       964.90000  1.69027e-09      65379.8
       965.00000  1.69027e-09      65346.0
       965.10000  1.69027e-09      65329.1
       965.20000  1.69027e-09      65312.2
       965.30000  1.69027e-09      65295.3
       965.40000  1.69027e-09      65295.3
       965.50000  3.80796e-10      14706.3
       965.60000  3.80796e-10      14702.5
       965.70000  3.80796e-10      14702.5
       965.80000  3.80796e-10      14698.7
       965.90000  3.80796e-10      14698.7
       966.00000  3.80796e-10      14698.7
       966.10000  3.80796e-10      14702.5
       966.20000  3.80796e-10      14706.3
       966.30000  3.73754e-10      14441.8
       966.40000  3.73754e-10      14445.6
       966.50000  2.02197e-10      7816.95
       966.60000  2.02197e-10      7818.97
       966.70000  2.02197e-10      7820.99
       966.80000  2.02197e-10      7823.01
       966.90000  2.02197e-10      7825.04
       967.00000  2.02197e-10      7827.06
       967.10000  2.02197e-10      7829.08
       967.20000  2.02197e-10      7831.10
       967.30000  2.02197e-10      7833.12
       967.40000  2.02197e-10      7835.15
       967.50000  1.00392e-10      3890.19
       967.60000  1.00392e-10      3891.19
       967.70000  1.00392e-10      3892.20
       967.80000  1.00392e-10      3892.20
       967.90000  1.00392e-10      3893.20
       968.00000  1.00392e-10      3894.20
       968.10000  1.00392e-10      3894.20
       968.20000  1.00392e-10      3895.21
       968.30000  1.00392e-10      3895.21
       968.40000  1.00392e-10      3895.21
       968.50000  6.92108e-11      2686.07
       968.60000  6.92108e-11      2686.07
       968.70000  6.92108e-11      2686.07
       968.80000  6.79284e-11      2636.98
       968.90000  6.79284e-11      2636.98
       969.00000  6.79284e-11      2636.98
       969.10000  6.79284e-11      2636.98
       969.20000  6.79284e-11      2636.98
       969.30000  6.79284e-11      2636.98
       969.40000  6.79284e-11      2636.98
       969.50000  6.50502e-11      2525.25
       969.60000  6.50502e-11      2525.25
       969.70000  6.50502e-11      2525.25
       969.80000  6.50502e-11      2525.25
       969.90000  6.50502e-11      2525.25
       970.00000  6.50502e-11      2525.25
       970.10000  6.50502e-11      2525.90
       970.20000  6.50502e-11      2526.55
       970.30000  6.50502e-11      2526.55
       970.40000  6.50502e-11      2527.20
       970.50000  5.09710e-11      1980.22
       970.60000  5.09710e-11      1980.73
       970.70000  5.09710e-11      1980.73
       970.80000  5.09710e-11      1980.73
       970.90000  5.09710e-11      1980.73
       971.00000  5.09710e-11      1980.73
       971.10000  5.09710e-11      1980.73
       971.20000  5.09710e-11      1980.22
       971.30000  5.00286e-11      1943.61
       971.40000  5.00286e-11      1943.11
       971.50000  5.53169e-11      2148.51
       971.60000  5.53169e-11      2147.96
       971.70000  5.53169e-11      2147.40
       971.80000  5.53169e-11      2146.85
       971.90000  5.53169e-11      2146.30
       972.00000  5.53169e-11      2145.19
       972.10000  5.53169e-11      2142.98
       972.20000  5.53169e-11      2140.77
       972.30000  5.53169e-11      2139.11
       972.40000  5.53169e-11      2136.89
       972.50000  4.17867e-11      1612.97
       972.60000  4.17867e-11      1611.29
       972.70000  4.17867e-11      1610.04
       972.80000  4.17867e-11      1608.79
       972.90000  4.17867e-11      1607.53
       973.00000  4.17867e-11      1606.70
       973.10000  4.17867e-11      1605.44
       973.20000  4.17867e-11      1604.61
       973.30000  4.17867e-11      1603.77
       973.40000  4.17867e-11      1602.94
       973.50000  3.18777e-11      1222.19
       973.60000  3.18777e-11      1221.56
       973.70000  3.18777e-11      1221.24
       973.80000  3.12568e-11      1196.82
       973.90000  3.12568e-11      1196.51
       974.00000  3.12568e-11      1196.20
       974.10000  3.12568e-11      1196.51
       974.20000  3.12568e-11      1197.14
       974.30000  3.12568e-11      1197.45
       974.40000  3.12568e-11      1197.76
       974.50000  3.55708e-11      1363.43
       974.60000  3.55708e-11      1363.78
       974.70000  3.55708e-11      1364.14
       974.80000  3.55708e-11      1364.50
       974.90000  3.55708e-11      1364.50
       975.00000  3.55708e-11      1364.85
       975.10000  3.55708e-11      1365.21
       975.20000  3.55708e-11      1365.21
       975.30000  3.55708e-11      1365.56
       975.40000  3.55708e-11      1365.56
       975.50000  3.32481e-11      1276.40
       975.60000  3.32481e-11      1276.73
       975.70000  3.32481e-11      1276.73
       975.80000  3.32481e-11      1276.73
       975.90000  3.32481e-11      1276.73
       976.00000  3.32481e-11      1276.73
       976.10000  3.32481e-11      1276.40
       976.20000  3.32481e-11      1276.06
       976.30000  3.26123e-11      1251.34
       976.40000  3.26123e-11      1251.01
       976.50000  1.33103e-11      510.582
       976.60000  1.33103e-11      510.449
       976.70000  1.33103e-11      510.316
       976.80000  1.33103e-11      510.183
       976.90000  1.33103e-11      510.183
       977.00000  1.33103e-11      510.050
       977.10000  1.33103e-11      509.917
       977.20000  1.33103e-11      509.784
       977.30000  1.33103e-11      509.784
       977.40000  1.33103e-11      509.651
       977.50000  1.94265e-11      743.645
       977.60000  1.94265e-11      743.645
       977.70000  1.94265e-11      743.451
       977.80000  1.94265e-11      743.256
       977.90000  1.94265e-11      743.256
       978.00000  1.94265e-11      743.062
       978.10000  1.94265e-11      743.062
       978.20000  1.94265e-11      742.868
       978.30000  1.94265e-11      742.868
       978.40000  1.94265e-11      742.674
       978.50000  1.35373e-11      517.395
       978.60000  1.35373e-11      517.395
       978.70000  1.35373e-11      517.395
       978.80000  1.32738e-11      507.191
       978.90000  1.32738e-11      507.191
       979.00000  1.32738e-11      507.059
       979.10000  1.32738e-11      507.059
       979.20000  1.32738e-11      506.926
       979.30000  1.32738e-11      506.926
       979.40000  1.32738e-11      506.926
       979.50000  7.86694e-12      300.360
       979.60000  7.86694e-12      300.360
       979.70000  7.86694e-12      300.360
       979.80000  7.86694e-12      300.281
       979.90000  7.86694e-12      300.281
       980.00000  7.86694e-12      300.281
       980.10000  7.86694e-12      300.439
       980.20000  7.86694e-12      300.517
       980.30000  7.86694e-12      300.675
       980.40000  7.86694e-12      300.753
       980.50000  9.33680e-12      357.133
       980.60000  9.33680e-12      357.226
       980.70000  9.33680e-12      357.319
       980.80000  9.33680e-12      357.413
       980.90000  9.33680e-12      357.506
       981.00000  9.33680e-12      357.599
       981.10000  9.33680e-12      357.693
       981.20000  9.33680e-12      357.786
       981.30000  9.14787e-12      350.546
       981.40000  9.14787e-12      350.638
       981.50000  8.61949e-12      330.385
       981.60000  8.61949e-12      330.385
       981.70000  8.61949e-12      330.471
       981.80000  8.61949e-12      330.471
       981.90000  8.61949e-12      330.471
       982.00000  8.61949e-12      330.385
       982.10000  8.61949e-12      330.299
       982.20000  8.61949e-12      330.126
       982.30000  8.61949e-12      330.040
       982.40000  8.61949e-12      329.868
       982.50000  7.03455e-12      269.142
       982.60000  7.03455e-12      269.001
       982.70000  7.03455e-12      268.931
       982.80000  7.03455e-12      268.861
       982.90000  7.03455e-12      268.720
       983.00000  7.03455e-12      268.650
       983.10000  7.03455e-12      268.579
       983.20000  7.03455e-12      268.509
       983.30000  7.03455e-12      268.439
       983.40000  7.03455e-12      268.298
       983.50000  6.78976e-12      258.893
       983.60000  6.78976e-12      258.826
       983.70000  6.78976e-12      258.758
       983.80000  6.65584e-12      253.588
       983.90000  6.65584e-12      253.521
       984.00000  6.65584e-12      253.454
       984.10000  6.65584e-12      253.454
       984.20000  6.65584e-12      253.388
       984.30000  6.65584e-12      253.321
       984.40000  6.65584e-12      253.255
       984.50000  7.48642e-12      284.858
       984.60000  7.48642e-12      284.783
       984.70000  7.48642e-12      284.709
       984.80000  7.48642e-12      284.709
       984.90000  7.48642e-12      284.634
       985.00000  7.48642e-12      284.559
       985.10000  7.48642e-12      284.559
       985.20000  7.48642e-12      284.484
       985.30000  7.48642e-12      284.484
       985.40000  7.48642e-12      284.484
       985.50000  6.31786e-12      240.015
       985.60000  6.31786e-12      240.015
       985.70000  6.31786e-12      240.015
       985.80000  6.31786e-12      239.952
       985.90000  6.31786e-12      239.952
       986.00000  6.31786e-12      239.952
       986.10000  6.31786e-12      239.889
       986.20000  6.31786e-12      239.889
       986.30000  6.19334e-12      235.161
       986.40000  6.19334e-12      235.099
       986.50000  4.79082e-12      181.811
       986.60000  4.79082e-12      181.811
       986.70000  4.79082e-12      181.764
       986.80000  4.79082e-12      181.764
       986.90000  4.79082e-12      181.716
       987.00000  4.79082e-12      181.668
       987.10000  4.79082e-12      181.620
       987.20000  4.79082e-12      181.620
       987.30000  4.79082e-12      181.572
       987.40000  4.79082e-12      181.524
       987.50000  4.19961e-12      159.081
       987.60000  4.19961e-12      159.039
       987.70000  4.19961e-12      158.997
       987.80000  4.19961e-12      158.955
       987.90000  4.19961e-12      158.913
       988.00000  4.19961e-12      158.871
       988.10000  4.19961e-12      158.745
       988.20000  4.19961e-12      158.661
       988.30000  4.19961e-12      158.535
       988.40000  4.19961e-12      158.451
       988.50000  6.55405e-12      247.153
       988.60000  6.55405e-12      247.022
       988.70000  6.55405e-12      246.891
       988.80000  6.42635e-12      241.952
       988.90000  6.42635e-12      241.824
       989.00000  6.42635e-12      241.759
       989.10000  6.42635e-12      241.695
       989.20000  6.42635e-12      241.567
       989.30000  6.42635e-12      241.502
       989.40000  6.42635e-12      241.438
       989.50000  5.50286e-12      206.688
       989.60000  5.50286e-12      206.632
       989.70000  5.50286e-12      206.632
       989.80000  5.50286e-12      206.577
       989.90000  5.50286e-12      206.577
       990.00000  5.50286e-12      206.577
       990.10000  5.50286e-12      206.522
       990.20000  5.50286e-12      206.522
       990.30000  5.50286e-12      206.577
       990.40000  5.50286e-12      206.577
       990.50000  4.51908e-12      169.646
       990.60000  4.51908e-12      169.692
       990.70000  4.51908e-12      169.692
       990.80000  4.51908e-12      169.737
       990.90000  4.51908e-12      169.782
       991.00000  4.51908e-12      169.827
       991.10000  4.51908e-12      169.872
       991.20000  4.51908e-12      169.918
       991.30000  4.43534e-12      166.813
       991.40000  4.43534e-12      166.902
       991.50000  5.37343e-12      202.256
       991.60000  5.37343e-12      202.363
       991.70000  5.37343e-12      202.471
       991.80000  5.37343e-12      202.578
       991.90000  5.37343e-12      202.686
       992.00000  5.37343e-12      202.793
       992.10000  5.37343e-12      202.847
       992.20000  5.37343e-12      202.847
       992.30000  5.37343e-12      202.847
       992.40000  5.37343e-12      202.847
       992.50000  2.21599e-12      83.6759
       992.60000  2.21599e-12      83.6759
       992.70000  2.21599e-12      83.6759
       992.80000  2.21599e-12      83.6759
       992.90000  2.21599e-12      83.6759
       993.00000  2.21599e-12      83.6981
       993.10000  2.21599e-12      83.6981
       993.20000  2.21599e-12      83.6981
       993.30000  2.21599e-12      83.6981
       993.40000  2.21599e-12      83.6981
       993.50000  4.19530e-12      158.457
       993.60000  4.19530e-12      158.457
       993.70000  4.19530e-12      158.457
       993.80000  4.12290e-12      155.722
       993.90000  4.12290e-12      155.681
       994.00000  4.12290e-12      155.681
       994.10000  4.12290e-12      155.681
       994.20000  4.12290e-12      155.639
       994.30000  4.12290e-12      155.639
       994.40000  4.12290e-12      155.598
       994.50000  4.51630e-12      170.445
       994.60000  4.51630e-12      170.400
       994.70000  4.51630e-12      170.400
       994.80000  4.51630e-12      170.355
       994.90000  4.51630e-12      170.355
       995.00000  4.51630e-12      170.310
       995.10000  4.51630e-12      170.310
       995.20000  4.51630e-12      170.310
       995.30000  4.51630e-12      170.264
       995.40000  4.51630e-12      170.264
       995.50000  3.69830e-12      139.426
       995.60000  3.69830e-12      139.389
       995.70000  3.69830e-12      139.389
       995.80000  3.69830e-12      139.389
       995.90000  3.69830e-12      139.389
       996.00000  3.69830e-12      139.352
       996.10000  3.69830e-12      139.389
       996.20000  3.69830e-12      139.389
       996.30000  3.63631e-12      137.052
       996.40000  3.63631e-12      137.052
       996.50000  4.19734e-12      158.198
       996.60000  4.19734e-12      158.198
       996.70000  4.19734e-12      158.198
       996.80000  4.19734e-12      158.198
       996.90000  4.19734e-12      158.198
       997.00000  4.19734e-12      158.198
       997.10000  4.19734e-12      158.198
       997.20000  4.19734e-12      158.198
       997.30000  4.19734e-12      158.198
       997.40000  4.19734e-12      158.198
       997.50000  3.50341e-12      132.043
       997.60000  3.50341e-12      132.043
       997.70000  3.50341e-12      132.043
       997.80000  3.50341e-12      132.043
       997.90000  3.50341e-12      132.043
       998.00000  3.50341e-12      132.008
       998.10000  3.50341e-12      132.008
       998.20000  3.50341e-12      131.973
       998.30000  3.50341e-12      131.973
       998.40000  3.50341e-12      131.938
       998.50000  2.60396e-12      98.0391
       998.60000  2.60396e-12      98.0391
       998.70000  2.60396e-12      98.0131
       998.80000  2.56427e-12      96.5192
       998.90000  2.56427e-12      96.5192
       999.00000  2.56427e-12      96.4936
       999.10000  2.56427e-12      96.4936
       999.20000  2.56427e-12      96.4679
       999.30000  2.56427e-12      96.4679
       999.40000  2.56427e-12      96.4679
       999.50000  2.87196e-12      108.014
       999.60000  2.87196e-12      108.014
       999.70000  2.87196e-12      108.014
       999.80000  2.87196e-12      108.014
       999.90000  2.87196e-12      108.014
       1000.0000  2.87196e-12      107.986
       1000.1000  2.87196e-12      107.986
       1000.2000  2.87196e-12      107.986
       1000.3000  2.87196e-12      107.986
       1000.4000  2.87196e-12      107.986
       1000.5000  2.21919e-12      83.4417
       1000.6000  2.21919e-12      83.4417
       1000.7000  2.21919e-12      83.4417
       1000.8000  2.21919e-12      83.4417
       1000.9000  2.21919e-12      83.4417
       1001.0000  2.21919e-12      83.4417
       1001.1000  2.21919e-12      83.4417
       1001.2000  2.21919e-12      83.4639
       1001.3000  2.18644e-12      82.2320
       1001.4000  2.18644e-12      82.2320
       1001.5000  2.53472e-12      95.3310
       1001.6000  2.53472e-12      95.3310
       1001.7000  2.53472e-12      95.3563
       1001.8000  2.53472e-12      95.3563
       1001.9000  2.53472e-12      95.3563
       1002.0000  2.53472e-12      95.3817
       1002.1000  2.53472e-12      95.2296
       1002.2000  2.53472e-12      95.0775
       1002.3000  2.53472e-12      94.9508
       1002.4000  2.53472e-12      94.7987
       1002.5000  2.79473e-12      104.383
       1002.6000  2.79473e-12      104.215
       1002.7000  2.79473e-12      104.076
       1002.8000  2.79473e-12      103.936
       1002.9000  2.79473e-12      103.796
       1003.0000  2.79473e-12      103.656
       1003.1000  2.79473e-12      103.517
       1003.2000  2.79473e-12      103.377
       1003.3000  2.79473e-12      103.265
       1003.4000  2.79473e-12      103.125
       1003.5000  2.96927e-12      109.447
       1003.6000  2.96927e-12      109.329
       1003.7000  2.96927e-12      109.180
       1003.8000  2.92883e-12      107.576
       1003.9000  2.92883e-12      107.459
       1004.0000  2.92883e-12      107.342
       1004.1000  2.92883e-12      107.166
       1004.2000  2.92883e-12      106.961
       1004.3000  2.92883e-12      106.814
       1004.4000  2.92883e-12      106.639
       1004.5000  2.05951e-12      74.8840
       1004.6000  2.05951e-12      74.7810
       1004.7000  2.05951e-12      74.6986
       1004.8000  2.05951e-12      74.6162
       1004.9000  2.05951e-12      74.5544
       1005.0000  2.05951e-12      74.4926
       1005.1000  2.05951e-12      74.4309
       1005.2000  2.05951e-12      74.3897
       1005.3000  2.05951e-12      74.3485
       1005.4000  2.05951e-12      74.3279
       1005.5000  2.20162e-12      79.4343
       1005.6000  2.20162e-12      79.4123
       1005.7000  2.20162e-12      79.4123
       1005.8000  2.20162e-12      79.4343
       1005.9000  2.20162e-12      79.4343
       1006.0000  2.20162e-12      79.4563
       1006.1000  2.20162e-12      79.5004
       1006.2000  2.20162e-12      79.5444
       1006.3000  2.17361e-12      78.5759
       1006.4000  2.17361e-12      78.6411
       1006.5000  1.70297e-12      61.6644
       1006.6000  1.70297e-12      61.7326
       1006.7000  1.70297e-12      61.8007
       1006.8000  1.70297e-12      61.8688
       1006.9000  1.70297e-12      61.9539
       1007.0000  1.70297e-12      62.0391
       1007.1000  1.70297e-12      62.1413
       1007.2000  1.70297e-12      62.2435
       1007.3000  1.70297e-12      62.3456
       1007.4000  1.70297e-12      62.4648
       1007.5000  1.79235e-12      65.8687
       1007.6000  1.79235e-12      66.0121
       1007.7000  1.79235e-12      66.1555
       1007.8000  1.79235e-12      66.2989
       1007.9000  1.79235e-12      66.4602
       1008.0000  1.79235e-12      66.6215
       1008.1000  1.79235e-12      66.6394
       1008.2000  1.79235e-12      66.6394
       1008.3000  1.79235e-12      66.6394
       1008.4000  1.79235e-12      66.6394
       1008.5000  1.75574e-12      65.2783
       1008.6000  1.75574e-12      65.2783
       1008.7000  1.75574e-12      65.2783
       1008.8000  1.73519e-12      64.5142
       1008.9000  1.73519e-12      64.5142
       1009.0000  1.73519e-12      64.4969
       1009.1000  1.73519e-12      64.4969
       1009.2000  1.73519e-12      64.4969
       1009.3000  1.73519e-12      64.4969
       1009.4000  1.73519e-12      64.4795
       1009.5000  2.39563e-12      89.0215
       1009.6000  2.39563e-12      89.0215
       1009.7000  2.39563e-12      88.9975
       1009.8000  2.39563e-12      88.9975
       1009.9000  2.39563e-12      88.9735
       1010.0000  2.39563e-12      88.9735
       1010.1000  2.39563e-12      88.9496
       1010.2000  2.39563e-12      88.9256
       1010.3000  2.39563e-12      88.9017
       1010.4000  2.39563e-12      88.8777
       1010.5000  2.58291e-12      95.8002
       1010.6000  2.58291e-12      95.7743
       1010.7000  2.58291e-12      95.7485
       1010.8000  2.58291e-12      95.7227
       1010.9000  2.58291e-12      95.6969
       1011.0000  2.58291e-12      95.6710
       1011.1000  2.58291e-12      95.6710
       1011.2000  2.58291e-12      95.6452
       1011.3000  2.55442e-12      94.5646
       1011.4000  2.55442e-12      94.5390
       1011.5000  2.05430e-12      76.0092
       1011.6000  2.05430e-12      75.9887
       1011.7000  2.05430e-12      75.9681
       1011.8000  2.05430e-12      75.9476
       1011.9000  2.05430e-12      75.9270
       1012.0000  2.05430e-12      75.9065
       1012.1000  2.05430e-12      75.8860
       1012.2000  2.05430e-12      75.8654
       1012.3000  2.05430e-12      75.8449
       1012.4000  2.05430e-12      75.8243
       1012.5000  2.72415e-12      100.521
       1012.6000  2.72415e-12      100.494
       1012.7000  2.72415e-12      100.467
       1012.8000  2.72415e-12      100.439
       1012.9000  2.72415e-12      100.439
       1013.0000  2.72415e-12      100.412
       1013.1000  2.72415e-12      100.385
       1013.2000  2.72415e-12      100.358
       1013.3000  2.72415e-12      100.330
       1013.4000  2.72415e-12      100.303
       1013.5000  1.62946e-12      59.9803
       1013.6000  1.62946e-12      59.9641
       1013.7000  1.62946e-12      59.9478
       1013.8000  1.61270e-12      59.3152
       1013.9000  1.61270e-12      59.2991
       1014.0000  1.61270e-12      59.2829
       1014.1000  1.61270e-12      59.2507
       1014.2000  1.61270e-12      59.2184
       1014.3000  1.61270e-12      59.1862
       1014.4000  1.61270e-12      59.1539
       1014.5000  1.18899e-12      43.6004
       1014.6000  1.18899e-12      43.5766
       1014.7000  1.18899e-12      43.5528
       1014.8000  1.18899e-12      43.5409
       1014.9000  1.18899e-12      43.5172
       1015.0000  1.18899e-12      43.5053
       1015.1000  1.18899e-12      43.4815
       1015.2000  1.18899e-12      43.4696
       1015.3000  1.18899e-12      43.4577
       1015.4000  1.18899e-12      43.4339
       1015.5000  1.48225e-12      54.1317
       1015.6000  1.48225e-12      54.1168
       1015.7000  1.48225e-12      54.1020
       1015.8000  1.48225e-12      54.0872
       1015.9000  1.48225e-12      54.0724
       1016.0000  1.48225e-12      54.0576
       1016.1000  1.48225e-12      54.0576
       1016.2000  1.48225e-12      54.0576
       1016.3000  1.46816e-12      53.5439
       1016.4000  1.46816e-12      53.5292
       1016.5000  1.38397e-12      50.4596
       1016.6000  1.38397e-12      50.4596
       1016.7000  1.38397e-12      50.4596
       1016.8000  1.38397e-12      50.4457
       1016.9000  1.38397e-12      50.4457
       1017.0000  1.38397e-12      50.4319
       1017.1000  1.38397e-12      50.4319
       1017.2000  1.38397e-12      50.4180
       1017.3000  1.38397e-12      50.4180
       1017.4000  1.38397e-12      50.4042
       1017.5000  1.69828e-12      61.8515
       1017.6000  1.69828e-12      61.8345
       1017.7000  1.69828e-12      61.8175
       1017.8000  1.69828e-12      61.8005
       1017.9000  1.69828e-12      61.7836
       1018.0000  1.69828e-12      61.7836
       1018.1000  1.69828e-12      61.7496
       1018.2000  1.69828e-12      61.7156
       1018.3000  1.69828e-12      61.6817
       1018.4000  1.69828e-12      61.6477
       1018.5000  1.41754e-12      51.4424
       1018.6000  1.41754e-12      51.4141
       1018.7000  1.41754e-12      51.3999
       1018.8000  1.40456e-12      50.9011
       1018.9000  1.40456e-12      50.8871
       1019.0000  1.40456e-12      50.8590
       1019.1000  1.40456e-12      50.8450
       1019.2000  1.40456e-12      50.8309
       1019.3000  1.40456e-12      50.8169
       1019.4000  1.40456e-12      50.7888
       1019.5000  1.59759e-12      57.7527
       1019.6000  1.59759e-12      57.7368
       1019.7000  1.59759e-12      57.7208
       1019.8000  1.59759e-12      57.7208
       1019.9000  1.59759e-12      57.7048
       1020.0000  1.59759e-12      57.6888
       1020.1000  1.59759e-12      57.6729
       1020.2000  1.59759e-12      57.6569
       1020.3000  1.59759e-12      57.6569
       1020.4000  1.59759e-12      57.6409
       1020.5000  1.21242e-12      43.7440
       1020.6000  1.21242e-12      43.7319
       1020.7000  1.21242e-12      43.7319
       1020.8000  1.21242e-12      43.7198
       1020.9000  1.21242e-12      43.7198
       1021.0000  1.21242e-12      43.7198
       1021.1000  1.21242e-12      43.7198
       1021.2000  1.21242e-12      43.7198
       1021.3000  1.20341e-12      43.3950
       1021.4000  1.20341e-12      43.3950
       1021.5000  1.10177e-12      39.7299
       1021.6000  1.10177e-12      39.7299
       1021.7000  1.10177e-12      39.7299
       1021.8000  1.10177e-12      39.7409
       1021.9000  1.10177e-12      39.7409
       1022.0000  1.10177e-12      39.7519
       1022.1000  1.10177e-12      39.7519
       1022.2000  1.10177e-12      39.7629
       1022.3000  1.10177e-12      39.7739
       1022.4000  1.10177e-12      39.7739
       1022.5000  1.11830e-12      40.3819
       1022.6000  1.11830e-12      40.3930
       1022.7000  1.11830e-12      40.4042
       1022.8000  1.11830e-12      40.4154
       1022.9000  1.11830e-12      40.4266
       1023.0000  1.11830e-12      40.4378
       1023.1000  1.11830e-12      40.4601
       1023.2000  1.11830e-12      40.4713
       1023.3000  1.11830e-12      40.4825
       1023.4000  1.11830e-12      40.5049
       1023.5000  1.16921e-12      42.3606
       1023.6000  1.16921e-12      42.3839
       1023.7000  1.16921e-12      42.3956
       1023.8000  1.16188e-12      42.1528
       1023.9000  1.16188e-12      42.1761
       1024.0000  1.16188e-12      42.1993
       1024.1000  1.16188e-12      42.1993
       1024.2000  1.16188e-12      42.1877
       1024.3000  1.16188e-12      42.1877
       1024.4000  1.16188e-12      42.1877
       1024.5000  1.31153e-12      47.6217
       1024.6000  1.31153e-12      47.6086
       1024.7000  1.31153e-12      47.6086
       1024.8000  1.31153e-12      47.6086
       1024.9000  1.31153e-12      47.5954
       1025.0000  1.31153e-12      47.5954
       1025.1000  1.31153e-12      47.5954
       1025.2000  1.31153e-12      47.5823
       1025.3000  1.31153e-12      47.5823
       1025.4000  1.31153e-12      47.5823
       1025.5000  1.12090e-12      40.6551
       1025.6000  1.12090e-12      40.6551
       1025.7000  1.12090e-12      40.6439
       1025.8000  1.12090e-12      40.6439
       1025.9000  1.12090e-12      40.6327
       1026.0000  1.12090e-12      40.6327
       1026.1000  1.12090e-12      40.6327
       1026.2000  1.12090e-12      40.6215
       1026.3000  1.11391e-12      40.3682
       1026.4000  1.11391e-12      40.3570
       1026.5000  9.15827e-13      33.1804
       1026.6000  9.15827e-13      33.1712
       1026.7000  9.15827e-13      33.1621
       1026.8000  9.15827e-13      33.1621
       1026.9000  9.15827e-13      33.1529
       1027.0000  9.15827e-13      33.1529
       1027.1000  9.15827e-13      33.1438
       1027.2000  9.15827e-13      33.1346
       1027.3000  9.15827e-13      33.1346
       1027.4000  9.15827e-13      33.1255
       1027.5000  9.50952e-13      34.3864
       1027.6000  9.50952e-13      34.3864
       1027.7000  9.50952e-13      34.3769
       1027.8000  9.50952e-13      34.3674
       1027.9000  9.50952e-13      34.3579
       1028.0000  9.50952e-13      34.3484
       1028.1000  9.50952e-13      34.3484
       1028.2000  9.50952e-13      34.3389
       1028.3000  9.50952e-13      34.3294
       1028.4000  9.50952e-13      34.3199
       1028.5000  1.02675e-12      37.0450
       1028.6000  1.02675e-12      37.0347
       1028.7000  1.02675e-12      37.0244
       1028.8000  1.01794e-12      36.6967
       1028.9000  1.01794e-12      36.6866
       1029.0000  1.01794e-12      36.6764
       1029.1000  1.01794e-12      36.6662
       1029.2000  1.01794e-12      36.6560
       1029.3000  1.01794e-12      36.6459
       1029.4000  1.01794e-12      36.6357
       1029.5000  8.36604e-13      30.1010
       1029.6000  8.36604e-13      30.0927
       1029.7000  8.36604e-13      30.0843
       1029.8000  8.36604e-13      30.0759
       1029.9000  8.36604e-13      30.0676
       1030.0000  8.36604e-13      30.0508
       1030.1000  8.36604e-13      30.0592
       1030.2000  8.36604e-13      30.0592
       1030.3000  8.36604e-13      30.0592
       1030.4000  8.36604e-13      30.0592
       1030.5000  9.95804e-13      35.7792
       1030.6000  9.95804e-13      35.7792
       1030.7000  9.95804e-13      35.7693
       1030.8000  9.95804e-13      35.7693
       1030.9000  9.95804e-13      35.7693
       1031.0000  9.95804e-13      35.7593
       1031.1000  9.95804e-13      35.7593
       1031.2000  9.95804e-13      35.7494
       1031.3000  9.82255e-13      35.2630
       1031.4000  9.82255e-13      35.2531
       1031.5000  9.34226e-13      33.5200
       1031.6000  9.34226e-13      33.5107
       1031.7000  9.34226e-13      33.5013
       1031.8000  9.34226e-13      33.4920
       1031.9000  9.34226e-13      33.4826
       1032.0000  9.34226e-13      33.4733
       1032.1000  9.34226e-13      33.4453
       1032.2000  9.34226e-13      33.4079
       1032.3000  9.34226e-13      33.3799
       1032.4000  9.34226e-13      33.3612
       1032.5000  1.05884e-12      37.7796
       1032.6000  1.05884e-12      37.7478
       1032.7000  1.05884e-12      37.7266
       1032.8000  1.05884e-12      37.6949
       1032.9000  1.05884e-12      37.6737
       1033.0000  1.05884e-12      37.6525
       1033.1000  1.05884e-12      37.6313
       1033.2000  1.05884e-12      37.6207
       1033.3000  1.05884e-12      37.5996
       1033.4000  1.05884e-12      37.5890
       1033.5000  9.15758e-13      32.4911
       1033.6000  9.15758e-13      32.4819
       1033.7000  9.15758e-13      32.4728
       1033.8000  8.98327e-13      31.8457
       1033.9000  8.98327e-13      31.8457
       1034.0000  8.98327e-13      31.8367
       1034.1000  8.98327e-13      31.8367
       1034.2000  8.98327e-13      31.8277
       1034.3000  8.98327e-13      31.8277
       1034.4000  8.98327e-13      31.8277
       1034.5000  8.83136e-13      31.2895
       1034.6000  8.83136e-13      31.2983
       1034.7000  8.83136e-13      31.2983
       1034.8000  8.83136e-13      31.3072
       1034.9000  8.83136e-13      31.3072
       1035.0000  8.83136e-13      31.3160
       1035.1000  8.83136e-13      31.3248
       1035.2000  8.83136e-13      31.3337
       1035.3000  8.83136e-13      31.3513
       1035.4000  8.83136e-13      31.3602
       1035.5000  7.31460e-13      25.9888
       1035.6000  7.31460e-13      26.0034
       1035.7000  7.31460e-13      26.0107
       1035.8000  7.31460e-13      26.0253
       1035.9000  7.31460e-13      26.0473
       1036.0000  7.31460e-13      26.0619
       1036.1000  7.31460e-13      26.0473
       1036.2000  7.31460e-13      26.0326
       1036.3000  7.14380e-13      25.4105
       1036.4000  7.14380e-13      25.3962
       1036.5000  6.14189e-13      21.8221
       1036.6000  6.14189e-13      21.8098
       1036.7000  6.14189e-13      21.8037
       1036.8000  6.14189e-13      21.7914
       1036.9000  6.14189e-13      21.7791
       1037.0000  6.14189e-13      21.7730
       1037.1000  6.14189e-13      21.7669
       1037.2000  6.14189e-13      21.7546
       1037.3000  6.14189e-13      21.7484
       1037.4000  6.14189e-13      21.7423
       1037.5000  6.61604e-13      23.4142
       1037.6000  6.61604e-13      23.4075
       1037.7000  6.61604e-13      23.4009
       1037.8000  6.61604e-13      23.3943
       1037.9000  6.61604e-13      23.3877
       1038.0000  6.61604e-13      23.3811
       1038.1000  6.61604e-13      23.3811
       1038.2000  6.61604e-13      23.3811
       1038.3000  6.61604e-13      23.3877
       1038.4000  6.61604e-13      23.3877
       1038.5000  9.98862e-13      35.3098
       1038.6000  9.98862e-13      35.3098
       1038.7000  9.98862e-13      35.3098
       1038.8000  9.72873e-13      34.3910
       1038.9000  9.72873e-13      34.3910
       1039.0000  9.72873e-13      34.3910
       1039.1000  9.72873e-13      34.3910
       1039.2000  9.72873e-13      34.3910
       1039.3000  9.72873e-13      34.3910
       1039.4000  9.72873e-13      34.3910
       1039.5000  6.39930e-13      22.6215
       1039.6000  6.39930e-13      22.6215
       1039.7000  6.39930e-13      22.6215
       1039.8000  6.39930e-13      22.6215
       1039.9000  6.39930e-13      22.6215
       1040.0000  6.39930e-13      22.6215
       1040.1000  6.39930e-13      22.6215
       1040.2000  6.39930e-13      22.6215
       1040.3000  6.39930e-13      22.6215
       1040.4000  6.39930e-13      22.6215
       1040.5000  6.50466e-13      22.9940
       1040.6000  6.50466e-13      22.9940
       1040.7000  6.50466e-13      22.9940
       1040.8000  6.50466e-13      22.9940
       1040.9000  6.50466e-13      22.9940
       1041.0000  6.50466e-13      22.9940
       1041.1000  6.50466e-13      22.9940
       1041.2000  6.50466e-13      22.9940
       1041.3000  6.31836e-13      22.3354
       1041.4000  6.31836e-13      22.3354
       1041.5000  4.81035e-13      17.0046
       1041.6000  4.81035e-13      17.0046
       1041.7000  4.81035e-13      17.0046
       1041.8000  4.81035e-13      16.9998
       1041.9000  4.81035e-13      16.9998
       1042.0000  4.81035e-13      16.9998
       1042.1000  4.81035e-13      17.0046
       1042.2000  4.81035e-13      17.0046
       1042.3000  4.81035e-13      17.0094
       1042.4000  4.81035e-13      17.0094
       1042.5000  3.23499e-13      11.4389
       1042.6000  3.23499e-13      11.4389
       1042.7000  3.23499e-13      11.4389
       1042.8000  3.23499e-13      11.4357
       1042.9000  3.23499e-13      11.4357
       1043.0000  3.23499e-13      11.4357
       1043.1000  3.23499e-13      11.4325
       1043.2000  3.23499e-13      11.4292
       1043.3000  3.23499e-13      11.4292
       1043.4000  3.23499e-13      11.4260
       1043.5000  5.53791e-13      19.5543
       1043.6000  5.53791e-13      19.5488
       1043.7000  5.53791e-13      19.5433
       1043.8000  5.37949e-13      18.9735
       1043.9000  5.37949e-13      18.9681
       1044.0000  5.37949e-13      18.9573
       1044.1000  5.37949e-13      18.9358
       1044.2000  5.37949e-13      18.9089
       1044.3000  5.37949e-13      18.8874
       1044.4000  5.37949e-13      18.8659
       1044.5000  4.04310e-13      14.1630
       1044.6000  4.04310e-13      14.1508
       1044.7000  4.04310e-13      14.1347
       1044.8000  4.04310e-13      14.1225
       1044.9000  4.04310e-13      14.1104
       1045.0000  4.04310e-13      14.0983
       1045.1000  4.04310e-13      14.0902
       1045.2000  4.04310e-13      14.0781
       1045.3000  4.04310e-13      14.0700
       1045.4000  4.04310e-13      14.0619
       1045.5000  4.00670e-13      13.9313
       1045.6000  4.00670e-13      13.9233
       1045.7000  4.00670e-13      13.9193
       1045.8000  4.00670e-13      13.9153
       1045.9000  4.00670e-13      13.9113
       1046.0000  4.00670e-13      13.9073
       1046.1000  4.00670e-13      13.9073
       1046.2000  4.00670e-13      13.9032
       1046.3000  3.89296e-13      13.5086
       1046.4000  3.89296e-13      13.5086
       1046.5000  3.02145e-13      10.4874
       1046.6000  3.02145e-13      10.4874
       1046.7000  3.02145e-13      10.4905
       1046.8000  3.02145e-13      10.4935
       1046.9000  3.02145e-13      10.4965
       1047.0000  3.02145e-13      10.5026
       1047.1000  3.02145e-13      10.5056
       1047.2000  3.02145e-13      10.5116
       1047.3000  3.02145e-13      10.5177
       1047.4000  3.02145e-13      10.5237
       1047.5000  3.29243e-13      11.4774
       1047.6000  3.29243e-13      11.4840
       1047.7000  3.29243e-13      11.4939
       1047.8000  3.29243e-13      11.5038
       1047.9000  3.29243e-13      11.5136
       1048.0000  3.29243e-13      11.5268
       1048.1000  3.29243e-13      11.5268
       1048.2000  3.29243e-13      11.5268
       1048.3000  3.29243e-13      11.5268
       1048.4000  3.29243e-13      11.5235
       1048.5000  3.78567e-13      13.2498
       1048.6000  3.78567e-13      13.2498
       1048.7000  3.78567e-13      13.2498
       1048.8000  3.68666e-13      12.9033
       1048.9000  3.68666e-13      12.9033
       1049.0000  3.68666e-13      12.8996
       1049.1000  3.68666e-13      12.8996
       1049.2000  3.68666e-13      12.8996
       1049.3000  3.68666e-13      12.8959
       1049.4000  3.68666e-13      12.8959
       1049.5000  3.47378e-13      12.1513
       1049.6000  3.47378e-13      12.1478
       1049.7000  3.47378e-13      12.1478
       1049.8000  3.47378e-13      12.1478
       1049.9000  3.47378e-13      12.1443
       1050.0000  3.47378e-13      12.1443
       1050.1000  3.47378e-13      12.1409
       1050.2000  3.47378e-13      12.1409
       1050.3000  3.47378e-13      12.1374
       1050.4000  3.47378e-13      12.1339
       1050.5000  1.99016e-13      6.95163
       1050.6000  1.99016e-13      6.94964
       1050.7000  1.99016e-13      6.94964
       1050.8000  1.99016e-13      6.94765
       1050.9000  1.99016e-13      6.94566
       1051.0000  1.99016e-13      6.94566
       1051.1000  1.99016e-13      6.94367
       1051.2000  1.99016e-13      6.94367
       1051.3000  1.94563e-13      6.78635
       1051.4000  1.94563e-13      6.78440
       1051.5000  1.60420e-13      5.59383
       1051.6000  1.60420e-13      5.59223
       1051.7000  1.60420e-13      5.59062
       1051.8000  1.60420e-13      5.59062
       1051.9000  1.60420e-13      5.58902
       1052.0000  1.60420e-13      5.58902
       1052.1000  1.60420e-13      5.58741
       1052.2000  1.60420e-13      5.58581
       1052.3000  1.60420e-13      5.58581
       1052.4000  1.60420e-13      5.58421
       1052.5000  1.65842e-13      5.77130
       1052.6000  1.65842e-13      5.77130
       1052.7000  1.65842e-13      5.76964
       1052.8000  1.65842e-13      5.76798
       1052.9000  1.65842e-13      5.76798
       1053.0000  1.65842e-13      5.76632
       1053.1000  1.65842e-13      5.76632
       1053.2000  1.65842e-13      5.76466
       1053.3000  1.65842e-13      5.76301
       1053.4000  1.65842e-13      5.76301
       1053.5000  1.52645e-13      5.30288
       1053.6000  1.52645e-13      5.30135
       1053.7000  1.52645e-13      5.30135
       1053.8000  1.49793e-13      5.20083
       1053.9000  1.49793e-13      5.19933
       1054.0000  1.49793e-13      5.19933
       1054.1000  1.49793e-13      5.20233
       1054.2000  1.49793e-13      5.20382
       1054.3000  1.49793e-13      5.20682
       1054.4000  1.49793e-13      5.20982
       1054.5000  8.97562e-14      3.12262
       1054.6000  8.97562e-14      3.12352
       1054.7000  8.97562e-14      3.12441
       1054.8000  8.97562e-14      3.12531
       1054.9000  8.97562e-14      3.12621
       1055.0000  8.97562e-14      3.12711
       1055.1000  8.97562e-14      3.12711
       1055.2000  8.97562e-14      3.12711
       1055.3000  8.97562e-14      3.12800
       1055.4000  8.97562e-14      3.12800
       1055.5000  9.36759e-14      3.26367
       1055.6000  9.36759e-14      3.26367
       1055.7000  9.36759e-14      3.26367
       1055.8000  9.36759e-14      3.26273
       1055.9000  9.36759e-14      3.26180
       1056.0000  9.36759e-14      3.26086
       1056.1000  9.36759e-14      3.25805
       1056.2000  9.36759e-14      3.25524
       1056.3000  9.19675e-14      3.19311
       1056.4000  9.19675e-14      3.18943
       1056.5000  4.09785e-14      1.41991
       1056.6000  4.09785e-14      1.41909
       1056.7000  4.09785e-14      1.41786
       1056.8000  4.09785e-14      1.41663
       1056.9000  4.09785e-14      1.41540
       1057.0000  4.09785e-14      1.41458
