PDS_VERSION_ID         = PDS3
RECORD_TYPE            = STREAM
OBJECT                 = TEXT
  PUBLICATION_DATE     = 2014-04-25
  INTERCHANGE_FORMAT   = ASCII
  NOTE                 = "System transmission vs. wavelength."
END_OBJECT             = TEXT
END
    
The systrans directory contains the non-wavelength-integrated system 
transmission values (QE*optics*filter1*filter2) for each filter combination. 
The naming convention for these files is as follows:

<camera><filter 1><filter 2>_systrans.tab

where <camera> is "issna" or "isswa," and <filter 1> and <filter 2> represent
the filter names. For polarized filter combinations, values are given for the
parallel orientation of the filter (full transmission), with values for the 
perpendicular (blocking) orientation provided in files with subscript 
"_b_systrans.tab". 

Columns in systrans files are as follows:

 1st column: Wavelength (nm)  
 2nd column: Transmitted Flux
 3rd column: Transmitted Flux * Solar Flux (phot per cm^2-s-angstrom at 1 AU)

The solar spectrum used for this calculation is provided in solarflux.tab.

\begindata
       600.00000  1.10665e-11      589.403
       600.10000  1.10665e-11      588.518
       600.20000  1.10665e-11      587.522
       600.30000  1.10665e-11      586.305
       600.40000  1.10665e-11      584.866
       600.50000  2.30251e-10      12138.8
       600.60000  2.30251e-10      12154.9
       600.70000  2.30251e-10      12168.7
       600.80000  2.30251e-10      12182.6
       600.90000  2.30251e-10      12191.8
       601.00000  2.30251e-10      12198.7
       601.10000  2.30251e-10      12201.0
       601.20000  2.30251e-10      12203.3
       601.30000  2.30133e-10      12197.1
       601.40000  2.30133e-10      12192.4
       601.50000  4.19753e-10      22230.1
       601.60000  4.19753e-10      22133.6
       601.70000  4.19753e-10      22053.8
       601.80000  4.19753e-10      21982.4
       601.90000  4.19753e-10      21927.9
       602.00000  4.19753e-10      21885.9
       602.10000  4.19753e-10      21852.3
       602.20000  4.19753e-10      21835.5
       602.30000  4.19753e-10      21831.3
       602.40000  4.19753e-10      21839.7
       602.50000  2.35062e-10      12239.7
       602.60000  2.35062e-10      12258.5
       602.70000  2.35062e-10      12284.3
       602.80000  2.35062e-10      12317.2
       602.90000  2.35062e-10      12357.2
       603.00000  2.35062e-10      12404.2
       603.10000  2.35062e-10      12458.3
       603.20000  2.35062e-10      12519.4
       603.30000  2.35062e-10      12587.6
       603.40000  2.35062e-10      12662.8
       603.50000  1.93781e-10      10506.8
       603.60000  1.93781e-10      10502.9
       603.70000  1.93781e-10      10499.1
       603.80000  1.93881e-10      10500.6
       603.90000  1.93881e-10      10494.8
       604.00000  1.93881e-10      10490.9
       604.10000  1.93881e-10      10485.1
       604.20000  1.93881e-10      10481.2
       604.30000  1.93881e-10      10475.4
       604.40000  1.93881e-10      10471.5
       604.50000  1.69199e-10      9133.38
       604.60000  1.69199e-10      9126.61
       604.70000  1.69199e-10      9119.85
       604.80000  1.69199e-10      9113.08
       604.90000  1.69199e-10      9106.31
       605.00000  1.69199e-10      9101.23
       605.10000  1.69199e-10      9096.16
       605.20000  1.69199e-10      9092.77
       605.30000  1.69199e-10      9087.70
       605.40000  1.69199e-10      9084.31
       605.50000  1.88404e-10      10111.6
       605.60000  1.88404e-10      10109.7
       605.70000  1.88404e-10      10106.0
       605.80000  1.88404e-10      10104.1
       605.90000  1.88404e-10      10104.1
       606.00000  1.88404e-10      10102.2
       606.10000  1.88404e-10      10102.2
       606.20000  1.88404e-10      10102.2
       606.30000  1.88609e-10      10113.2
       606.40000  1.88609e-10      10115.1
       606.50000  2.89579e-11      1553.30
       606.60000  2.89579e-11      1553.88
       606.70000  2.89579e-11      1554.17
       606.80000  2.89579e-11      1554.75
       606.90000  2.89579e-11      1554.75
       607.00000  2.89579e-11      1555.04
       607.10000  2.89579e-11      1555.04
       607.20000  2.89579e-11      1555.04
       607.30000  2.89579e-11      1554.75
       607.40000  2.89579e-11      1554.46
       607.50000  2.53616e-10      13611.6
       607.60000  2.53616e-10      13596.3
       607.70000  2.53616e-10      13583.7
       607.80000  2.53616e-10      13573.5
       607.90000  2.53616e-10      13563.4
       608.00000  2.53616e-10      13553.2
       608.10000  2.53616e-10      13545.6
       608.20000  2.53616e-10      13538.0
       608.30000  2.53616e-10      13532.9
       608.40000  2.53616e-10      13527.9
       608.50000  2.38845e-10      12737.6
       608.60000  2.38845e-10      12735.2
       608.70000  2.38845e-10      12732.9
       608.80000  2.38951e-10      12738.5
       608.90000  2.38951e-10      12740.8
       609.00000  2.38951e-10      12743.2
       609.10000  2.38951e-10      12745.6
       609.20000  2.38951e-10      12750.4
       609.30000  2.38951e-10      12755.2
       609.40000  2.38951e-10      12762.3
       609.50000  8.50774e-12      454.739
       609.60000  8.50774e-12      452.697
       609.70000  8.50774e-12      450.910
       609.80000  8.50774e-12      449.379
       609.90000  8.50774e-12      448.103
       610.00000  8.50774e-12      446.996
       610.10000  8.50774e-12      446.061
       610.20000  8.50774e-12      445.380
       610.30000  8.50774e-12      444.955
       610.40000  8.50774e-12      444.784
       610.50000  4.95338e-11      2589.13
       610.60000  4.95338e-11      2602.01
       610.70000  4.95338e-11      2613.40
       610.80000  4.95338e-11      2623.80
       610.90000  4.95338e-11      2632.72
       611.00000  4.95338e-11      2640.15
       611.10000  4.95338e-11      2646.59
       611.20000  4.95338e-11      2651.54
       611.30000  4.95531e-11      2656.54
       611.40000  4.95531e-11      2659.02
       611.50000  1.80502e-10      9689.33
       611.60000  1.80502e-10      9689.33
       611.70000  1.80502e-10      9683.91
       611.80000  1.80502e-10      9674.89
       611.90000  1.80502e-10      9660.45
       612.00000  1.80502e-10      9642.40
       612.10000  1.80502e-10      9618.93
       612.20000  1.80502e-10      9590.05
       612.30000  1.80502e-10      9557.56
       612.40000  1.80502e-10      9519.66
       612.50000  1.90544e-10      10005.5
       612.60000  1.90544e-10      9980.70
       612.70000  1.90544e-10      9957.84
       612.80000  1.90544e-10      9938.78
       612.90000  1.90544e-10      9923.54
       613.00000  1.90544e-10      9910.20
       613.10000  1.90544e-10      9900.67
       613.20000  1.90544e-10      9893.05
       613.30000  1.90544e-10      9889.24
       613.40000  1.90544e-10      9889.24
       613.50000  2.22398e-10      11544.7
       613.60000  2.22398e-10      11578.1
       613.70000  2.22398e-10      11607.0
       613.80000  2.22352e-10      11631.2
       613.90000  2.22352e-10      11657.9
       614.00000  2.22352e-10      11682.4
       614.10000  2.22352e-10      11702.4
       614.20000  2.22352e-10      11722.4
       614.30000  2.22352e-10      11740.2
       614.40000  2.22352e-10      11755.7
       614.50000  3.08485e-11      1632.81
       614.60000  3.08485e-11      1634.35
       614.70000  3.08485e-11      1635.59
       614.80000  3.08485e-11      1636.51
       614.90000  3.08485e-11      1637.13
       615.00000  3.08485e-11      1637.44
       615.10000  3.08485e-11      1637.74
       615.20000  3.08485e-11      1637.44
       615.30000  3.08485e-11      1637.13
       615.40000  3.08485e-11      1636.51
       615.50000  1.53140e-10      8117.95
       615.60000  1.53140e-10      8027.60
       615.70000  1.53140e-10      7944.90
       615.80000  1.53140e-10      7872.93
       615.90000  1.53140e-10      7811.67
       616.00000  1.53140e-10      7758.07
       616.10000  1.53140e-10      7715.19
       616.20000  1.53140e-10      7681.50
       616.30000  1.53379e-10      7668.95
       616.40000  1.53379e-10      7655.15
       616.50000  1.11675e-10      5569.23
       616.60000  1.11675e-10      5617.25
       616.70000  1.11675e-10      5661.92
       616.80000  1.11675e-10      5703.24
       616.90000  1.11675e-10      5742.32
       617.00000  1.11675e-10      5779.18
       617.10000  1.11675e-10      5812.68
       617.20000  1.11675e-10      5842.83
       617.30000  1.11675e-10      5870.75
       617.40000  1.11675e-10      5896.44
       617.50000  1.97988e-10      10493.4
       617.60000  1.97988e-10      10527.0
       617.70000  1.97988e-10      10556.7
       617.80000  1.97988e-10      10582.5
       617.90000  1.97988e-10      10600.3
       618.00000  1.97988e-10      10616.1
       618.10000  1.97988e-10      10626.0
       618.20000  1.97988e-10      10630.0
       618.30000  1.97988e-10      10630.0
       618.40000  1.97988e-10      10624.0
       618.50000  8.02734e-11      4303.46
       618.60000  8.02734e-11      4295.43
       618.70000  8.02734e-11      4287.40
       618.80000  8.03547e-11      4286.12
       618.90000  8.03547e-11      4280.50
       619.00000  8.03547e-11      4276.48
       619.10000  8.03547e-11      4273.27
       619.20000  8.03547e-11      4271.66
       619.30000  8.03547e-11      4270.85
       619.40000  8.03547e-11      4270.85
       619.50000  2.83374e-10      15067.0
       619.60000  2.83374e-10      15120.8
       619.70000  2.83374e-10      15169.0
       619.80000  2.83374e-10      15211.5
       619.90000  2.83374e-10      15248.4
       620.00000  2.83374e-10      15276.7
       620.10000  2.83374e-10      15299.4
       620.20000  2.83374e-10      15316.4
       620.30000  2.83374e-10      15327.7
       620.40000  2.83374e-10      15330.5
       620.50000  3.97660e-11      2151.34
       620.60000  3.97660e-11      2142.59
       620.70000  3.97660e-11      2134.24
       620.80000  3.97660e-11      2127.08
       620.90000  3.97660e-11      2120.72
       621.00000  3.97660e-11      2115.15
       621.10000  3.97660e-11      2110.38
       621.20000  3.97660e-11      2106.80
       621.30000  3.97798e-11      2104.35
       621.40000  3.97798e-11      2101.97
       621.50000  1.01404e-10      5355.15
       621.60000  1.01404e-10      5373.41
       621.70000  1.01404e-10      5389.63
       621.80000  1.01404e-10      5402.81
       621.90000  1.01404e-10      5414.98
       622.00000  1.01404e-10      5424.11
       622.10000  1.01404e-10      5431.21
       622.20000  1.01404e-10      5435.26
       622.30000  1.01404e-10      5438.30
       622.40000  1.01404e-10      5438.30
       622.50000  8.49630e-11      4554.87
       622.60000  8.49630e-11      4551.47
       622.70000  8.49630e-11      4546.37
       622.80000  8.49630e-11      4539.57
       622.90000  8.49630e-11      4530.23
       623.00000  8.49630e-11      4520.03
       623.10000  8.49630e-11      4507.29
       623.20000  8.49630e-11      4492.00
       623.30000  8.49630e-11      4475.85
       623.40000  8.49630e-11      4457.16
       623.50000  4.67055e-11      2439.43
       623.60000  4.67055e-11      2438.96
       623.70000  4.67055e-11      2438.96
       623.80000  4.66833e-11      2436.87
       623.90000  4.66833e-11      2436.40
       624.00000  4.66833e-11      2435.47
       624.10000  4.66833e-11      2434.07
       624.20000  4.66833e-11      2432.67
       624.30000  4.66833e-11      2431.27
       624.40000  4.66833e-11      2429.40
       624.50000  9.49220e-11      4935.95
       624.60000  9.49220e-11      4916.96
       624.70000  9.49220e-11      4901.77
       624.80000  9.49220e-11      4888.48
       624.90000  9.49220e-11      4878.04
       625.00000  9.49220e-11      4870.45
       625.10000  9.49220e-11      4865.70
       625.20000  9.49220e-11      4862.86
       625.30000  9.49220e-11      4863.80
       625.40000  9.49220e-11      4866.65
       625.50000  7.53869e-11      3869.61
       625.60000  7.53869e-11      3875.64
       625.70000  7.53869e-11      3884.69
       625.80000  7.53869e-11      3895.24
       625.90000  7.53869e-11      3908.06
       626.00000  7.53869e-11      3923.14
       626.10000  7.53869e-11      3940.47
       626.20000  7.53869e-11      3959.32
       626.30000  7.53001e-11      3976.60
       626.40000  7.53001e-11      3999.94
       626.50000  1.40573e-10      7513.64
       626.60000  1.40573e-10      7515.04
       626.70000  1.40573e-10      7516.45
       626.80000  1.40573e-10      7517.85
       626.90000  1.40573e-10      7519.26
       627.00000  1.40573e-10      7520.67
       627.10000  1.40573e-10      7522.07
       627.20000  1.40573e-10      7522.07
       627.30000  1.40573e-10      7523.48
       627.40000  1.40573e-10      7524.88
       627.50000  1.00919e-10      5403.22
       627.60000  1.00919e-10      5407.26
       627.70000  1.00919e-10      5410.29
       627.80000  1.00919e-10      5412.31
       627.90000  1.00919e-10      5414.33
       628.00000  1.00919e-10      5415.33
       628.10000  1.00919e-10      5416.34
       628.20000  1.00919e-10      5416.34
       628.30000  1.00919e-10      5415.33
       628.40000  1.00919e-10      5414.33
       628.50000  1.51314e-10      8114.99
       628.60000  1.51314e-10      8110.45
       628.70000  1.51314e-10      8105.91
       628.80000  1.50975e-10      8081.71
       628.90000  1.50975e-10      8074.16
       629.00000  1.50975e-10      8066.61
       629.10000  1.50975e-10      8057.55
       629.20000  1.50975e-10      8048.49
       629.30000  1.50975e-10      8037.93
       629.40000  1.50975e-10      8025.85
       629.50000  9.47201e-12      502.774
       629.60000  9.47201e-12      501.732
       629.70000  9.47201e-12      500.690
       629.80000  9.47201e-12      499.743
       629.90000  9.47201e-12      498.891
       630.00000  9.47201e-12      498.038
       630.10000  9.47201e-12      497.186
       630.20000  9.47201e-12      496.523
       630.30000  9.47201e-12      495.765
       630.40000  9.47201e-12      495.197
       630.50000  1.69316e-11      884.167
       630.60000  1.69316e-11      883.151
       630.70000  1.69316e-11      882.305
       630.80000  1.69316e-11      881.627
       630.90000  1.69316e-11      880.950
       631.00000  1.69316e-11      880.442
       631.10000  1.69316e-11      880.950
       631.20000  1.69316e-11      881.458
       631.30000  1.68856e-11      879.740
       631.40000  1.68856e-11      880.247
       631.50000  1.31040e-10      6835.05
       631.60000  1.31040e-10      6838.98
       631.70000  1.31040e-10      6842.91
       631.80000  1.31040e-10      6845.53
       631.90000  1.31040e-10      6849.46
       632.00000  1.31040e-10      6853.40
       632.10000  1.31040e-10      6857.33
       632.20000  1.31040e-10      6859.95
       632.30000  1.31040e-10      6863.88
       632.40000  1.31040e-10      6867.81
       632.50000  2.24023e-10      11745.5
       632.60000  2.24023e-10      11750.0
       632.70000  2.24023e-10      11756.7
       632.80000  2.24023e-10      11761.2
       632.90000  2.24023e-10      11765.7
       633.00000  2.24023e-10      11772.4
       633.10000  2.24023e-10      11776.9
       633.20000  2.24023e-10      11781.4
       633.30000  2.24023e-10      11785.9
       633.40000  2.24023e-10      11790.4
       633.50000  1.48354e-10      7810.83
       633.60000  1.48354e-10      7813.80
       633.70000  1.48354e-10      7816.77
       633.80000  1.47957e-10      7797.32
       633.90000  1.47957e-10      7800.28
       634.00000  1.47957e-10      7803.24
       634.10000  1.47957e-10      7804.72
       634.20000  1.47957e-10      7807.68
       634.30000  1.47957e-10      7809.16
       634.40000  1.47957e-10      7812.12
       634.50000  1.43970e-10      7603.06
       634.60000  1.43970e-10      7604.50
       634.70000  1.43970e-10      7607.38
       634.80000  1.43970e-10      7608.82
       634.90000  1.43970e-10      7610.26
       635.00000  1.43970e-10      7611.70
       635.10000  1.43970e-10      7613.14
       635.20000  1.43970e-10      7613.14
       635.30000  1.43970e-10      7614.58
       635.40000  1.43970e-10      7614.58
       635.50000  1.44933e-10      7666.94
       635.60000  1.44933e-10      7668.39
       635.70000  1.44933e-10      7668.39
       635.80000  1.44933e-10      7669.84
       635.90000  1.44933e-10      7669.84
       636.00000  1.44933e-10      7671.29
       636.10000  1.44933e-10      7671.29
       636.20000  1.44933e-10      7672.74
       636.30000  1.44410e-10      7645.07
       636.40000  1.44410e-10      7646.51
       636.50000  7.74080e-11      4098.75
       636.60000  7.74080e-11      4099.53
       636.70000  7.74080e-11      4099.53
       636.80000  7.74080e-11      4100.30
       636.90000  7.74080e-11      4100.30
       637.00000  7.74080e-11      4100.30
       637.10000  7.74080e-11      4101.08
       637.20000  7.74080e-11      4101.08
       637.30000  7.74080e-11      4101.85
       637.40000  7.74080e-11      4101.85
       637.50000  8.55814e-11      4534.96
       637.60000  8.55814e-11      4535.81
       637.70000  8.55814e-11      4535.81
       637.80000  8.55814e-11      4536.67
       637.90000  8.55814e-11      4536.67
       638.00000  8.55814e-11      4536.67
       638.10000  8.55814e-11      4537.52
       638.20000  8.55814e-11      4537.52
       638.30000  8.55814e-11      4537.52
       638.40000  8.55814e-11      4538.38
       638.50000  1.41948e-10      7527.48
       638.60000  1.41948e-10      7527.48
       638.70000  1.41948e-10      7528.90
       638.80000  1.41548e-10      7507.69
       638.90000  1.41548e-10      7507.69
       639.00000  1.41548e-10      7507.69
       639.10000  1.41548e-10      7496.36
       639.20000  1.41548e-10      7485.04
       639.30000  1.41548e-10      7473.71
       639.40000  1.41548e-10      7463.81
       639.50000  9.50165e-11      5002.62
       639.60000  9.50165e-11      4996.92
       639.70000  9.50165e-11      4990.26
       639.80000  9.50165e-11      4984.56
       639.90000  9.50165e-11      4979.81
       640.00000  9.50165e-11      4974.11
       640.10000  9.50165e-11      4969.36
       640.20000  9.50165e-11      4965.56
       640.30000  9.50165e-11      4961.76
       640.40000  9.50165e-11      4957.96
       640.50000  1.00427e-10      5236.24
       640.60000  1.00427e-10      5233.23
       640.70000  1.00427e-10      5230.21
       640.80000  1.00427e-10      5228.20
       640.90000  1.00427e-10      5225.19
       641.00000  1.00427e-10      5224.19
       641.10000  1.00427e-10      5226.20
       641.20000  1.00427e-10      5228.20
       641.30000  1.00111e-10      5213.76
       641.40000  1.00111e-10      5215.77
       641.50000  3.81794e-11      1989.91
       641.60000  3.81794e-11      1990.67
       641.70000  3.81794e-11      1991.44
       641.80000  3.81794e-11      1992.20
       641.90000  3.81794e-11      1992.96
       642.00000  3.81794e-11      1993.73
       642.10000  3.81794e-11      1994.11
       642.20000  3.81794e-11      1994.87
       642.30000  3.81794e-11      1995.64
       642.40000  3.81794e-11      1996.40
       642.50000  5.31905e-11      2782.40
       642.60000  5.31905e-11      2783.46
       642.70000  5.31905e-11      2784.52
       642.80000  5.31905e-11      2785.59
       642.90000  5.31905e-11      2786.65
       643.00000  5.31905e-11      2787.72
       643.10000  5.31905e-11      2788.25
       643.20000  5.31905e-11      2789.31
       643.30000  5.31905e-11      2790.38
       643.40000  5.31905e-11      2791.44
       643.50000  8.18938e-11      4299.43
       643.60000  8.18938e-11      4301.06
       643.70000  8.18938e-11      4301.88
       643.80000  8.15876e-11      4287.43
       643.90000  8.15876e-11      4289.06
       644.00000  8.15876e-11      4290.69
       644.10000  8.15876e-11      4292.32
       644.20000  8.15876e-11      4293.14
       644.30000  8.15876e-11      4294.77
       644.40000  8.15876e-11      4296.40
       644.50000  1.22296e-10      6442.57
       644.60000  1.22296e-10      6443.79
       644.70000  1.22296e-10      6446.24
       644.80000  1.22296e-10      6448.68
       644.90000  1.22296e-10      6451.13
       645.00000  1.22296e-10      6452.35
       645.10000  1.22296e-10      6451.13
       645.20000  1.22296e-10      6448.68
       645.30000  1.22296e-10      6447.46
       645.40000  1.22296e-10      6445.01
       645.50000  6.78523e-11      3573.78
       645.60000  6.78523e-11      3572.43
       645.70000  6.78523e-11      3571.07
       645.80000  6.78523e-11      3569.03
       645.90000  6.78523e-11      3567.00
       646.00000  6.78523e-11      3564.96
       646.10000  6.78523e-11      3562.93
       646.20000  6.78523e-11      3560.89
       646.30000  6.75710e-11      3543.43
       646.40000  6.75710e-11      3540.72
       646.50000  8.90578e-11      4663.96
       646.60000  8.90578e-11      4659.50
       646.70000  8.90578e-11      4655.94
       646.80000  8.90578e-11      4652.38
       646.90000  8.90578e-11      4647.93
       647.00000  8.90578e-11      4644.36
       647.10000  8.90578e-11      4631.90
       647.20000  8.90578e-11      4620.32
       647.30000  8.90578e-11      4609.63
       647.40000  8.90578e-11      4598.94
       647.50000  5.68470e-11      2929.33
       647.60000  5.68470e-11      2924.21
       647.70000  5.68470e-11      2918.52
       647.80000  5.68470e-11      2913.98
       647.90000  5.68470e-11      2909.43
       648.00000  5.68470e-11      2905.45
       648.10000  5.68470e-11      2902.04
       648.20000  5.68470e-11      2899.20
       648.30000  5.68470e-11      2896.35
       648.40000  5.68470e-11      2894.08
       648.50000  4.85214e-11      2468.77
       648.60000  4.85214e-11      2467.80
       648.70000  4.85214e-11      2466.83
       648.80000  4.83221e-11      2456.21
       648.90000  4.83221e-11      2456.21
       649.00000  4.83221e-11      2456.70
       649.10000  4.83221e-11      2457.18
       649.20000  4.83221e-11      2458.63
       649.30000  4.83221e-11      2459.60
       649.40000  4.83221e-11      2461.53
       649.50000  2.55234e-11      1301.44
       649.60000  2.55234e-11      1302.72
       649.70000  2.55234e-11      1304.25
       649.80000  2.55234e-11      1306.03
       649.90000  2.55234e-11      1307.82
       650.00000  2.55234e-11      1309.86
       650.10000  2.55234e-11      1312.16
       650.20000  2.55234e-11      1314.71
       650.30000  2.55234e-11      1317.52
       650.40000  2.55234e-11      1320.33
       650.50000  4.09620e-11      2123.88
       650.60000  4.09620e-11      2129.20
       650.70000  4.09620e-11      2134.53
       650.80000  4.09620e-11      2140.67
       650.90000  4.09620e-11      2146.82
       651.00000  4.09620e-11      2153.37
       651.10000  4.09620e-11      2155.01
       651.20000  4.09620e-11      2156.65
       651.30000  4.07808e-11      2148.33
       651.40000  4.07808e-11      2149.55
       651.50000  4.35288e-11      2295.71
       651.60000  4.35288e-11      2296.14
       651.70000  4.35288e-11      2297.01
       651.80000  4.35288e-11      2297.45
       651.90000  4.35288e-11      2297.45
       652.00000  4.35288e-11      2297.45
       652.10000  4.35288e-11      2297.01
       652.20000  4.35288e-11      2296.58
       652.30000  4.35288e-11      2296.14
       652.40000  4.35288e-11      2295.27
       652.50000  4.61033e-11      2429.65
       652.60000  4.61033e-11      2428.26
       652.70000  4.61033e-11      2426.88
       652.80000  4.61033e-11      2424.57
       652.90000  4.61033e-11      2422.73
       653.00000  4.61033e-11      2420.43
       653.10000  4.61033e-11      2418.58
       653.20000  4.61033e-11      2416.74
       653.30000  4.61033e-11      2413.97
       653.40000  4.61033e-11      2411.20
       653.50000  7.15105e-11      3735.71
       653.60000  7.15105e-11      3730.70
       653.70000  7.15105e-11      3724.98
       653.80000  7.13438e-11      3709.88
       653.90000  7.13438e-11      3703.46
       654.00000  7.13438e-11      3696.32
       654.10000  7.13438e-11      3689.19
       654.20000  7.13438e-11      3680.63
       654.30000  7.13438e-11      3672.07
       654.40000  7.13438e-11      3663.50
       654.50000  5.95713e-11      3051.24
       654.60000  5.95713e-11      3042.90
       654.70000  5.95713e-11      3033.97
       654.80000  5.95713e-11      3025.03
       654.90000  5.95713e-11      3015.50
       655.00000  5.95713e-11      3005.37
       655.10000  5.95713e-11      2976.78
       655.20000  5.95713e-11      2949.38
       655.30000  5.95713e-11      2923.76
       655.40000  5.95713e-11      2899.93
       655.50000  3.03137e-11      1464.15
       655.60000  3.03137e-11      1453.54
       655.70000  3.03137e-11      1443.54
       655.80000  3.03137e-11      1434.44
       655.90000  3.03137e-11      1425.96
       656.00000  3.03137e-11      1418.38
       656.10000  3.03137e-11      1411.71
       656.20000  3.03137e-11      1405.65
       656.30000  3.02750e-11      1398.71
       656.40000  3.02750e-11      1394.17
       656.50000  6.67970e-11      3067.99
       656.60000  6.67970e-11      3061.98
       656.70000  6.67970e-11      3057.30
       656.80000  6.67970e-11      3054.63
       656.90000  6.67970e-11      3053.29
       657.00000  6.67970e-11      3053.96
       657.10000  6.67970e-11      3080.01
       657.20000  6.67970e-11      3105.39
       657.30000  6.67970e-11      3130.11
       657.40000  6.67970e-11      3154.15
       657.50000  4.08544e-11      1943.04
       657.60000  4.08544e-11      1956.93
       657.70000  4.08544e-11      1970.00
       657.80000  4.08544e-11      1982.67
       657.90000  4.08544e-11      1994.51
       658.00000  4.08544e-11      2006.36
       658.10000  4.08544e-11      2017.80
       658.20000  4.08544e-11      2028.42
       658.30000  4.08544e-11      2038.64
       658.40000  4.08544e-11      2048.44
       658.50000  8.71531e-12      438.903
       658.60000  8.71531e-12      440.821
       658.70000  8.71531e-12      442.564
       658.80000  8.68618e-12      442.821
       658.90000  8.68618e-12      444.385
       659.00000  8.68618e-12      445.775
       659.10000  8.68618e-12      447.164
       659.20000  8.68618e-12      448.467
       659.30000  8.68618e-12      449.597
       659.40000  8.68618e-12      450.639
       659.50000  2.80287e-11      1457.21
       659.60000  2.80287e-11      1460.02
       659.70000  2.80287e-11      1462.26
       659.80000  2.80287e-11      1464.50
       659.90000  2.80287e-11      1466.18
       660.00000  2.80287e-11      1467.58
       660.10000  2.80287e-11      1468.71
       660.20000  2.80287e-11      1469.27
       660.30000  2.80287e-11      1469.83
       660.40000  2.80287e-11      1469.83
       660.50000  7.45671e-11      3909.55
       660.60000  7.45671e-11      3908.06
       660.70000  7.45671e-11      3905.82
       660.80000  7.45671e-11      3902.10
       660.90000  7.45671e-11      3898.37
       661.00000  7.45671e-11      3893.15
       661.10000  7.45671e-11      3890.91
       661.20000  7.45671e-11      3887.93
       661.30000  7.40211e-11      3857.24
       661.40000  7.40211e-11      3855.02
       661.50000  7.44769e-11      3876.52
       661.60000  7.44769e-11      3875.03
       661.70000  7.44769e-11      3872.80
       661.80000  7.44769e-11      3871.31
       661.90000  7.44769e-11      3869.82
       662.00000  7.44769e-11      3868.33
       662.10000  7.44769e-11      3866.84
       662.20000  7.44769e-11      3865.35
       662.30000  7.44769e-11      3864.61
       662.40000  7.44769e-11      3863.86
       662.50000  8.80439e-11      4565.96
       662.60000  8.80439e-11      4565.96
       662.70000  8.80439e-11      4565.07
       662.80000  8.80439e-11      4564.19
       662.90000  8.80439e-11      4564.19
       663.00000  8.80439e-11      4564.19
       663.10000  8.80439e-11      4567.72
       663.20000  8.80439e-11      4570.36
       663.30000  8.80439e-11      4573.88
       663.40000  8.80439e-11      4576.52
       663.50000  8.97401e-11      4667.38
       663.60000  8.97401e-11      4670.08
       663.70000  8.97401e-11      4671.87
       663.80000  8.90022e-11      4636.12
       663.90000  8.90022e-11      4637.90
       664.00000  8.90022e-11      4638.79
       664.10000  8.90022e-11      4640.57
       664.20000  8.90022e-11      4641.46
       664.30000  8.90022e-11      4642.35
       664.40000  8.90022e-11      4643.24
       664.50000  5.07661e-11      2648.47
       664.60000  5.07661e-11      2648.47
       664.70000  5.07661e-11      2648.47
       664.80000  5.07661e-11      2648.47
       664.90000  5.07661e-11      2648.47
       665.00000  5.07661e-11      2647.96
       665.10000  5.07661e-11      2647.45
       665.20000  5.07661e-11      2646.95
       665.30000  5.07661e-11      2645.93
       665.40000  5.07661e-11      2644.91
       665.50000  7.69940e-11      4009.85
       665.60000  7.69940e-11      4008.31
       665.70000  7.69940e-11      4006.00
       665.80000  7.69940e-11      4004.46
       665.90000  7.69940e-11      4002.15
       666.00000  7.69940e-11      3999.07
       666.10000  7.69940e-11      3996.76
       666.20000  7.69940e-11      3993.68
       666.30000  7.64963e-11      3964.80
       666.40000  7.64963e-11      3961.74
       666.50000  3.19085e-11      1650.94
       666.60000  3.19085e-11      1649.35
       666.70000  3.19085e-11      1647.75
       666.80000  3.19085e-11      1646.16
       666.90000  3.19085e-11      1644.56
       667.00000  3.19085e-11      1642.65
       667.10000  3.19085e-11      1644.56
       667.20000  3.19085e-11      1646.16
       667.30000  3.19085e-11      1647.75
       667.40000  3.19085e-11      1649.35
       667.50000  2.45972e-12      127.266
       667.60000  2.45972e-12      127.365
       667.70000  2.45972e-12      127.463
       667.80000  2.45972e-12      127.537
       667.90000  2.45972e-12      127.611
       668.00000  2.45972e-12      127.684
       668.10000  2.45972e-12      127.758
       668.20000  2.45972e-12      127.807
       668.30000  2.45972e-12      127.857
       668.40000  2.45972e-12      127.881
       668.50000  2.02762e-11      1054.36
       668.60000  2.02762e-11      1054.56
       668.70000  2.02762e-11      1054.56
       668.80000  2.01599e-11      1048.51
       668.90000  2.01599e-11      1048.51
       669.00000  2.01599e-11      1048.31
       669.10000  2.01599e-11      1046.90
       669.20000  2.01599e-11      1045.49
       669.30000  2.01599e-11      1044.28
       669.40000  2.01599e-11      1043.07
       669.50000  4.05050e-11      2093.30
       669.60000  4.05050e-11      2090.87
       669.70000  4.05050e-11      2088.84
       669.80000  4.05050e-11      2086.82
       669.90000  4.05050e-11      2084.79
       670.00000  4.05050e-11      2083.17
       670.10000  4.05050e-11      2081.55
       670.20000  4.05050e-11      2079.93
       670.30000  4.05050e-11      2078.31
       670.40000  4.05050e-11      2077.09
       670.50000  2.36102e-11      1210.02
       670.60000  2.36102e-11      1209.31
       670.70000  2.36102e-11      1208.84
       670.80000  2.36102e-11      1208.37
       670.90000  2.36102e-11      1207.90
       671.00000  2.36102e-11      1207.66
       671.10000  2.36102e-11      1207.19
       671.20000  2.36102e-11      1207.19
       671.30000  2.34764e-11      1200.12
       671.40000  2.34764e-11      1200.12
       671.50000  6.88835e-11      3521.32
       671.60000  6.88835e-11      3521.32
       671.70000  6.88835e-11      3521.32
       671.80000  6.88835e-11      3522.01
       671.90000  6.88835e-11      3522.70
       672.00000  6.88835e-11      3524.08
       672.10000  6.88835e-11      3525.46
       672.20000  6.88835e-11      3526.83
       672.30000  6.88835e-11      3528.21
       672.40000  6.88835e-11      3530.28
       672.50000  3.33401e-11      1709.68
       672.60000  3.33401e-11      1710.68
       672.70000  3.33401e-11      1711.68
       672.80000  3.33401e-11      1713.01
       672.90000  3.33401e-11      1714.35
       673.00000  3.33401e-11      1716.01
       673.10000  3.33401e-11      1715.35
       673.20000  3.33401e-11      1714.68
       673.30000  3.33401e-11      1714.01
       673.40000  3.33401e-11      1713.68
       673.50000  3.93450e-11      2021.55
       673.60000  3.93450e-11      2021.15
       673.70000  3.93450e-11      2020.76
       673.80000  3.91002e-11      2007.41
       673.90000  3.91002e-11      2007.01
       674.00000  3.91002e-11      2006.62
       674.10000  3.91002e-11      2006.23
       674.20000  3.91002e-11      2005.84
       674.30000  3.91002e-11      2005.45
       674.40000  3.91002e-11      2005.06
       674.50000  3.36417e-11      1724.81
       674.60000  3.36417e-11      1724.81
       674.70000  3.36417e-11      1724.47
       674.80000  3.36417e-11      1724.47
       674.90000  3.36417e-11      1724.14
       675.00000  3.36417e-11      1724.14
       675.10000  3.36417e-11      1724.47
       675.20000  3.36417e-11      1724.81
       675.30000  3.36417e-11      1725.14
       675.40000  3.36417e-11      1725.48
       675.50000  1.65208e-11      847.350
       675.60000  1.65208e-11      847.516
       675.70000  1.65208e-11      847.681
       675.80000  1.65208e-11      847.681
       675.90000  1.65208e-11      847.846
       676.00000  1.65208e-11      847.846
       676.10000  1.65208e-11      848.011
       676.20000  1.65208e-11      848.011
       676.30000  1.63959e-11      841.601
       676.40000  1.63959e-11      841.601
       676.50000  2.61493e-11      1342.51
       676.60000  2.61493e-11      1342.51
       676.70000  2.61493e-11      1342.51
       676.80000  2.61493e-11      1342.25
       676.90000  2.61493e-11      1342.25
       677.00000  2.61493e-11      1342.25
       677.10000  2.61493e-11      1342.25
       677.20000  2.61493e-11      1341.98
       677.30000  2.61493e-11      1341.98
       677.40000  2.61493e-11      1341.72
       677.50000  5.02554e-11      2578.61
       677.60000  5.02554e-11      2578.10
       677.70000  5.02554e-11      2578.10
       677.80000  5.02554e-11      2577.60
       677.90000  5.02554e-11      2577.10
       678.00000  5.02554e-11      2576.60
       678.10000  5.02554e-11      2576.09
       678.20000  5.02554e-11      2575.59
       678.30000  5.02554e-11      2575.09
       678.40000  5.02554e-11      2574.59
       678.50000  2.60938e-12      133.626
       678.60000  2.60938e-12      133.600
       678.70000  2.60938e-12      133.574
       678.80000  2.58971e-12      132.516
       678.90000  2.58971e-12      132.490
       679.00000  2.58971e-12      132.438
       679.10000  2.58971e-12      132.438
       679.20000  2.58971e-12      132.464
       679.30000  2.58971e-12      132.464
       679.40000  2.58971e-12      132.464
       679.50000  8.72043e-12      446.050
       679.60000  8.72043e-12      446.050
       679.70000  8.72043e-12      446.050
       679.80000  8.72043e-12      446.050
       679.90000  8.72043e-12      446.050
       680.00000  8.72043e-12      445.963
       680.10000  8.72043e-12      445.963
       680.20000  8.72043e-12      445.963
       680.30000  8.72043e-12      445.876
       680.40000  8.72043e-12      445.876
       680.50000  3.85406e-11      1970.20
       680.60000  3.85406e-11      1970.20
       680.70000  3.85406e-11      1969.81
       680.80000  3.85406e-11      1969.43
       680.90000  3.85406e-11      1969.04
       681.00000  3.85406e-11      1969.04
       681.10000  3.85406e-11      1968.66
       681.20000  3.85406e-11      1968.27
       681.30000  3.82152e-11      1951.65
       681.40000  3.82152e-11      1951.27
       681.50000  2.97242e-12      151.742
       681.60000  2.97242e-12      151.712
       681.70000  2.97242e-12      151.682
       681.80000  2.97242e-12      151.623
       681.90000  2.97242e-12      151.593
       682.00000  2.97242e-12      151.563
       682.10000  2.97242e-12      151.504
       682.20000  2.97242e-12      151.445
       682.30000  2.97242e-12      151.415
       682.40000  2.97242e-12      151.355
       682.50000  3.82971e-11      1949.32
       682.60000  3.82971e-11      1948.56
       682.70000  3.82971e-11      1947.79
       682.80000  3.82971e-11      1947.03
       682.90000  3.82971e-11      1945.88
       683.00000  3.82971e-11      1945.11
       683.10000  3.82971e-11      1944.34
       683.20000  3.82971e-11      1943.20
       683.30000  3.82971e-11      1942.05
       683.40000  3.82971e-11      1940.90
       683.50000  5.41820e-12      274.486
       683.60000  5.41820e-12      274.323
       683.70000  5.41820e-12      274.161
       683.80000  5.36675e-12      271.343
       683.90000  5.36675e-12      271.182
       684.00000  5.36675e-12      271.021
       684.10000  5.36675e-12      270.806
       684.20000  5.36675e-12      270.645
       684.30000  5.36675e-12      270.431
       684.40000  5.36675e-12      270.270
       684.50000  2.19569e-11      1104.87
       684.60000  2.19569e-11      1103.99
       684.70000  2.19569e-11      1103.12
       684.80000  2.19569e-11      1102.24
       684.90000  2.19569e-11      1101.14
       685.00000  2.19569e-11      1100.26
       685.10000  2.19569e-11      1101.14
       685.20000  2.19569e-11      1102.24
       685.30000  2.19569e-11      1103.12
       685.40000  2.19569e-11      1103.77
       685.50000  1.37064e-11      689.568
       685.60000  1.37064e-11      690.117
       685.70000  1.37064e-11      690.528
       685.80000  1.37064e-11      690.939
       685.90000  1.37064e-11      691.350
       686.00000  1.37064e-11      691.761
       686.10000  1.37064e-11      692.173
       686.20000  1.37064e-11      692.447
       686.30000  1.35769e-11      686.314
       686.40000  1.35769e-11      686.586
       686.50000  2.21765e-11      1121.91
       686.60000  2.21765e-11      1122.35
       686.70000  2.21765e-11      1122.80
       686.80000  2.21765e-11      1123.02
       686.90000  2.21765e-11      1123.46
       687.00000  2.21765e-11      1123.68
       687.10000  2.21765e-11      1123.90
       687.20000  2.21765e-11      1123.90
       687.30000  2.21765e-11      1123.90
       687.40000  2.21765e-11      1123.90
       687.50000  2.28407e-11      1157.57
       687.60000  2.28407e-11      1157.57
       687.70000  2.28407e-11      1157.57
       687.80000  2.28407e-11      1157.57
       687.90000  2.28407e-11      1157.57
       688.00000  2.28407e-11      1157.34
       688.10000  2.28407e-11      1157.34
       688.20000  2.28407e-11      1157.34
       688.30000  2.28407e-11      1157.11
       688.40000  2.28407e-11      1157.11
       688.50000  1.77742e-11      900.265
       688.60000  1.77742e-11      900.087
       688.70000  1.77742e-11      900.087
       688.80000  1.76283e-11      892.522
       688.90000  1.76283e-11      892.345
       689.00000  1.76283e-11      892.169
       689.10000  1.76283e-11      891.993
       689.20000  1.76283e-11      891.816
       689.30000  1.76283e-11      891.640
       689.40000  1.76283e-11      891.464
       689.50000  2.57112e-12      129.996
       689.60000  2.57112e-12      129.970
       689.70000  2.57112e-12      129.919
       689.80000  2.57112e-12      129.893
       689.90000  2.57112e-12      129.868
       690.00000  2.57112e-12      129.816
       690.10000  2.57112e-12      129.765
       690.20000  2.57112e-12      129.739
       690.30000  2.57112e-12      129.688
       690.40000  2.57112e-12      129.636
       690.50000  6.24119e-12      314.618
       690.60000  6.24119e-12      314.494
       690.70000  6.24119e-12      314.369
       690.80000  6.24119e-12      314.244
       690.90000  6.24119e-12      314.119
       691.00000  6.24119e-12      313.994
       691.10000  6.24119e-12      314.119
       691.20000  6.24119e-12      314.182
       691.30000  6.19392e-12      311.926
       691.40000  6.19392e-12      311.988
       691.50000  2.19728e-11      1106.99
       691.60000  2.19728e-11      1107.43
       691.70000  2.19728e-11      1107.65
       691.80000  2.19728e-11      1107.87
       691.90000  2.19728e-11      1108.09
       692.00000  2.19728e-11      1108.09
       692.10000  2.19728e-11      1108.31
       692.20000  2.19728e-11      1108.53
       692.30000  2.19728e-11      1108.53
       692.40000  2.19728e-11      1108.53
       692.50000  1.25456e-11      633.051
       692.60000  1.25456e-11      633.051
       692.70000  1.25456e-11      633.051
       692.80000  1.25456e-11      633.051
       692.90000  1.25456e-11      633.051
       693.00000  1.25456e-11      632.926
       693.10000  1.25456e-11      632.926
       693.20000  1.25456e-11      632.800
       693.30000  1.25456e-11      632.675
       693.40000  1.25456e-11      632.550
       693.50000  1.30039e-11      655.528
       693.60000  1.30039e-11      655.398
       693.70000  1.30039e-11      655.268
       693.80000  1.29142e-11      650.619
       693.90000  1.29142e-11      650.361
       694.00000  1.29142e-11      650.232
       694.10000  1.29142e-11      650.103
       694.20000  1.29142e-11      649.845
       694.30000  1.29142e-11      649.715
       694.40000  1.29142e-11      649.457
       694.50000  1.58931e-11      798.946
       694.60000  1.58931e-11      798.787
       694.70000  1.58931e-11      798.469
       694.80000  1.58931e-11      798.151
       694.90000  1.58931e-11      797.833
       695.00000  1.58931e-11      797.515
       695.10000  1.58931e-11      797.198
       695.20000  1.58931e-11      796.880
       695.30000  1.58931e-11      796.403
       695.40000  1.58931e-11      796.085
       695.50000  1.58113e-11      791.672
       695.60000  1.58113e-11      791.198
       695.70000  1.58113e-11      790.882
       695.80000  1.58113e-11      790.407
       695.90000  1.58113e-11      789.933
       696.00000  1.58113e-11      789.617
       696.10000  1.58113e-11      789.143
       696.20000  1.58113e-11      788.668
       696.30000  1.57188e-11      783.582
       696.40000  1.57188e-11      783.110
       696.50000  3.50164e-12      174.347
       696.60000  3.50164e-12      174.242
       696.70000  3.50164e-12      174.102
       696.80000  3.50164e-12      173.997
       696.90000  3.50164e-12      173.891
       697.00000  3.50164e-12      173.751
       697.10000  3.50164e-12      173.997
       697.20000  3.50164e-12      174.172
       697.30000  3.50164e-12      174.382
       697.40000  3.50164e-12      174.557
       697.50000  3.13877e-12      156.624
       697.60000  3.13877e-12      156.750
       697.70000  3.13877e-12      156.876
       697.80000  3.13877e-12      156.970
       697.90000  3.13877e-12      157.064
       698.00000  3.13877e-12      157.127
       698.10000  3.13877e-12      157.189
       698.20000  3.13877e-12      157.252
       698.30000  3.13877e-12      157.284
       698.40000  3.13877e-12      157.315
       698.50000  6.24250e-12      312.937
       698.60000  6.24250e-12      312.937
       698.70000  6.24250e-12      312.874
       698.80000  6.20423e-12      310.894
       698.90000  6.20423e-12      310.832
       699.00000  6.20423e-12      310.708
       699.10000  6.20423e-12      310.150
       699.20000  6.20423e-12      309.529
       699.30000  6.20423e-12      309.033
       699.40000  6.20423e-12      308.475
       699.50000  1.08862e-11      540.391
       699.60000  1.08862e-11      539.521
       699.70000  1.08862e-11      538.758
       699.80000  1.08862e-11      537.996
       699.90000  1.08862e-11      537.234
       700.00000  1.08862e-11      536.581
       700.10000  1.08862e-11      535.928
       700.20000  1.08862e-11      535.275
       700.30000  1.08862e-11      534.731
       700.40000  1.08862e-11      534.186
       700.50000  1.47309e-12      72.2109
       700.60000  1.47309e-12      72.1520
       700.70000  1.47309e-12      72.0931
       700.80000  1.47309e-12      72.0489
       700.90000  1.47309e-12      72.0047
       701.00000  1.47309e-12      71.9605
       701.10000  1.47309e-12      71.9457
       701.20000  1.47309e-12      71.9310
       701.30000  1.46218e-12      71.3834
       701.40000  1.46218e-12      71.3834
       701.50000  1.26464e-11      617.398
       701.60000  1.26464e-11      617.398
       701.70000  1.26464e-11      617.398
       701.80000  1.26464e-11      617.524
       701.90000  1.26464e-11      617.524
       702.00000  1.26464e-11      617.651
       702.10000  1.26464e-11      617.904
       702.20000  1.26464e-11      618.030
       702.30000  1.26464e-11      618.283
       702.40000  1.26464e-11      618.410
       702.50000  1.97819e-11      967.729
       702.60000  1.97819e-11      968.322
       702.70000  1.97819e-11      968.718
       702.80000  1.97819e-11      969.311
       702.90000  1.97819e-11      969.905
       703.00000  1.97819e-11      970.498
       703.10000  1.97819e-11      972.279
       703.20000  1.97819e-11      974.059
       703.30000  1.97819e-11      975.642
       703.40000  1.97819e-11      977.224
       703.50000  9.24578e-12      457.389
       703.60000  9.24578e-12      458.128
       703.70000  9.24578e-12      458.683
       703.80000  9.15996e-12      455.067
       703.90000  9.15996e-12      455.616
       704.00000  9.15996e-12      456.074
       704.10000  9.15996e-12      456.624
       704.20000  9.15996e-12      457.082
       704.30000  9.15996e-12      457.448
       704.40000  9.15996e-12      457.815
       704.50000  6.17840e-13      30.9044
       704.60000  6.17840e-13      30.9291
       704.70000  6.17840e-13      30.9476
       704.80000  6.17840e-13      30.9600
       704.90000  6.17840e-13      30.9785
       705.00000  6.17840e-13      30.9909
       705.10000  6.17840e-13      30.9970
       705.20000  6.17840e-13      31.0032
       705.30000  6.17840e-13      31.0094
       705.40000  6.17840e-13      31.0156
       705.50000  1.50159e-11      753.797
       705.60000  1.50159e-11      753.797
       705.70000  1.50159e-11      753.647
       705.80000  1.50159e-11      753.496
       705.90000  1.50159e-11      753.346
       706.00000  1.50159e-11      753.046
       706.10000  1.50159e-11      752.746
       706.20000  1.50159e-11      752.295
       706.30000  1.48678e-11      744.428
       706.40000  1.48678e-11      743.982
       706.50000  8.58695e-12      429.347
       706.60000  8.58695e-12      429.004
       706.70000  8.58695e-12      428.660
       706.80000  8.58695e-12      428.231
       706.90000  8.58695e-12      427.802
       707.00000  8.58695e-12      427.372
       707.10000  8.58695e-12      427.029
       707.20000  8.58695e-12      426.771
       707.30000  8.58695e-12      426.428
       707.40000  8.58695e-12      426.170
       707.50000  1.02950e-11      510.630
       707.60000  1.02950e-11      510.321
       707.70000  1.02950e-11      510.115
       707.80000  1.02950e-11      509.806
       707.90000  1.02950e-11      509.600
       708.00000  1.02950e-11      509.394
       708.10000  1.02950e-11      509.188
       708.20000  1.02950e-11      508.982
       708.30000  1.02950e-11      508.776
       708.40000  1.02950e-11      508.571
       708.50000  1.19042e-11      587.946
       708.60000  1.19042e-11      587.708
       708.70000  1.19042e-11      587.589
       708.80000  1.17678e-11      580.741
       708.90000  1.17678e-11      580.623
       709.00000  1.17678e-11      580.623
       709.10000  1.17678e-11      580.858
       709.20000  1.17678e-11      581.094
       709.30000  1.17678e-11      581.211
       709.40000  1.17678e-11      581.447
       709.50000  9.50403e-12      469.689
       709.60000  9.50403e-12      469.879
       709.70000  9.50403e-12      469.974
       709.80000  9.50403e-12      470.070
       709.90000  9.50403e-12      470.165
       710.00000  9.50403e-12      470.260
       710.10000  9.50403e-12      470.355
       710.20000  9.50403e-12      470.450
       710.30000  9.50403e-12      470.450
       710.40000  9.50403e-12      470.545
       710.50000  9.21513e-12      456.241
       710.60000  9.21513e-12      456.241
       710.70000  9.21513e-12      456.241
       710.80000  9.21513e-12      456.241
       710.90000  9.21513e-12      456.241
       711.00000  9.21513e-12      456.241
       711.10000  9.21513e-12      456.241
       711.20000  9.21513e-12      456.149
       711.30000  9.08050e-12      449.485
       711.40000  9.08050e-12      449.394
       711.50000  1.29062e-11      638.601
       711.60000  1.29062e-11      638.472
       711.70000  1.29062e-11      638.343
       711.80000  1.29062e-11      638.214
       711.90000  1.29062e-11      638.085
       712.00000  1.29062e-11      637.827
       712.10000  1.29062e-11      637.698
       712.20000  1.29062e-11      637.440
       712.30000  1.29062e-11      637.310
       712.40000  1.29062e-11      637.052
       712.50000  9.49780e-12      468.621
       712.60000  9.49780e-12      468.431
       712.70000  9.49780e-12      468.147
       712.80000  9.49780e-12      467.957
       712.90000  9.49780e-12      467.767
       713.00000  9.49780e-12      467.482
       713.10000  9.49780e-12      467.482
       713.20000  9.49780e-12      467.482
       713.30000  9.49780e-12      467.482
       713.40000  9.49780e-12      467.387
       713.50000  1.31007e-11      644.683
       713.60000  1.31007e-11      644.683
       713.70000  1.31007e-11      644.552
       713.80000  1.29221e-11      635.767
       713.90000  1.29221e-11      635.638
       714.00000  1.29221e-11      635.638
       714.10000  1.29221e-11      635.509
       714.20000  1.29221e-11      635.379
       714.30000  1.29221e-11      635.379
       714.40000  1.29221e-11      635.250
       714.50000  7.02797e-12      345.424
       714.60000  7.02797e-12      345.354
       714.70000  7.02797e-12      345.354
       714.80000  7.02797e-12      345.284
       714.90000  7.02797e-12      345.214
       715.00000  7.02797e-12      345.143
       715.10000  7.02797e-12      345.073
       715.20000  7.02797e-12      345.073
       715.30000  7.02797e-12      345.073
       715.40000  7.02797e-12      345.003
       715.50000  9.34364e-12      458.586
       715.60000  9.34364e-12      458.492
       715.70000  9.34364e-12      458.399
       715.80000  9.34364e-12      458.305
       715.90000  9.34364e-12      458.212
       716.00000  9.34364e-12      458.025
       716.10000  9.34364e-12      457.932
       716.20000  9.34364e-12      457.745
       716.30000  9.21879e-12      451.444
       716.40000  9.21879e-12      451.260
       716.50000  5.09758e-12      249.424
       716.60000  5.09758e-12      249.323
       716.70000  5.09758e-12      249.221
       716.80000  5.09758e-12      249.068
       716.90000  5.09758e-12      248.966
       717.00000  5.09758e-12      248.813
       717.10000  5.09758e-12      248.660
       717.20000  5.09758e-12      248.507
       717.30000  5.09758e-12      248.354
       717.40000  5.09758e-12      248.201
       717.50000  9.09280e-12      442.455
       717.60000  9.09280e-12      442.092
       717.70000  9.09280e-12      441.819
       717.80000  9.09280e-12      441.455
       717.90000  9.09280e-12      441.092
       718.00000  9.09280e-12      440.728
       718.10000  9.09280e-12      440.364
       718.20000  9.09280e-12      440.000
       718.30000  9.09280e-12      439.637
       718.40000  9.09280e-12      439.182
       718.50000  4.76898e-12      230.151
       718.60000  4.76898e-12      229.912
       718.70000  4.76898e-12      229.674
       718.80000  4.71171e-12      226.680
       718.90000  4.71171e-12      226.445
       719.00000  4.71171e-12      226.209
       719.10000  4.71171e-12      226.209
       719.20000  4.71171e-12      226.209
       719.30000  4.71171e-12      226.209
       719.40000  4.71171e-12      226.256
       719.50000  7.34029e-12      352.481
       719.60000  7.34029e-12      352.554
       719.70000  7.34029e-12      352.554
       719.80000  7.34029e-12      352.628
       719.90000  7.34029e-12      352.701
       720.00000  7.34029e-12      352.848
       720.10000  7.34029e-12      352.921
       720.20000  7.34029e-12      352.995
       720.30000  7.34029e-12      353.141
       720.40000  7.34029e-12      353.215
       720.50000  5.51716e-12      265.596
       720.60000  5.51716e-12      265.706
       720.70000  5.51716e-12      265.817
       720.80000  5.51716e-12      265.927
       720.90000  5.51716e-12      266.092
       721.00000  5.51716e-12      266.203
       721.10000  5.51716e-12      266.479
       721.20000  5.51716e-12      266.754
       721.30000  5.45493e-12      264.019
       721.40000  5.45493e-12      264.237
       721.50000  8.20725e-13      39.7969
       721.60000  8.20725e-13      39.8298
       721.70000  8.20725e-13      39.8626
       721.80000  8.20725e-13      39.9036
       721.90000  8.20725e-13      39.9365
       722.00000  8.20725e-13      39.9611
       722.10000  8.20725e-13      39.9939
       722.20000  8.20725e-13      40.0267
       722.30000  8.20725e-13      40.0514
       722.40000  8.20725e-13      40.0760
       722.50000  3.71780e-12      181.652
       722.60000  3.71780e-12      181.801
       722.70000  3.71780e-12      181.875
       722.80000  3.71780e-12      181.986
       722.90000  3.71780e-12      182.098
       723.00000  3.71780e-12      182.172
       723.10000  3.71780e-12      182.284
       723.20000  3.71780e-12      182.358
       723.30000  3.71780e-12      182.433
       723.40000  3.71780e-12      182.507
       723.50000  4.37688e-12      214.949
       723.60000  4.37688e-12      214.992
       723.70000  4.37688e-12      215.080
       723.80000  4.32748e-12      212.695
       723.90000  4.32748e-12      212.739
       724.00000  4.32748e-12      212.782
       724.10000  4.32748e-12      212.825
       724.20000  4.32748e-12      212.869
       724.30000  4.32748e-12      212.912
       724.40000  4.32748e-12      212.955
       724.50000  8.13059e-12      400.107
       724.60000  8.13059e-12      400.107
       724.70000  8.13059e-12      400.107
       724.80000  8.13059e-12      400.107
       724.90000  8.13059e-12      400.107
       725.00000  8.13059e-12      400.107
       725.10000  8.13059e-12      400.269
       725.20000  8.13059e-12      400.432
       725.30000  8.13059e-12      400.513
       725.40000  8.13059e-12      400.676
       725.50000  1.81587e-13      8.95042
       725.60000  1.81587e-13      8.95224
       725.70000  1.81587e-13      8.95224
       725.80000  1.81587e-13      8.95405
       725.90000  1.81587e-13      8.95405
       726.00000  1.81587e-13      8.95405
       726.10000  1.81587e-13      8.95405
       726.20000  1.81587e-13      8.95405
       726.30000  1.79562e-13      8.85241
       726.40000  1.79562e-13      8.85061
       726.50000  2.57193e-12      126.745
       726.60000  2.57193e-12      126.719
       726.70000  2.57193e-12      126.693
       726.80000  2.57193e-12      126.642
       726.90000  2.57193e-12      126.590
       727.00000  2.57193e-12      126.539
       727.10000  2.57193e-12      126.359
       727.20000  2.57193e-12      126.179
       727.30000  2.57193e-12      125.999
       727.40000  2.57193e-12      125.845
       727.50000  3.17360e-12      155.094
       727.60000  3.17360e-12      154.903
       727.70000  3.17360e-12      154.745
       727.80000  3.17360e-12      154.586
       727.90000  3.17360e-12      154.427
       728.00000  3.17360e-12      154.300
       728.10000  3.17360e-12      154.173
       728.20000  3.17360e-12      154.046
       728.30000  3.17360e-12      153.919
       728.40000  3.17360e-12      153.824
       728.50000  1.95381e-12      94.6424
       728.60000  1.95381e-12      94.6033
       728.70000  1.95381e-12      94.5447
       728.80000  1.93202e-12      93.4711
       728.90000  1.93202e-12      93.4324
       729.00000  1.93202e-12      93.4131
       729.10000  1.93202e-12      93.3938
       729.20000  1.93202e-12      93.3745
       729.30000  1.93202e-12      93.3745
       729.40000  1.93202e-12      93.3551
       729.50000  3.22891e-12      156.053
       729.60000  3.22891e-12      156.053
       729.70000  3.22891e-12      156.086
       729.80000  3.22891e-12      156.118
       729.90000  3.22891e-12      156.183
       730.00000  3.22891e-12      156.247
       730.10000  3.22891e-12      156.312
       730.20000  3.22891e-12      156.376
       730.30000  3.22891e-12      156.473
       730.40000  3.22891e-12      156.570
       730.50000  4.63700e-12      224.987
       730.60000  4.63700e-12      225.173
       730.70000  4.63700e-12      225.358
       730.80000  4.63700e-12      225.544
       730.90000  4.63700e-12      225.776
       731.00000  4.63700e-12      226.008
       731.10000  4.63700e-12      225.961
       731.20000  4.63700e-12      225.915
       731.30000  4.57953e-12      223.069
       731.40000  4.57953e-12      223.069
       731.50000  4.95558e-12      241.337
       731.60000  4.95558e-12      241.287
       731.70000  4.95558e-12      241.238
       731.80000  4.95558e-12      241.238
       731.90000  4.95558e-12      241.188
       732.00000  4.95558e-12      241.139
       732.10000  4.95558e-12      241.089
       732.20000  4.95558e-12      241.040
       732.30000  4.95558e-12      241.040
       732.40000  4.95558e-12      240.990
       732.50000  7.10590e-12      345.489
       732.60000  7.10590e-12      345.418
       732.70000  7.10590e-12      345.347
       732.80000  7.10590e-12      345.276
       732.90000  7.10590e-12      345.205
       733.00000  7.10590e-12      345.134
       733.10000  7.10590e-12      345.063
       733.20000  7.10590e-12      344.921
       733.30000  7.10590e-12      344.849
       733.40000  7.10590e-12      344.707
       733.50000  5.24586e-12      254.424
       733.60000  5.24586e-12      254.372
       733.70000  5.24586e-12      254.267
       733.80000  5.17388e-12      250.726
       733.90000  5.17388e-12      250.675
       734.00000  5.17388e-12      250.623
       734.10000  5.17388e-12      250.571
       734.20000  5.17388e-12      250.519
       734.30000  5.17388e-12      250.468
       734.40000  5.17388e-12      250.468
       734.50000  5.08592e-12      246.159
       734.60000  5.08592e-12      246.108
       734.70000  5.08592e-12      246.108
       734.80000  5.08592e-12      246.057
       734.90000  5.08592e-12      246.057
       735.00000  5.08592e-12      246.006
       735.10000  5.08592e-12      246.006
       735.20000  5.08592e-12      246.006
       735.30000  5.08592e-12      246.006
       735.40000  5.08592e-12      245.955
       735.50000  3.16005e-12      152.820
       735.60000  3.16005e-12      152.820
       735.70000  3.16005e-12      152.820
       735.80000  3.16005e-12      152.852
       735.90000  3.16005e-12      152.852
       736.00000  3.16005e-12      152.852
       736.10000  3.16005e-12      152.852
       736.20000  3.16005e-12      152.883
       736.30000  3.11030e-12      150.476
       736.40000  3.11030e-12      150.508
       736.50000  6.23291e-12      301.611
       736.60000  6.23291e-12      301.673
       736.70000  6.23291e-12      301.735
       736.80000  6.23291e-12      301.735
       736.90000  6.23291e-12      301.798
       737.00000  6.23291e-12      301.860
       737.10000  6.23291e-12      301.548
       737.20000  6.23291e-12      301.174
       737.30000  6.23291e-12      300.863
       737.40000  6.23291e-12      300.551
       737.50000  1.85557e-12      89.3644
       737.60000  1.85557e-12      89.2716
       737.70000  1.85557e-12      89.1788
       737.80000  1.85557e-12      89.0861
       737.90000  1.85557e-12      89.0118
       738.00000  1.85557e-12      88.9191
       738.10000  1.85557e-12      88.8263
       738.20000  1.85557e-12      88.7335
       738.30000  1.85557e-12      88.6593
       738.40000  1.85557e-12      88.5851
       738.50000  3.67736e-12      175.373
       738.60000  3.67736e-12      175.226
       738.70000  3.67736e-12      175.079
       738.80000  3.61408e-12      171.922
       738.90000  3.61408e-12      171.777
       739.00000  3.61408e-12      171.633
       739.10000  3.61408e-12      171.344
       739.20000  3.61408e-12      171.091
       739.30000  3.61408e-12      170.874
       739.40000  3.61408e-12      170.657
       739.50000  2.59702e-12      122.475
       739.60000  2.59702e-12      122.346
       739.70000  2.59702e-12      122.242
       739.80000  2.59702e-12      122.112
       739.90000  2.59702e-12      122.034
       740.00000  2.59702e-12      121.930
       740.10000  2.59702e-12      121.878
       740.20000  2.59702e-12      121.800
       740.30000  2.59702e-12      121.748
       740.40000  2.59702e-12      121.722
       740.50000  2.67174e-12      125.198
       740.60000  2.67174e-12      125.171
       740.70000  2.67174e-12      125.171
       740.80000  2.67174e-12      125.171
       740.90000  2.67174e-12      125.198
       741.00000  2.67174e-12      125.224
       741.10000  2.67174e-12      125.278
       741.20000  2.67174e-12      125.331
       741.30000  2.62555e-12      123.217
       741.40000  2.62555e-12      123.296
       741.50000  3.58219e-12      168.327
       741.60000  3.58219e-12      168.470
       741.70000  3.58219e-12      168.650
       741.80000  3.58219e-12      168.793
       741.90000  3.58219e-12      169.008
       742.00000  3.58219e-12      169.187
       742.10000  3.58219e-12      169.402
       742.20000  3.58219e-12      169.653
       742.30000  3.58219e-12      169.903
       742.40000  3.58219e-12      170.154
       742.50000  1.92134e-12      91.4172
       742.60000  1.92134e-12      91.5709
       742.70000  1.92134e-12      91.7439
       742.80000  1.92134e-12      91.9168
       742.90000  1.92134e-12      92.1089
       743.00000  1.92134e-12      92.3011
       743.10000  1.92134e-12      92.2626
       743.20000  1.92134e-12      92.2434
       743.30000  1.92134e-12      92.2242
       743.40000  1.92134e-12      92.1858
       743.50000  3.07663e-12      147.586
       743.60000  3.07663e-12      147.555
       743.70000  3.07663e-12      147.524
       743.80000  3.02914e-12      145.217
       743.90000  3.02914e-12      145.187
       744.00000  3.02914e-12      145.156
       744.10000  3.02914e-12      145.156
       744.20000  3.02914e-12      145.126
       744.30000  3.02914e-12      145.126
       744.40000  3.02914e-12      145.126
       744.50000  3.70756e-12      177.592
       744.60000  3.70756e-12      177.592
       744.70000  3.70756e-12      177.592
       744.80000  3.70756e-12      177.592
       744.90000  3.70756e-12      177.629
       745.00000  3.70756e-12      177.629
       745.10000  3.70756e-12      177.740
       745.20000  3.70756e-12      177.852
       745.30000  3.70756e-12      177.926
       745.40000  3.70756e-12      178.037
       745.50000  2.62330e-13      12.6023
       745.60000  2.62330e-13      12.6076
       745.70000  2.62330e-13      12.6128
       745.80000  2.62330e-13      12.6181
       745.90000  2.62330e-13      12.6207
       746.00000  2.62330e-13      12.6259
       746.10000  2.62330e-13      12.6285
       746.20000  2.62330e-13      12.6312
       746.30000  2.59318e-13      12.4887
       746.40000  2.59318e-13      12.4913
       746.50000  5.66704e-12      273.038
       746.60000  5.66704e-12      273.038
       746.70000  5.66704e-12      273.095
       746.80000  5.66704e-12      273.095
       746.90000  5.66704e-12      273.095
       747.00000  5.66704e-12      273.095
       747.10000  5.66704e-12      272.925
       747.20000  5.66704e-12      272.811
       747.30000  5.66704e-12      272.698
       747.40000  5.66704e-12      272.585
       747.50000  1.65201e-12      79.4286
       747.60000  1.65201e-12      79.3955
       747.70000  1.65201e-12      79.3625
       747.80000  1.65201e-12      79.3294
       747.90000  1.65201e-12      79.2964
       748.00000  1.65201e-12      79.2634
       748.10000  1.65201e-12      79.2468
       748.20000  1.65201e-12      79.2138
       748.30000  1.65201e-12      79.1808
       748.40000  1.65201e-12      79.1642
       748.50000  2.71464e-12      130.031
       748.60000  2.71464e-12      129.977
       748.70000  2.71464e-12      129.950
       748.80000  2.68365e-12      128.412
       748.90000  2.68365e-12      128.386
       749.00000  2.68365e-12      128.359
       749.10000  2.68365e-12      128.305
       749.20000  2.68365e-12      128.278
       749.30000  2.68365e-12      128.251
       749.40000  2.68365e-12      128.225
       749.50000  6.83767e-12      326.635
       749.60000  6.83767e-12      326.567
       749.70000  6.83767e-12      326.430
       749.80000  6.83767e-12      326.362
       749.90000  6.83767e-12      326.362
       750.00000  6.83767e-12      326.293
       750.10000  6.83767e-12      326.225
       750.20000  6.83767e-12      326.157
       750.30000  6.83767e-12      326.088
       750.40000  6.83767e-12      326.088
       750.50000  4.85089e-12      231.291
       750.60000  4.85089e-12      231.242
       750.70000  4.85089e-12      231.242
       750.80000  4.85089e-12      231.194
       750.90000  4.85089e-12      231.194
       751.00000  4.85089e-12      231.145
       751.10000  4.85089e-12      231.145
       751.20000  4.85089e-12      231.145
       751.30000  4.78868e-12      228.133
       751.40000  4.78868e-12      228.133
       751.50000  3.78955e-12      180.534
       751.60000  3.78955e-12      180.534
       751.70000  3.78955e-12      180.534
       751.80000  3.78955e-12      180.534
       751.90000  3.78955e-12      180.534
       752.00000  3.78955e-12      180.534
       752.10000  3.78955e-12      180.534
       752.20000  3.78955e-12      180.534
       752.30000  3.78955e-12      180.534
       752.40000  3.78955e-12      180.534
       752.50000  6.11824e-12      291.534
       752.60000  6.11824e-12      291.534
       752.70000  6.11824e-12      291.534
       752.80000  6.11824e-12      291.595
       752.90000  6.11824e-12      291.595
       753.00000  6.11824e-12      291.657
       753.10000  6.11824e-12      291.657
       753.20000  6.11824e-12      291.657
       753.30000  6.11824e-12      291.657
       753.40000  6.11824e-12      291.657
       753.50000  2.91892e-12      139.145
       753.60000  2.91892e-12      139.145
       753.70000  2.91892e-12      139.145
       753.80000  2.87783e-12      137.186
       753.90000  2.87783e-12      137.186
       754.00000  2.87783e-12      137.186
       754.10000  2.87783e-12      137.186
       754.20000  2.87783e-12      137.158
       754.30000  2.87783e-12      137.158
       754.40000  2.87783e-12      137.158
       754.50000  3.91195e-12      186.444
       754.60000  3.91195e-12      186.444
       754.70000  3.91195e-12      186.405
       754.80000  3.91195e-12      186.405
       754.90000  3.91195e-12      186.365
       755.00000  3.91195e-12      186.365
       755.10000  3.91195e-12      186.326
       755.20000  3.91195e-12      186.326
       755.30000  3.91195e-12      186.287
       755.40000  3.91195e-12      186.287
       755.50000  2.29230e-12      109.136
       755.60000  2.29230e-12      109.114
       755.70000  2.29230e-12      109.114
       755.80000  2.29230e-12      109.091
       755.90000  2.29230e-12      109.068
       756.00000  2.29230e-12      109.068
       756.10000  2.29230e-12      109.045
       756.20000  2.29230e-12      109.022
       756.30000  2.25933e-12      107.431
       756.40000  2.25933e-12      107.431
       756.50000  1.86020e-12      88.4340
       756.60000  1.86020e-12      88.4154
       756.70000  1.86020e-12      88.3968
       756.80000  1.86020e-12      88.3968
       756.90000  1.86020e-12      88.3782
       757.00000  1.86020e-12      88.3596
       757.10000  1.86020e-12      88.3410
       757.20000  1.86020e-12      88.3224
       757.30000  1.86020e-12      88.3224
       757.40000  1.86020e-12      88.3038
       757.50000  5.43771e-12      258.074
       757.60000  5.43771e-12      258.020
       757.70000  5.43771e-12      257.965
       757.80000  5.43771e-12      257.911
       757.90000  5.43771e-12      257.856
       758.00000  5.43771e-12      257.856
       758.10000  5.43771e-12      257.802
       758.20000  5.43771e-12      257.748
       758.30000  5.43771e-12      257.693
       758.40000  5.43771e-12      257.639
       758.50000  3.39157e-12      160.659
       758.60000  3.39157e-12      160.625
       758.70000  3.39157e-12      160.591
       758.80000  3.33156e-12      157.716
       758.90000  3.33156e-12      157.682
       759.00000  3.33156e-12      157.649
       759.10000  3.33156e-12      157.649
       759.20000  3.33156e-12      157.616
       759.30000  3.33156e-12      157.616
       759.40000  3.33156e-12      157.583
       759.50000  5.69886e-12      269.556
       759.60000  5.69886e-12      269.556
       759.70000  5.69886e-12      269.499
       759.80000  5.69886e-12      269.499
       759.90000  5.69886e-12      269.499
       760.00000  5.69886e-12      269.499
       760.10000  5.69886e-12      269.499
       760.20000  5.69886e-12      269.499
       760.30000  5.69886e-12      269.556
       760.40000  5.69886e-12      269.556
       760.50000  5.75954e-12      272.426
       760.60000  5.75954e-12      272.484
       760.70000  5.75954e-12      272.484
       760.80000  5.75954e-12      272.541
       760.90000  5.75954e-12      272.541
       761.00000  5.75954e-12      272.599
       761.10000  5.75954e-12      272.829
       761.20000  5.75954e-12      273.002
       761.30000  5.64084e-12      267.545
       761.40000  5.64084e-12      267.714
       761.50000  6.70903e-12      318.612
       761.60000  6.70903e-12      318.746
       761.70000  6.70903e-12      318.880
       761.80000  6.70903e-12      319.014
       761.90000  6.70903e-12      319.149
       762.00000  6.70903e-12      319.216
       762.10000  6.70903e-12      319.350
       762.20000  6.70903e-12      319.417
       762.30000  6.70903e-12      319.484
       762.40000  6.70903e-12      319.484
       762.50000  2.78700e-12      132.717
       762.60000  2.78700e-12      132.745
       762.70000  2.78700e-12      132.745
       762.80000  2.78700e-12      132.717
       762.90000  2.78700e-12      132.717
       763.00000  2.78700e-12      132.689
       763.10000  2.78700e-12      132.661
       763.20000  2.78700e-12      132.633
       763.30000  2.78700e-12      132.578
       763.40000  2.78700e-12      132.522
       763.50000  2.42284e-12      115.158
       763.60000  2.42284e-12      115.109
       763.70000  2.42284e-12      115.061
       763.80000  2.36227e-12      112.113
       763.90000  2.36227e-12      112.042
       764.00000  2.36227e-12      111.971
       764.10000  2.36227e-12      111.901
       764.20000  2.36227e-12      111.806
       764.30000  2.36227e-12      111.712
       764.40000  2.36227e-12      111.617
       764.50000  2.56061e-12      120.887
       764.60000  2.56061e-12      120.784
       764.70000  2.56061e-12      120.656
       764.80000  2.56061e-12      120.528
       764.90000  2.56061e-12      120.400
       765.00000  2.56061e-12      120.246
       765.10000  2.56061e-12      119.965
       765.20000  2.56061e-12      119.683
       765.30000  2.56061e-12      119.427
       765.40000  2.56061e-12      119.171
       765.50000  9.21540e-13      42.8055
       765.60000  9.21540e-13      42.7318
       765.70000  9.21540e-13      42.6489
       765.80000  9.21540e-13      42.5844
       765.90000  9.21540e-13      42.5199
       766.00000  9.21540e-13      42.4554
       766.10000  9.21540e-13      42.4001
       766.20000  9.21540e-13      42.3448
       766.30000  8.98790e-13      41.2545
       766.40000  8.98790e-13      41.2185
       766.50000  1.05768e-13      4.84627
       766.60000  1.05768e-13      4.84204
       766.70000  1.05768e-13      4.83992
       766.80000  1.05768e-13      4.83675
       766.90000  1.05768e-13      4.83464
       767.00000  1.05768e-13      4.83358
       767.10000  1.05768e-13      4.83887
       767.20000  1.05768e-13      4.84521
       767.30000  1.05768e-13      4.85050
       767.40000  1.05768e-13      4.85579
       767.50000  8.09402e-13      37.2001
       767.60000  8.09402e-13      37.2406
       767.70000  8.09402e-13      37.2810
       767.80000  8.09402e-13      37.3134
       767.90000  8.09402e-13      37.3539
       768.00000  8.09402e-13      37.3863
       768.10000  8.09402e-13      37.4186
       768.20000  8.09402e-13      37.4510
       768.30000  8.09402e-13      37.4753
       768.40000  8.09402e-13      37.5077
       768.50000  2.59119e-12      120.153
       768.60000  2.59119e-12      120.231
       768.70000  2.59119e-12      120.309
       768.80000  2.53226e-12      117.649
       768.90000  2.53226e-12      117.725
       769.00000  2.53226e-12      117.775
       769.10000  2.53226e-12      117.851
       769.20000  2.53226e-12      117.902
       769.30000  2.53226e-12      117.953
       769.40000  2.53226e-12      118.003
       769.50000  3.02509e-12      140.999
       769.60000  3.02509e-12      141.060
       769.70000  3.02509e-12      141.090
       769.80000  3.02509e-12      141.151
       769.90000  3.02509e-12      141.181
       770.00000  3.02509e-12      141.181
       770.10000  3.02509e-12      141.211
       770.20000  3.02509e-12      141.241
       770.30000  3.02509e-12      141.241
       770.40000  3.02509e-12      141.241
       770.50000  2.81258e-12      131.319
       770.60000  2.81258e-12      131.319
       770.70000  2.81258e-12      131.319
       770.80000  2.81258e-12      131.319
       770.90000  2.81258e-12      131.291
       771.00000  2.81258e-12      131.263
       771.10000  2.81258e-12      131.376
       771.20000  2.81258e-12      131.460
       771.30000  2.75956e-12      129.065
       771.40000  2.75956e-12      129.147
       771.50000  1.31551e-12      61.6054
       771.60000  1.31551e-12      61.6317
       771.70000  1.31551e-12      61.6711
       771.80000  1.31551e-12      61.6974
       771.90000  1.31551e-12      61.7106
       772.00000  1.31551e-12      61.7369
       772.10000  1.31551e-12      61.7501
       772.20000  1.31551e-12      61.7632
       772.30000  1.31551e-12      61.7764
       772.40000  1.31551e-12      61.7895
       772.50000  2.64466e-12      124.220
       772.60000  2.64466e-12      124.220
       772.70000  2.64466e-12      124.220
       772.80000  2.64466e-12      124.193
       772.90000  2.64466e-12      124.193
       773.00000  2.64466e-12      124.167
       773.10000  2.64466e-12      124.008
       773.20000  2.64466e-12      123.876
       773.30000  2.64466e-12      123.717
       773.40000  2.64466e-12      123.585
       773.50000  1.15580e-12      53.9528
       773.60000  1.15580e-12      53.9065
       773.70000  1.15580e-12      53.8603
       773.80000  1.13776e-12      52.9741
       773.90000  1.13776e-12      52.9286
       774.00000  1.13776e-12      52.8831
       774.10000  1.13776e-12      52.8490
       774.20000  1.13776e-12      52.8148
       774.30000  1.13776e-12      52.7921
       774.40000  1.13776e-12      52.7579
       774.50000  1.73913e-12      80.6086
       774.60000  1.73913e-12      80.5912
       774.70000  1.73913e-12      80.5564
       774.80000  1.73913e-12      80.5390
       774.90000  1.73913e-12      80.5216
       775.00000  1.73913e-12      80.5042
       775.10000  1.73913e-12      80.5042
       775.20000  1.73913e-12      80.5042
       775.30000  1.73913e-12      80.5042
       775.40000  1.73913e-12      80.5042
       775.50000  6.94151e-12      321.392
       775.60000  6.94151e-12      321.461
       775.70000  6.94151e-12      321.531
       775.80000  6.94151e-12      321.600
       775.90000  6.94151e-12      321.739
       776.00000  6.94151e-12      321.878
       776.10000  6.94151e-12      322.017
       776.20000  6.94151e-12      322.225
       776.30000  6.84103e-12      317.766
       776.40000  6.84103e-12      317.971
       776.50000  3.36087e-12      156.314
       776.60000  3.36087e-12      156.449
       776.70000  3.36087e-12      156.583
       776.80000  3.36087e-12      156.717
       776.90000  3.36087e-12      156.885
       777.00000  3.36087e-12      157.020
       777.10000  3.36087e-12      156.953
       777.20000  3.36087e-12      156.919
       777.30000  3.36087e-12      156.852
       777.40000  3.36087e-12      156.785
       777.50000  3.55620e-12      165.825
       777.60000  3.55620e-12      165.790
       777.70000  3.55620e-12      165.719
       777.80000  3.55620e-12      165.683
       777.90000  3.55620e-12      165.648
       778.00000  3.55620e-12      165.576
       778.10000  3.55620e-12      165.541
       778.20000  3.55620e-12      165.505
       778.30000  3.55620e-12      165.470
       778.40000  3.55620e-12      165.434
       778.50000  2.55961e-12      119.073
       778.60000  2.55961e-12      119.047
       778.70000  2.55961e-12      119.022
       778.80000  2.53074e-12      117.680
       778.90000  2.53074e-12      117.680
       779.00000  2.53074e-12      117.654
       779.10000  2.53074e-12      117.705
       779.20000  2.53074e-12      117.730
       779.30000  2.53074e-12      117.781
       779.40000  2.53074e-12      117.806
       779.50000  1.71899e-13      8.00360
       779.60000  1.71899e-13      8.00532
       779.70000  1.71899e-13      8.00704
       779.80000  1.71899e-13      8.00876
       779.90000  1.71899e-13      8.01048
       780.00000  1.71899e-13      8.01220
       780.10000  1.71899e-13      8.01220
       780.20000  1.71899e-13      8.01392
       780.30000  1.71899e-13      8.01392
       780.40000  1.71899e-13      8.01392
       780.50000  4.51789e-13      21.0624
       780.60000  4.51789e-13      21.0624
       780.70000  4.51789e-13      21.0624
       780.80000  4.51789e-13      21.0624
       780.90000  4.51789e-13      21.0624
       781.00000  4.51789e-13      21.0579
       781.10000  4.51789e-13      21.0579
       781.20000  4.51789e-13      21.0534
       781.30000  4.47714e-13      20.8590
       781.40000  4.47714e-13      20.8545
       781.50000  1.62425e-12      75.6414
       781.60000  1.62425e-12      75.6252
       781.70000  1.62425e-12      75.6089
       781.80000  1.62425e-12      75.5927
       781.90000  1.62425e-12      75.5602
       782.00000  1.62425e-12      75.5439
       782.10000  1.62425e-12      75.5115
       782.20000  1.62425e-12      75.4790
       782.30000  1.62425e-12      75.4627
       782.40000  1.62425e-12      75.4303
       782.50000  7.79107e-14      3.61661
       782.60000  7.79107e-14      3.61428
       782.70000  7.79107e-14      3.61272
       782.80000  7.79107e-14      3.61116
       782.90000  7.79107e-14      3.60882
       783.00000  7.79107e-14      3.60726
       783.10000  7.79107e-14      3.60882
       783.20000  7.79107e-14      3.61038
       783.30000  7.79107e-14      3.61194
       783.40000  7.79107e-14      3.61272
       783.50000  3.62244e-12      168.045
       783.60000  3.62244e-12      168.117
       783.70000  3.62244e-12      168.154
       783.80000  3.58940e-12      166.692
       783.90000  3.58940e-12      166.764
       784.00000  3.58940e-12      166.799
       784.10000  3.58940e-12      166.835
       784.20000  3.58940e-12      166.907
       784.30000  3.58940e-12      166.943
       784.40000  3.58940e-12      166.979
       784.50000  2.39075e-12      111.242
       784.60000  2.39075e-12      111.266
       784.70000  2.39075e-12      111.290
       784.80000  2.39075e-12      111.313
       784.90000  2.39075e-12      111.337
       785.00000  2.39075e-12      111.337
       785.10000  2.39075e-12      111.337
       785.20000  2.39075e-12      111.337
       785.30000  2.39075e-12      111.337
       785.40000  2.39075e-12      111.337
       785.50000  1.99369e-12      92.8464
       785.60000  1.99369e-12      92.8464
       785.70000  1.99369e-12      92.8464
       785.80000  1.99369e-12      92.8464
       785.90000  1.99369e-12      92.8464
       786.00000  1.99369e-12      92.8464
       786.10000  1.99369e-12      92.8464
       786.20000  1.99369e-12      92.8464
       786.30000  1.97021e-12      91.7527
       786.40000  1.97021e-12      91.7527
       786.50000  2.67086e-12      124.382
       786.60000  2.67086e-12      124.382
       786.70000  2.67086e-12      124.382
       786.80000  2.67086e-12      124.382
       786.90000  2.67086e-12      124.382
       787.00000  2.67086e-12      124.382
       787.10000  2.67086e-12      124.382
       787.20000  2.67086e-12      124.382
       787.30000  2.67086e-12      124.382
       787.40000  2.67086e-12      124.382
       787.50000  1.66605e-12      77.5879
       787.60000  1.66605e-12      77.5879
       787.70000  1.66605e-12      77.5879
       787.80000  1.66605e-12      77.5879
       787.90000  1.66605e-12      77.5879
       788.00000  1.66605e-12      77.5879
       788.10000  1.66605e-12      77.5879
       788.20000  1.66605e-12      77.5879
       788.30000  1.66605e-12      77.5879
       788.40000  1.66605e-12      77.5879
       788.50000  2.10038e-12      97.8147
       788.60000  2.10038e-12      97.8147
       788.70000  2.10038e-12      97.8147
       788.80000  2.07479e-12      96.6228
       788.90000  2.07479e-12      96.6228
       789.00000  2.07479e-12      96.6228
       789.10000  2.07479e-12      96.5813
       789.20000  2.07479e-12      96.5190
       789.30000  2.07479e-12      96.4568
       789.40000  2.07479e-12      96.4153
       789.50000  2.05561e-12      95.4627
       789.60000  2.05561e-12      95.4011
       789.70000  2.05561e-12      95.3600
       789.80000  2.05561e-12      95.2983
       789.90000  2.05561e-12      95.2366
       790.00000  2.05561e-12      95.1955
       790.10000  2.05561e-12      95.1338
       790.20000  2.05561e-12      95.0927
       790.30000  2.05561e-12      95.0311
       790.40000  2.05561e-12      94.9900
       790.50000  1.14320e-12      52.7928
       790.60000  1.14320e-12      52.7585
       790.70000  1.14320e-12      52.7357
       790.80000  1.14320e-12      52.7014
       790.90000  1.14320e-12      52.6785
       791.00000  1.14320e-12      52.6442
       791.10000  1.14320e-12      52.6099
       791.20000  1.14320e-12      52.5871
       791.30000  1.12589e-12      51.7573
       791.40000  1.12589e-12      51.7235
       791.50000  4.07930e-13      18.7281
       791.60000  4.07930e-13      18.7158
       791.70000  4.07930e-13      18.7077
       791.80000  4.07930e-13      18.6954
       791.90000  4.07930e-13      18.6873
       792.00000  4.07930e-13      18.6750
       792.10000  4.07930e-13      18.6669
       792.20000  4.07930e-13      18.6587
       792.30000  4.07930e-13      18.6465
       792.40000  4.07930e-13      18.6383
       792.50000  2.86212e-13      13.0713
       792.60000  2.86212e-13      13.0656
       792.70000  2.86212e-13      13.0598
       792.80000  2.86212e-13      13.0541
       792.90000  2.86212e-13      13.0484
       793.00000  2.86212e-13      13.0427
       793.10000  2.86212e-13      13.0341
       793.20000  2.86212e-13      13.0226
       793.30000  2.86212e-13      13.0141
       793.40000  2.86212e-13      13.0055
       793.50000  2.33157e-12      105.876
       793.60000  2.33157e-12      105.830
       793.70000  2.33157e-12      105.760
       793.80000  2.29124e-12      103.908
       793.90000  2.29124e-12      103.862
       794.00000  2.29124e-12      103.839
       794.10000  2.29124e-12      103.793
       794.20000  2.29124e-12      103.793
       794.30000  2.29124e-12      103.770
       794.40000  2.29124e-12      103.770
       794.50000  5.60834e-13      25.4002
       794.60000  5.60834e-13      25.4002
       794.70000  5.60834e-13      25.4058
       794.80000  5.60834e-13      25.4058
       794.90000  5.60834e-13      25.4114
       795.00000  5.60834e-13      25.4226
       795.10000  5.60834e-13      25.4619
       795.20000  5.60834e-13      25.5011
       795.30000  5.60834e-13      25.5404
       795.40000  5.60834e-13      25.5797
       795.50000  4.72155e-13      21.5633
       795.60000  4.72155e-13      21.5916
       795.70000  4.72155e-13      21.6152
       795.80000  4.72155e-13      21.6389
       795.90000  4.72155e-13      21.6625
       796.00000  4.72155e-13      21.6813
       796.10000  4.72155e-13      21.7002
       796.20000  4.72155e-13      21.7191
       796.30000  4.62274e-13      21.2785
       796.40000  4.62274e-13      21.2923
       796.50000  7.31410e-14      3.37107
       796.60000  7.31410e-14      3.37253
       796.70000  7.31410e-14      3.37399
       796.80000  7.31410e-14      3.37473
       796.90000  7.31410e-14      3.37546
       797.00000  7.31410e-14      3.37619
       797.10000  7.31410e-14      3.37692
       797.20000  7.31410e-14      3.37692
       797.30000  7.31410e-14      3.37692
       797.40000  7.31410e-14      3.37619
       797.50000  3.17216e-13      14.6395
       797.60000  3.17216e-13      14.6363
       797.70000  3.17216e-13      14.6300
       797.80000  3.17216e-13      14.6236
       797.90000  3.17216e-13      14.6173
       798.00000  3.17216e-13      14.6078
       798.10000  3.17216e-13      14.5983
       798.20000  3.17216e-13      14.5887
       798.30000  3.17216e-13      14.5761
       798.40000  3.17216e-13      14.5634
       798.50000  2.32843e-12      106.805
       798.60000  2.32843e-12      106.688
       798.70000  2.32843e-12      106.572
       798.80000  2.27422e-12      103.977
       798.90000  2.27422e-12      103.841
       799.00000  2.27422e-12      103.705
       799.10000  2.27422e-12      103.773
       799.20000  2.27422e-12      103.864
       799.30000  2.27422e-12      103.955
       799.40000  2.27422e-12      104.023
       799.50000  1.67251e-12      76.5510
       799.60000  1.67251e-12      76.6012
       799.70000  1.67251e-12      76.6513
       799.80000  1.67251e-12      76.6848
       799.90000  1.67251e-12      76.7182
       800.00000  1.67251e-12      76.7517
       800.10000  1.67251e-12      76.7851
       800.20000  1.67251e-12      76.8186
       800.30000  1.67251e-12      76.8520
       800.40000  1.67251e-12      76.8688
       800.50000  1.35539e-12      62.3071
       800.60000  1.35539e-12      62.3206
       800.70000  1.35539e-12      62.3206
       800.80000  1.35539e-12      62.3342
       800.90000  1.35539e-12      62.3342
       801.00000  1.35539e-12      62.3342
       801.10000  1.35539e-12      62.3071
       801.20000  1.35539e-12      62.2800
       801.30000  1.32414e-12      60.8178
       801.40000  1.32414e-12      60.7913
       801.50000  9.33410e-13      42.8342
       801.60000  9.33410e-13      42.8155
       801.70000  9.33410e-13      42.7969
       801.80000  9.33410e-13      42.7782
       801.90000  9.33410e-13      42.7595
       802.00000  9.33410e-13      42.7409
       802.10000  9.33410e-13      42.7222
       802.20000  9.33410e-13      42.7035
       802.30000  9.33410e-13      42.6848
       802.40000  9.33410e-13      42.6662
       802.50000  9.40902e-13      42.9898
       802.60000  9.40902e-13      42.9710
       802.70000  9.40902e-13      42.9522
       802.80000  9.40902e-13      42.9240
       802.90000  9.40902e-13      42.9051
       803.00000  9.40902e-13      42.8863
       803.10000  9.40902e-13      42.8675
       803.20000  9.40902e-13      42.8487
       803.30000  9.40902e-13      42.8299
       803.40000  9.40902e-13      42.8017
       803.50000  1.03656e-12      47.1325
       803.60000  1.03656e-12      47.1118
       803.70000  1.03656e-12      47.0910
       803.80000  1.01227e-12      45.9672
       803.90000  1.01227e-12      45.9368
       804.00000  1.01227e-12      45.9165
       804.10000  1.01227e-12      45.8963
       804.20000  1.01227e-12      45.8761
       804.30000  1.01227e-12      45.8457
       804.40000  1.01227e-12      45.8254
       804.50000  7.53845e-13      34.1115
       804.60000  7.53845e-13      34.0889
       804.70000  7.53845e-13      34.0738
       804.80000  7.53845e-13      34.0587
       804.90000  7.53845e-13      34.0361
       805.00000  7.53845e-13      34.0210
       805.10000  7.53845e-13      34.0512
       805.20000  7.53845e-13      34.0889
       805.30000  7.53845e-13      34.1115
       805.40000  7.53845e-13      34.1416
       805.50000  1.61359e-13      7.31279
       805.60000  1.61359e-13      7.31763
       805.70000  1.61359e-13      7.32247
       805.80000  1.61359e-13      7.32570
       805.90000  1.61359e-13      7.32893
       806.00000  1.61359e-13      7.33215
       806.10000  1.61359e-13      7.33377
       806.20000  1.61359e-13      7.33538
       806.30000  1.57320e-13      7.15333
       806.40000  1.57320e-13      7.15490
       806.50000  9.43424e-13      42.9069
       806.60000  9.43424e-13      42.9069
       806.70000  9.43424e-13      42.8975
       806.80000  9.43424e-13      42.8975
       806.90000  9.43424e-13      42.8881
       807.00000  9.43424e-13      42.8692
       807.10000  9.43424e-13      42.7937
       807.20000  9.43424e-13      42.7088
       807.30000  9.43424e-13      42.6333
       807.40000  9.43424e-13      42.5673
       807.50000  1.31703e-12      59.3322
       807.60000  1.31703e-12      59.2401
       807.70000  1.31703e-12      59.1610
       807.80000  1.31703e-12      59.0952
       807.90000  1.31703e-12      59.0293
       808.00000  1.31703e-12      58.9635
       808.10000  1.31703e-12      58.9108
       808.20000  1.31703e-12      58.8581
       808.30000  1.31703e-12      58.8054
       808.40000  1.31703e-12      58.7659
       808.50000  9.34894e-13      41.6963
       808.60000  9.34894e-13      41.6776
       808.70000  9.34894e-13      41.6589
       808.80000  9.11583e-13      40.6110
       808.90000  9.11583e-13      40.6019
       809.00000  9.11583e-13      40.6019
       809.10000  9.11583e-13      40.6019
       809.20000  9.11583e-13      40.6110
       809.30000  9.11583e-13      40.6201
       809.40000  9.11583e-13      40.6292
       809.50000  3.04141e-13      13.5616
       809.60000  3.04141e-13      13.5708
       809.70000  3.04141e-13      13.5799
       809.80000  3.04141e-13      13.5890
       809.90000  3.04141e-13      13.6012
       810.00000  3.04141e-13      13.6133
       810.10000  3.04141e-13      13.6286
       810.20000  3.04141e-13      13.6438
       810.30000  3.04141e-13      13.6590
       810.40000  3.04141e-13      13.6772
       810.50000  1.76673e-12      79.5735
       810.60000  1.76673e-12      79.6795
       810.70000  1.76673e-12      79.8208
       810.80000  1.76673e-12      79.9622
       810.90000  1.76673e-12      80.1035
       811.00000  1.76673e-12      80.2625
       811.10000  1.76673e-12      80.2802
       811.20000  1.76673e-12      80.3155
       811.30000  1.72206e-12      78.3020
       811.40000  1.72206e-12      78.3364
       811.50000  6.32405e-13      28.7744
       811.60000  6.32405e-13      28.7807
       811.70000  6.32405e-13      28.7871
       811.80000  6.32405e-13      28.7934
       811.90000  6.32405e-13      28.7997
       812.00000  6.32405e-13      28.8060
       812.10000  6.32405e-13      28.8060
       812.20000  6.32405e-13      28.8124
       812.30000  6.32405e-13      28.8187
       812.40000  6.32405e-13      28.8187
       812.50000  5.55701e-13      25.3233
       812.60000  5.55701e-13      25.3289
       812.70000  5.55701e-13      25.3289
       812.80000  5.55701e-13      25.3289
       812.90000  5.55701e-13      25.3289
       813.00000  5.55701e-13      25.3289
       813.10000  5.55701e-13      25.3177
       813.20000  5.55701e-13      25.3122
       813.30000  5.55701e-13      25.3011
       813.40000  5.55701e-13      25.2955
       813.50000  5.35418e-13      24.3615
       813.60000  5.35418e-13      24.3562
       813.70000  5.35418e-13      24.3508
       813.80000  5.22392e-13      23.7532
       813.90000  5.22392e-13      23.7480
       814.00000  5.22392e-13      23.7375
       814.10000  5.22392e-13      23.7323
       814.20000  5.22392e-13      23.7271
       814.30000  5.22392e-13      23.7218
       814.40000  5.22392e-13      23.7218
       814.50000  5.25325e-14      2.38498
       814.60000  5.25325e-14      2.38445
       814.70000  5.25325e-14      2.38393
       814.80000  5.25325e-14      2.38340
       814.90000  5.25325e-14      2.38340
       815.00000  5.25325e-14      2.38288
       815.10000  5.25325e-14      2.38498
       815.20000  5.25325e-14      2.38655
       815.30000  5.25325e-14      2.38813
       815.40000  5.25325e-14      2.38918
       815.50000  3.94140e-13      17.9373
       815.60000  3.94140e-13      17.9413
       815.70000  3.94140e-13      17.9492
       815.80000  3.94140e-13      17.9492
       815.90000  3.94140e-13      17.9531
       816.00000  3.94140e-13      17.9531
       816.10000  3.94140e-13      17.9531
       816.20000  3.94140e-13      17.9492
       816.30000  3.84234e-13      17.4942
       816.40000  3.84234e-13      17.4903
       816.50000  5.64202e-13      25.6712
       816.60000  5.64202e-13      25.6599
       816.70000  5.64202e-13      25.6430
       816.80000  5.64202e-13      25.6261
       816.90000  5.64202e-13      25.6091
       817.00000  5.64202e-13      25.5866
       817.10000  5.64202e-13      25.5076
       817.20000  5.64202e-13      25.4342
       817.30000  5.64202e-13      25.3665
       817.40000  5.64202e-13      25.2988
       817.50000  9.56851e-13      42.7999
       817.60000  9.56851e-13      42.7042
       817.70000  9.56851e-13      42.6086
       817.80000  9.56851e-13      42.5129
       817.90000  9.56851e-13      42.4363
       818.00000  9.56851e-13      42.3502
       818.10000  9.56851e-13      42.2832
       818.20000  9.56851e-13      42.2163
       818.30000  9.56851e-13      42.1493
       818.40000  9.56851e-13      42.1014
       818.50000  1.01668e-12      44.6730
       818.60000  1.01668e-12      44.6324
       818.70000  1.01668e-12      44.5917
       818.80000  9.90926e-13      43.4224
       818.90000  9.90926e-13      43.4026
       819.00000  9.90926e-13      43.3728
       819.10000  9.90926e-13      43.3629
       819.20000  9.90926e-13      43.3530
       819.30000  9.90926e-13      43.3431
       819.40000  9.90926e-13      43.3431
       819.50000  1.38826e-13      6.07364
       819.60000  1.38826e-13      6.07503
       819.70000  1.38826e-13      6.07780
       819.80000  1.38826e-13      6.08197
       819.90000  1.38826e-13      6.08613
       820.00000  1.38826e-13      6.09168
       820.10000  1.38826e-13      6.09724
       820.20000  1.38826e-13      6.10418
       820.30000  1.38826e-13      6.11251
       820.40000  1.38826e-13      6.12084
       820.50000  4.46527e-14      1.97186
       820.60000  4.46527e-14      1.97499
       820.70000  4.46527e-14      1.97856
       820.80000  4.46527e-14      1.98214
       820.90000  4.46527e-14      1.98615
       821.00000  4.46527e-14      1.99062
       821.10000  4.46527e-14      1.98973
       821.20000  4.46527e-14      1.98928
       821.30000  4.36229e-14      1.94253
       821.40000  4.36229e-14      1.94209
       821.50000  2.31232e-12      102.898
       821.60000  2.31232e-12      102.875
       821.70000  2.31232e-12      102.852
       821.80000  2.31232e-12      102.806
       821.90000  2.31232e-12      102.783
       822.00000  2.31232e-12      102.760
       822.10000  2.31232e-12      102.760
       822.20000  2.31232e-12      102.737
       822.30000  2.31232e-12      102.713
       822.40000  2.31232e-12      102.713
       822.50000  4.37794e-13      19.4424
       822.60000  4.37794e-13      19.4424
       822.70000  4.37794e-13      19.4380
       822.80000  4.37794e-13      19.4380
       822.90000  4.37794e-13      19.4380
       823.00000  4.37794e-13      19.4380
       823.10000  4.37794e-13      19.4380
       823.20000  4.37794e-13      19.4380
       823.30000  4.37794e-13      19.4380
       823.40000  4.37794e-13      19.4380
       823.50000  4.86711e-14      2.16148
       823.60000  4.86711e-14      2.16148
       823.70000  4.86711e-14      2.16197
       823.80000  4.75892e-14      2.11391
       823.90000  4.75892e-14      2.11439
       824.00000  4.75892e-14      2.11486
       824.10000  4.75892e-14      2.11534
       824.20000  4.75892e-14      2.11581
       824.30000  4.75892e-14      2.11629
       824.40000  4.75892e-14      2.11724
       824.50000  6.45081e-13      28.7061
       824.60000  6.45081e-13      28.7190
       824.70000  6.45081e-13      28.7254
       824.80000  6.45081e-13      28.7384
       824.90000  6.45081e-13      28.7513
       825.00000  6.45081e-13      28.7642
       825.10000  6.45081e-13      28.7771
       825.20000  6.45081e-13      28.7900
       825.30000  6.45081e-13      28.8093
       825.40000  6.45081e-13      28.8222
       825.50000  4.93422e-14      2.20609
       825.60000  4.93422e-14      2.20708
       825.70000  4.93422e-14      2.20856
       825.80000  4.93422e-14      2.21004
       825.90000  4.93422e-14      2.21152
       826.00000  4.93422e-14      2.21300
       826.10000  4.93422e-14      2.21448
       826.20000  4.93422e-14      2.21547
       826.30000  4.83379e-14      2.17182
       826.40000  4.83379e-14      2.17279
       826.50000  7.99262e-13      35.9348
       826.60000  7.99262e-13      35.9508
       826.70000  7.99262e-13      35.9668
       826.80000  7.99262e-13      35.9748
       826.90000  7.99262e-13      35.9828
       827.00000  7.99262e-13      35.9908
       827.10000  7.99262e-13      35.9908
       827.20000  7.99262e-13      35.9988
       827.30000  7.99262e-13      35.9988
       827.40000  7.99262e-13      35.9988
       827.50000  6.09889e-13      27.4694
       827.60000  6.09889e-13      27.4694
       827.70000  6.09889e-13      27.4633
       827.80000  6.09889e-13      27.4572
       827.90000  6.09889e-13      27.4511
       828.00000  6.09889e-13      27.4450
       828.10000  6.09889e-13      27.4267
       828.20000  6.09889e-13      27.4023
       828.30000  6.09889e-13      27.3779
       828.40000  6.09889e-13      27.3535
       828.50000  3.12452e-13      14.0041
       828.60000  3.12452e-13      13.9916
       828.70000  3.12452e-13      13.9822
       828.80000  3.06317e-13      13.6985
       828.90000  3.06317e-13      13.6862
       829.00000  3.06317e-13      13.6770
       829.10000  3.06317e-13      13.6678
       829.20000  3.06317e-13      13.6587
       829.30000  3.06317e-13      13.6495
       829.40000  3.06317e-13      13.6403
       829.50000  3.83330e-13      17.0582
       829.60000  3.83330e-13      17.0467
       829.70000  3.83330e-13      17.0352
       829.80000  3.83330e-13      17.0237
       829.90000  3.83330e-13      17.0160
       830.00000  3.83330e-13      17.0045
       830.10000  3.83330e-13      16.9969
       830.20000  3.83330e-13      16.9854
       830.30000  3.83330e-13      16.9777
       830.40000  3.83330e-13      16.9662
       830.50000  1.19461e-12      52.8495
       830.60000  1.19461e-12      52.8257
       830.70000  1.19461e-12      52.7898
       830.80000  1.19461e-12      52.7659
       830.90000  1.19461e-12      52.7420
       831.00000  1.19461e-12      52.7181
       831.10000  1.19461e-12      52.6942
       831.20000  1.19461e-12      52.6704
       831.30000  1.17081e-12      51.6091
       831.40000  1.17081e-12      51.5857
       831.50000  9.72800e-13      42.8421
       831.60000  9.72800e-13      42.8324
       831.70000  9.72800e-13      42.8129
       831.80000  9.72800e-13      42.7935
       831.90000  9.72800e-13      42.7838
       832.00000  9.72800e-13      42.7740
       832.10000  9.72800e-13      42.7351
       832.20000  9.72800e-13      42.6962
       832.30000  9.72800e-13      42.6670
       832.40000  9.72800e-13      42.6378
       832.50000  1.23284e-13      5.39983
       832.60000  1.23284e-13      5.39736
       832.70000  1.23284e-13      5.39490
       832.80000  1.23284e-13      5.39120
       832.90000  1.23284e-13      5.38996
       833.00000  1.23284e-13      5.38750
       833.10000  1.23284e-13      5.38503
       833.20000  1.23284e-13      5.38380
       833.30000  1.23284e-13      5.38257
       833.40000  1.23284e-13      5.38133
       833.50000  3.71400e-13      16.2116
       833.60000  3.71400e-13      16.2079
       833.70000  3.71400e-13      16.2079
       833.80000  3.64469e-13      15.9054
       833.90000  3.64469e-13      15.9091
       834.00000  3.64469e-13      15.9091
       834.10000  3.64469e-13      15.9273
       834.20000  3.64469e-13      15.9419
       834.30000  3.64469e-13      15.9601
       834.40000  3.64469e-13      15.9747
       834.50000  2.41374e-13      10.5891
       834.60000  2.41374e-13      10.5987
       834.70000  2.41374e-13      10.6060
       834.80000  2.41374e-13      10.6132
       834.90000  2.41374e-13      10.6229
       835.00000  2.41374e-13      10.6301
       835.10000  2.41374e-13      10.6349
       835.20000  2.41374e-13      10.6422
       835.30000  2.41374e-13      10.6470
       835.40000  2.41374e-13      10.6518
       835.50000  2.05169e-13      9.05822
       835.60000  2.05169e-13      9.06232
       835.70000  2.05169e-13      9.06437
       835.80000  2.05169e-13      9.06847
       835.90000  2.05169e-13      9.07053
       836.00000  2.05169e-13      9.07258
       836.10000  2.05169e-13      9.06847
       836.20000  2.05169e-13      9.06642
       836.30000  2.01853e-13      8.91585
       836.40000  2.01853e-13      8.91383
       836.50000  4.07570e-13      17.9942
       836.60000  4.07570e-13      17.9861
       836.70000  4.07570e-13      17.9820
       836.80000  4.07570e-13      17.9779
       836.90000  4.07570e-13      17.9697
       837.00000  4.07570e-13      17.9657
       837.10000  4.07570e-13      17.9616
       837.20000  4.07570e-13      17.9575
       837.30000  4.07570e-13      17.9534
       837.40000  4.07570e-13      17.9494
       837.50000  4.11941e-14      1.81378
       837.60000  4.11941e-14      1.81336
       837.70000  4.11941e-14      1.81295
       837.80000  4.11941e-14      1.81254
       837.90000  4.11941e-14      1.81254
       838.00000  4.11941e-14      1.81213
       838.10000  4.11941e-14      1.81172
       838.20000  4.11941e-14      1.81172
       838.30000  4.11941e-14      1.81172
       838.40000  4.11941e-14      1.81172
       838.50000  6.73297e-14      2.96049
       838.60000  6.73297e-14      2.96049
       838.70000  6.73297e-14      2.96049
       838.80000  6.63398e-14      2.91630
       838.90000  6.63398e-14      2.91630
       839.00000  6.63398e-14      2.91630
       839.10000  6.63398e-14      2.91563
       839.20000  6.63398e-14      2.91563
       839.30000  6.63398e-14      2.91563
       839.40000  6.63398e-14      2.91497
       839.50000  7.46013e-14      3.27798
       839.60000  7.46013e-14      3.27798
       839.70000  7.46013e-14      3.27723
       839.80000  7.46013e-14      3.27723
       839.90000  7.46013e-14      3.27723
       840.00000  7.46013e-14      3.27649
       840.10000  7.46013e-14      3.27649
       840.20000  7.46013e-14      3.27649
       840.30000  7.46013e-14      3.27574
       840.40000  7.46013e-14      3.27574
       840.50000  7.68338e-14      3.37377
       840.60000  7.68338e-14      3.37300
       840.70000  7.68338e-14      3.37300
       840.80000  7.68338e-14      3.37300
       840.90000  7.68338e-14      3.37223
       841.00000  7.68338e-14      3.37223
       841.10000  7.68338e-14      3.37223
       841.20000  7.68338e-14      3.37223
       841.30000  7.55897e-14      3.31688
       841.40000  7.55897e-14      3.31688
       841.50000  2.07455e-13      9.10311
       841.60000  2.07455e-13      9.10104
       841.70000  2.07455e-13      9.10104
       841.80000  2.07455e-13      9.10104
       841.90000  2.07455e-13      9.09896
       842.00000  2.07455e-13      9.09896
       842.10000  2.07455e-13      9.09067
       842.20000  2.07455e-13      9.08444
       842.30000  2.07455e-13      9.07822
       842.40000  2.07455e-13      9.06992
       842.50000  3.28925e-13      14.3707
       842.60000  3.28925e-13      14.3642
       842.70000  3.28925e-13      14.3543
       842.80000  3.28925e-13      14.3477
       842.90000  3.28925e-13      14.3379
       843.00000  3.28925e-13      14.3313
       843.10000  3.28925e-13      14.3247
       843.20000  3.28925e-13      14.3181
       843.30000  3.28925e-13      14.3148
       843.40000  3.28925e-13      14.3083
       843.50000  1.82148e-13      7.92164
       843.60000  1.82148e-13      7.91981
       843.70000  1.82148e-13      7.91799
       843.80000  1.78972e-13      7.77811
       843.90000  1.78972e-13      7.77811
       844.00000  1.78972e-13      7.77632
       844.10000  1.78972e-13      7.78169
       844.20000  1.78972e-13      7.78526
       844.30000  1.78972e-13      7.78884
       844.40000  1.78972e-13      7.79242
       844.50000  1.36909e-13      5.96377
       844.60000  1.36909e-13      5.96651
       844.70000  1.36909e-13      5.96788
       844.80000  1.36909e-13      5.97062
       844.90000  1.36909e-13      5.97198
       845.00000  1.36909e-13      5.97472
       845.10000  1.36909e-13      5.97609
       845.20000  1.36909e-13      5.97746
       845.30000  1.36909e-13      5.98020
       845.40000  1.36909e-13      5.98157
       845.50000  3.13731e-13      13.7069
       845.60000  3.13731e-13      13.7100
       845.70000  3.13731e-13      13.7132
       845.80000  3.13731e-13      13.7163
       845.90000  3.13731e-13      13.7163
       846.00000  3.13731e-13      13.7194
       846.10000  3.13731e-13      13.7194
       846.20000  3.13731e-13      13.7194
       846.30000  3.07857e-13      13.4626
       846.40000  3.07857e-13      13.4657
       846.50000  5.37523e-13      23.5113
       846.60000  5.37523e-13      23.5059
       846.70000  5.37523e-13      23.5059
       846.80000  5.37523e-13      23.5059
       846.90000  5.37523e-13      23.5005
       847.00000  5.37523e-13      23.5005
       847.10000  5.37523e-13      23.4951
       847.20000  5.37523e-13      23.4951
       847.30000  5.37523e-13      23.4898
       847.40000  5.37523e-13      23.4844
       847.50000  1.71684e-13      7.49914
       847.60000  1.71684e-13      7.49742
       847.70000  1.71684e-13      7.49571
       847.80000  1.71684e-13      7.49399
       847.90000  1.71684e-13      7.49056
       848.00000  1.71684e-13      7.48884
       848.10000  1.71684e-13      7.45279
       848.20000  1.71684e-13      7.42016
       848.30000  1.71684e-13      7.38754
       848.40000  1.71684e-13      7.35664
       848.50000  4.28044e-13      18.2689
       848.60000  4.28044e-13      18.2047
       848.70000  4.28044e-13      18.1405
       848.80000  4.20215e-13      17.7499
       848.90000  4.20215e-13      17.6953
       849.00000  4.20215e-13      17.6448
       849.10000  4.20215e-13      17.5944
       849.20000  4.20215e-13      17.5524
       849.30000  4.20215e-13      17.5146
       849.40000  4.20215e-13      17.4768
       849.50000  6.61365e-10      27459.9
       849.60000  6.61365e-10      27413.6
       849.70000  6.61365e-10      27380.5
       849.80000  6.61365e-10      27347.4
       849.90000  6.61365e-10      27321.0
       850.00000  6.61365e-10      27301.1
       850.10000  6.61365e-10      27446.6
       850.20000  6.61365e-10      27585.5
       850.30000  6.61365e-10      27711.2
       850.40000  6.61365e-10      27823.6
       850.50000  7.77308e-10      32825.7
       850.60000  7.77308e-10      32934.5
       850.70000  7.77308e-10      33027.8
       850.80000  7.77308e-10      33113.3
       850.90000  7.77308e-10      33183.3
       851.00000  7.77308e-10      33245.5
       851.10000  7.77308e-10      33292.1
       851.20000  7.77308e-10      33331.0
       851.30000  7.63914e-10      32779.5
       851.40000  7.63914e-10      32787.2
       851.50000  5.91801e-10      25400.1
       851.60000  5.91801e-10      25388.3
       851.70000  5.91801e-10      25370.5
       851.80000  5.91801e-10      25340.9
       851.90000  5.91801e-10      25299.5
       852.00000  5.91801e-10      25252.2
       852.10000  5.91801e-10      25193.0
       852.20000  5.91801e-10      25127.9
       852.30000  5.91801e-10      25051.0
       852.40000  5.91801e-10      24968.1
       852.50000  4.69652e-10      19734.8
       852.60000  4.69652e-10      19654.9
       852.70000  4.69652e-10      19561.0
       852.80000  4.69652e-10      19467.1
       852.90000  4.69652e-10      19359.1
       853.00000  4.69652e-10      19246.3
       853.10000  4.69652e-10      19124.2
       853.20000  4.69652e-10      18997.4
       853.30000  4.69652e-10      18861.2
       853.40000  4.69652e-10      18720.3
       853.50000  5.59028e-10      22104.0
       853.60000  5.59028e-10      21913.9
       853.70000  5.59028e-10      21718.2
       853.80000  5.49461e-10      21143.2
       853.90000  5.49461e-10      20934.5
       854.00000  5.49461e-10      20714.7
       854.10000  5.49461e-10      20868.5
       854.20000  5.49461e-10      21022.4
       854.30000  5.49461e-10      21170.7
       854.40000  5.49461e-10      21313.6
       854.50000  6.13109e-10      23935.8
       854.60000  6.13109e-10      24089.0
       854.70000  6.13109e-10      24236.2
       854.80000  6.13109e-10      24377.2
       854.90000  6.13109e-10      24518.2
       855.00000  6.13109e-10      24653.1
       855.10000  6.13109e-10      24781.8
       855.20000  6.13109e-10      24904.5
       855.30000  6.13109e-10      25027.1
       855.40000  6.13109e-10      25137.5
       855.50000  4.69241e-10      19328.0
       855.60000  4.69241e-10      19407.8
       855.70000  4.69241e-10      19487.6
       855.80000  4.69241e-10      19562.7
       855.90000  4.69241e-10      19633.0
       856.00000  4.69241e-10      19698.7
       856.10000  4.69241e-10      19750.3
       856.20000  4.69241e-10      19797.3
       856.30000  4.59762e-10      19443.3
       856.40000  4.59762e-10      19489.3
       856.50000  6.77677e-10      28787.7
       856.60000  6.77677e-10      28848.7
       856.70000  6.77677e-10      28902.9
       856.80000  6.77677e-10      28957.1
       856.90000  6.77677e-10      29004.6
       857.00000  6.77677e-10      29052.0
       857.10000  6.77677e-10      29099.5
       857.20000  6.77677e-10      29140.1
       857.30000  6.77677e-10      29180.8
       857.40000  6.77677e-10      29214.7
       857.50000  3.68909e-10      15922.1
       857.60000  3.68909e-10      15940.6
       857.70000  3.68909e-10      15955.3
       857.80000  3.68909e-10      15970.1
       857.90000  3.68909e-10      15981.1
       858.00000  3.68909e-10      15995.9
       858.10000  3.68909e-10      16003.3
       858.20000  3.68909e-10      16010.6
       858.30000  3.68909e-10      16018.0
       858.40000  3.68909e-10      16021.7
       858.50000  6.02519e-10      26173.4
       858.60000  6.02519e-10      26179.4
       858.70000  6.02519e-10      26179.4
       858.80000  5.89633e-10      25619.5
       858.90000  5.89633e-10      25613.6
       859.00000  5.89633e-10      25607.7
       859.10000  5.89633e-10      25601.8
       859.20000  5.89633e-10      25590.1
       859.30000  5.89633e-10      25578.3
       859.40000  5.89633e-10      25560.6
       859.50000  2.47343e-10      10714.9
       859.60000  2.47343e-10      10707.5
       859.70000  2.47343e-10      10697.6
       859.80000  2.47343e-10      10685.2
       859.90000  2.47343e-10      10675.3
       860.00000  2.47343e-10      10663.0
       860.10000  2.47343e-10      10660.5
       860.20000  2.47343e-10      10658.0
       860.30000  2.47343e-10      10658.0
       860.40000  2.47343e-10      10658.0
       860.50000  5.56540e-10      23975.8
       860.60000  5.56540e-10      23975.8
       860.70000  5.56540e-10      23975.8
       860.80000  5.56540e-10      23975.8
       860.90000  5.56540e-10      23975.8
       861.00000  5.56540e-10      23975.8
       861.10000  5.56540e-10      23975.8
       861.20000  5.56540e-10      23975.8
       861.30000  5.44709e-10      23466.1
       861.40000  5.44709e-10      23471.5
       861.50000  7.23061e-10      31156.7
       861.60000  7.23061e-10      31156.7
       861.70000  7.23061e-10      31163.9
       861.80000  7.23061e-10      31171.1
       861.90000  7.23061e-10      31171.1
       862.00000  7.23061e-10      31178.4
       862.10000  7.23061e-10      31279.6
       862.20000  7.23061e-10      31366.4
       862.30000  7.23061e-10      31445.9
       862.40000  7.23061e-10      31518.2
       862.50000  6.96854e-10      30431.6
       862.60000  6.96854e-10      30480.4
       862.70000  6.96854e-10      30522.2
       862.80000  6.96854e-10      30557.1
       862.90000  6.96854e-10      30578.0
       863.00000  6.96854e-10      30591.9
       863.10000  6.96854e-10      30598.9
       863.20000  6.96854e-10      30598.9
       863.30000  6.96854e-10      30584.9
       863.40000  6.96854e-10      30564.0
       863.50000  5.72311e-10      25078.7
       863.60000  5.72311e-10      25044.3
       863.70000  5.72311e-10      25004.3
       863.80000  5.60074e-10      24424.8
       863.90000  5.60074e-10      24374.4
       864.00000  5.60074e-10      24312.8
       864.10000  5.60074e-10      24245.6
       864.20000  5.60074e-10      24172.8
       864.30000  5.60074e-10      24088.8
       864.40000  5.60074e-10      24004.8
       864.50000  2.87118e-10      12254.2
       864.60000  2.87118e-10      12202.5
       864.70000  2.87118e-10      12145.1
       864.80000  2.87118e-10      12087.7
       864.90000  2.87118e-10      12021.6
       865.00000  2.87118e-10      11955.6
       865.10000  2.87118e-10      11883.8
       865.20000  2.87118e-10      11809.2
       865.30000  2.87118e-10      11731.6
       865.40000  2.87118e-10      11648.4
       865.50000  4.55296e-10      18334.8
       865.60000  4.55296e-10      18193.6
       865.70000  4.55296e-10      18047.9
       865.80000  4.55296e-10      17893.1
       865.90000  4.55296e-10      17733.8
       866.00000  4.55296e-10      17569.9
       866.10000  4.55296e-10      17633.6
       866.20000  4.55296e-10      17692.8
       866.30000  4.45612e-10      17378.9
       866.40000  4.45612e-10      17436.8
       866.50000  3.67995e-10      14447.5
       866.60000  3.67995e-10      14495.3
       866.70000  3.67995e-10      14543.2
       866.80000  3.67995e-10      14591.0
       866.90000  3.67995e-10      14635.2
       867.00000  3.67995e-10      14679.3
       867.10000  3.67995e-10      14723.5
       867.20000  3.67995e-10      14767.6
       867.30000  3.67995e-10      14811.8
       867.40000  3.67995e-10      14852.3
       867.50000  8.02229e-10      32466.2
       867.60000  8.02229e-10      32554.4
       867.70000  8.02229e-10      32642.7
       867.80000  8.02229e-10      32730.9
       867.90000  8.02229e-10      32811.2
       868.00000  8.02229e-10      32891.4
       868.10000  8.02229e-10      32979.6
       868.20000  8.02229e-10      33067.9
       868.30000  8.02229e-10      33148.1
       868.40000  8.02229e-10      33228.3
       868.50000  3.61293e-10      15000.9
       868.60000  3.61293e-10      15033.4
       868.70000  3.61293e-10      15069.5
       868.80000  3.53384e-10      14767.9
       868.90000  3.53384e-10      14799.7
       869.00000  3.53384e-10      14828.0
       869.10000  3.53384e-10      14856.3
       869.20000  3.53384e-10      14884.5
       869.30000  3.53384e-10      14912.8
       869.40000  3.53384e-10      14937.5
       869.50000  3.20918e-10      13587.7
       869.60000  3.20918e-10      13606.9
       869.70000  3.20918e-10      13626.2
       869.80000  3.20918e-10      13645.4
       869.90000  3.20918e-10      13664.7
       870.00000  3.20918e-10      13683.9
       870.10000  3.20918e-10      13700.0
       870.20000  3.20918e-10      13716.0
       870.30000  3.20918e-10      13728.9
       870.40000  3.20918e-10      13741.7
       870.50000  6.93630e-11      2972.90
       870.60000  6.93630e-11      2975.67
       870.70000  6.93630e-11      2977.76
       870.80000  6.93630e-11      2980.53
       870.90000  6.93630e-11      2981.92
       871.00000  6.93630e-11      2984.00
       871.10000  6.93630e-11      2985.39
       871.20000  6.93630e-11      2986.77
       871.30000  6.79088e-11      2925.51
       871.40000  6.79088e-11      2926.19
       871.50000  3.87171e-10      16687.0
       871.60000  3.87171e-10      16690.9
       871.70000  3.87171e-10      16690.9
       871.80000  3.87171e-10      16694.8
       871.90000  3.87171e-10      16690.9
       872.00000  3.87171e-10      16690.9
       872.10000  3.87171e-10      16679.3
       872.20000  3.87171e-10      16671.6
       872.30000  3.87171e-10      16659.9
       872.40000  3.87171e-10      16652.2
       872.50000  2.88710e-10      12408.8
       872.60000  2.88710e-10      12403.0
       872.70000  2.88710e-10      12397.2
       872.80000  2.88710e-10      12391.4
       872.90000  2.88710e-10      12382.8
       873.00000  2.88710e-10      12377.0
       873.10000  2.88710e-10      12371.2
       873.20000  2.88710e-10      12365.4
       873.30000  2.88710e-10      12359.7
       873.40000  2.88710e-10      12353.9
       873.50000  4.91180e-11      2100.78
       873.60000  4.91180e-11      2099.79
       873.70000  4.91180e-11      2098.81
       873.80000  4.80033e-11      2050.70
       873.90000  4.80033e-11      2049.74
       874.00000  4.80033e-11      2048.78
       877.00000  7.36697e-10      31420.1
       877.10000  7.36697e-10      31442.2
       877.20000  7.36697e-10      31464.3
       877.30000  7.36697e-10      31486.4
       877.40000  7.36697e-10      31515.9
       877.50000  2.08119e-09      89116.4
       877.60000  2.08119e-09      89199.7
       877.70000  2.08119e-09      89282.9
       877.80000  2.08119e-09      89366.2
       877.90000  2.08119e-09      89470.2
       878.00000  2.08119e-09      89574.3
       878.10000  2.08119e-09      89449.4
       878.20000  2.08119e-09      89345.3
       878.30000  2.08119e-09      89241.3
       878.40000  2.08119e-09      89137.2
       878.50000  1.20565e-09      51577.8
       878.60000  1.20565e-09      51529.6
       878.70000  1.20565e-09      51469.3
       878.80000  1.17624e-09      50166.5
       878.90000  1.17624e-09      50119.5
       879.00000  1.17624e-09      50072.4
       883.00000  3.25399e-08  1.38360e+06
       883.10000  3.25399e-08  1.38425e+06
       883.20000  3.25399e-08  1.38490e+06
       883.30000  3.25399e-08  1.38522e+06
       883.40000  3.25399e-08  1.38555e+06
       883.50000  2.00375e-07  8.53397e+06
       883.60000  2.00375e-07  8.53397e+06
       883.70000  2.00375e-07  8.53397e+06
       883.80000  1.95721e-07  8.33576e+06
       883.90000  1.95721e-07  8.33380e+06
       884.00000  1.95721e-07  8.33184e+06
       886.00000  1.58977e-06  6.64524e+07
       888.00000  2.65905e-06  1.12106e+08
       890.00000  2.79331e-06  1.19107e+08
       890.10000  2.79331e-06  1.19023e+08
       890.20000  2.79331e-06  1.18939e+08
       890.30000  2.79331e-06  1.18855e+08
       890.40000  2.79331e-06  1.18772e+08
       890.50000  3.81610e-06  1.62146e+08
       890.60000  3.81610e-06  1.62032e+08
       890.70000  3.81610e-06  1.61917e+08
       890.80000  3.81610e-06  1.61803e+08
       890.90000  3.81610e-06  1.61688e+08
       891.00000  3.81610e-06  1.61612e+08
       893.00000  1.08100e-06  4.54019e+07
       899.00000  2.88072e-08  1.20644e+06
       899.10000  2.88072e-08  1.20529e+06
       899.20000  2.88072e-08  1.20414e+06
       899.30000  2.88072e-08  1.20299e+06
       899.40000  2.88072e-08  1.20183e+06
       899.50000  6.17588e-08  2.57410e+06
       899.60000  6.17588e-08  2.57102e+06
       899.70000  6.17588e-08  2.56855e+06
       899.80000  6.17588e-08  2.56546e+06
       899.90000  6.17588e-08  2.56237e+06
       900.00000  6.17588e-08  2.55928e+06
       900.10000  6.17588e-08  2.55187e+06
       900.20000  6.17588e-08  2.54570e+06
       900.30000  6.17588e-08  2.53890e+06
       900.40000  6.17588e-08  2.53334e+06
       900.50000  2.85644e-08  1.16914e+06
       900.60000  2.85644e-08  1.16686e+06
       900.70000  2.85644e-08  1.16457e+06
       900.80000  2.85644e-08  1.16286e+06
       900.90000  2.85644e-08  1.16114e+06
       901.00000  2.85644e-08  1.15943e+06
       901.10000  2.85644e-08  1.15829e+06
       901.20000  2.85644e-08  1.15715e+06
       901.30000  2.81587e-08  1.13958e+06
       901.40000  2.81587e-08  1.13902e+06
       901.50000  1.51838e-08      613882.
       901.60000  1.51838e-08      613730.
       901.70000  1.51838e-08      613578.
       901.80000  1.51838e-08      613578.
       901.90000  1.51838e-08      613730.
       902.00000  1.51838e-08      614034.
       902.10000  1.51838e-08      616160.
       902.20000  1.51838e-08      618134.
       902.30000  1.51838e-08      620108.
       902.40000  1.51838e-08      621930.
       902.50000  7.74380e-09      318115.
       902.60000  7.74380e-09      318967.
       902.70000  7.74380e-09      319819.
       902.80000  7.74380e-09      320593.
       902.90000  7.74380e-09      321368.
       903.00000  7.74380e-09      322065.
       903.10000  7.74380e-09      322762.
       903.20000  7.74380e-09      323381.
       903.30000  7.74380e-09      323923.
       903.40000  7.74380e-09      324465.
       903.50000  6.32625e-09      265449.
       903.60000  6.32625e-09      265829.
       903.70000  6.32625e-09      266209.
       903.80000  6.23809e-09      262748.
       903.90000  6.23809e-09      263060.
       904.00000  6.23809e-09      263247.
       904.10000  6.23809e-09      263435.
       904.20000  6.23809e-09      263622.
       904.30000  6.23809e-09      263746.
       904.40000  6.23809e-09      263809.
       904.50000  3.75219e-09      158718.
       904.60000  3.75219e-09      158755.
       904.70000  3.75219e-09      158755.
       904.80000  3.75219e-09      158718.
       904.90000  3.75219e-09      158680.
       905.00000  3.75219e-09      158605.
       905.10000  3.75219e-09      158530.
       905.20000  3.75219e-09      158417.
       905.30000  3.75219e-09      158305.
       905.40000  3.75219e-09      158155.
       905.50000  4.85985e-09      204600.
       905.60000  4.85985e-09      204357.
       905.70000  4.85985e-09      204114.
       905.80000  4.85985e-09      203822.
       905.90000  4.85985e-09      203482.
       906.00000  4.85985e-09      203142.
       906.10000  4.85985e-09      202947.
       906.20000  4.85985e-09      202802.
       906.30000  4.78963e-09      199728.
       906.40000  4.78963e-09      199536.
       906.50000  6.97956e-09      290559.
       906.60000  6.97956e-09      290350.
       906.70000  6.97956e-09      290140.
       906.80000  6.97956e-09      289931.
       906.90000  6.97956e-09      289722.
       907.00000  6.97956e-09      289512.
       907.10000  6.97956e-09      289303.
       907.20000  6.97956e-09      289093.
       907.30000  6.97956e-09      288884.
       907.40000  6.97956e-09      288675.
       907.50000  3.84573e-09      158944.
       907.60000  3.84573e-09      158867.
       907.70000  3.84573e-09      158752.
       907.80000  3.84573e-09      158636.
       907.90000  3.84573e-09      158559.
       908.00000  3.84573e-09      158444.
       908.10000  3.84573e-09      158290.
       908.20000  3.84573e-09      158175.
       908.30000  3.84573e-09      158021.
       908.40000  3.84573e-09      157905.
       908.50000  4.79204e-09      196617.
       908.60000  4.79204e-09      196474.
       908.70000  4.79204e-09      196378.
       908.80000  4.71971e-09      193272.
       908.90000  4.71971e-09      193178.
       909.00000  4.71971e-09      193084.
       909.10000  4.71971e-09      192989.
       909.20000  4.71971e-09      192895.
       909.30000  4.71971e-09      192800.
       909.40000  4.71971e-09      192753.
       909.50000  3.74829e-09      153043.
       909.60000  3.74829e-09      153005.
       909.70000  3.74829e-09      152968.
       909.80000  3.74829e-09      152930.
       909.90000  3.74829e-09      152930.
       910.00000  3.74829e-09      152893.
       910.10000  3.74829e-09      152893.
       910.20000  3.74829e-09      152893.
       910.30000  3.74829e-09      152930.
       910.40000  3.74829e-09      152930.
       910.50000  4.85294e-09      198048.
       910.60000  4.85294e-09      198048.
       910.70000  4.85294e-09      198097.
       910.80000  4.85294e-09      198194.
       910.90000  4.85294e-09      198243.
       911.00000  4.85294e-09      198291.
       911.10000  4.85294e-09      198388.
       911.20000  4.85294e-09      198485.
       911.30000  4.77557e-09      195416.
       911.40000  4.77557e-09      195512.
       911.50000  3.65862e-09      149894.
       911.60000  3.65862e-09      149967.
       911.70000  3.65862e-09      150077.
       911.80000  3.65862e-09      150186.
       911.90000  3.65862e-09      150296.
       912.00000  3.65862e-09      150442.
       912.10000  3.65862e-09      150625.
       912.20000  3.65862e-09      150772.
       912.30000  3.65862e-09      150918.
       912.40000  3.65862e-09      151064.
       912.50000  3.46721e-09      143300.
       912.60000  3.46721e-09      143438.
       912.70000  3.46721e-09      143577.
       912.80000  3.46721e-09      143681.
       912.90000  3.46721e-09      143785.
       913.00000  3.46721e-09      143889.
       913.10000  3.46721e-09      143993.
       913.20000  3.46721e-09      144063.
       913.30000  3.46721e-09      144167.
       913.40000  3.46721e-09      144236.
       913.50000  4.60061e-09      191477.
       913.60000  4.60061e-09      191569.
       913.70000  4.60061e-09      191615.
       913.80000  4.52176e-09      188376.
       913.90000  4.52176e-09      188467.
       914.00000  4.52176e-09      188512.
       914.10000  4.52176e-09      188422.
       914.20000  4.52176e-09      188376.
       914.30000  4.52176e-09      188331.
       914.40000  4.52176e-09      188286.
       914.50000  4.66386e-09      194156.
       914.60000  4.66386e-09      194063.
       914.70000  4.66386e-09      194017.
       914.80000  4.66386e-09      193970.
       914.90000  4.66386e-09      193923.
       915.00000  4.66386e-09      193877.
       915.10000  4.66386e-09      193830.
       915.20000  4.66386e-09      193783.
       915.30000  4.66386e-09      193737.
       915.40000  4.66386e-09      193690.
       915.50000  3.15231e-09      130884.
       915.60000  3.15231e-09      130852.
       915.70000  3.15231e-09      130821.
       915.80000  3.15231e-09      130789.
       915.90000  3.15231e-09      130758.
       916.00000  3.15231e-09      130726.
       916.10000  3.15231e-09      130695.
       916.20000  3.15231e-09      130663.
       916.30000  3.09371e-09      128203.
       916.40000  3.09371e-09      128173.
       916.50000  3.39437e-09      140595.
       916.60000  3.39437e-09      140595.
       916.70000  3.39437e-09      140561.
       916.80000  3.39437e-09      140527.
       916.90000  3.39437e-09      140493.
       917.00000  3.39437e-09      140459.
       917.10000  3.39437e-09      140459.
       917.20000  3.39437e-09      140425.
       917.30000  3.39437e-09      140391.
       917.40000  3.39437e-09      140357.
       917.50000  3.56980e-09      147611.
       917.60000  3.56980e-09      147576.
       917.70000  3.56980e-09      147540.
       917.80000  3.56980e-09      147540.
       917.90000  3.56980e-09      147504.
       918.00000  3.56980e-09      147468.
       918.10000  3.56980e-09      147540.
       918.20000  3.56980e-09      147611.
       918.30000  3.56980e-09      147683.
       918.40000  3.56980e-09      147718.
       918.50000  3.56075e-09      147379.
       918.60000  3.56075e-09      147415.
       918.70000  3.56075e-09      147415.
       918.80000  3.49414e-09      144658.
       918.90000  3.49414e-09      144658.
       919.00000  3.49414e-09      144658.
       919.10000  3.49414e-09      144623.
       919.20000  3.49414e-09      144588.
       919.30000  3.49414e-09      144553.
       919.40000  3.49414e-09      144483.
       919.50000  2.15178e-09      88933.1
       919.60000  2.15178e-09      88890.0
       919.70000  2.15178e-09      88847.0
       919.80000  2.15178e-09      88782.5
       919.90000  2.15178e-09      88739.4
       920.00000  2.15178e-09      88674.9
       920.10000  2.15178e-09      88481.2
       920.20000  2.15178e-09      88309.0
       920.30000  2.15178e-09      88136.9
       920.40000  2.15178e-09      87964.8
       920.50000  6.35337e-10      25921.7
       920.60000  6.35337e-10      25877.3
       920.70000  6.35337e-10      25832.8
       920.80000  6.35337e-10      25794.7
       920.90000  6.35337e-10      25750.2
       921.00000  6.35337e-10      25712.1
       921.10000  6.35337e-10      25674.0
       921.20000  6.35337e-10      25642.2
       921.30000  6.23136e-10      25112.4
       921.40000  6.23136e-10      25081.2
       921.50000  5.95501e-10      23939.2
       921.60000  5.95501e-10      23915.3
       921.70000  5.95501e-10      23891.5
       921.80000  5.95501e-10      23867.7
       921.90000  5.95501e-10      23843.9
       922.00000  5.95501e-10      23826.0
       922.10000  5.95501e-10      23802.2
       922.20000  5.95501e-10      23790.3
       922.30000  5.95501e-10      23772.4
       922.40000  5.95501e-10      23760.5
       922.50000  7.41262e-10      29554.1
       922.60000  7.41262e-10      29546.7
       922.70000  7.41262e-10      29531.9
       922.80000  7.41262e-10      29524.5
       922.90000  7.41262e-10      29517.1
       923.00000  7.41262e-10      29509.7
       923.10000  7.41262e-10      29509.7
       923.20000  7.41262e-10      29502.2
       923.30000  7.41262e-10      29502.2
       923.40000  7.41262e-10      29509.7
       923.50000  7.80451e-10      31069.8
       923.60000  7.80451e-10      31077.6
       923.70000  7.80451e-10      31085.4
       923.80000  7.65265e-10      30495.8
       923.90000  7.65265e-10      30503.5
       924.00000  7.65265e-10      30518.8
       924.10000  7.65265e-10      30518.8
       924.20000  7.65265e-10      30518.8
       924.30000  7.65265e-10      30518.8
       924.40000  7.65265e-10      30518.8
       924.50000  5.98334e-10      23861.6
       924.60000  5.98334e-10      23861.6
       924.70000  5.98334e-10      23867.6
       924.80000  5.98334e-10      23873.5
       924.90000  5.98334e-10      23873.5
       925.00000  5.98334e-10      23879.5
       925.10000  5.98334e-10      23891.5
       925.20000  5.98334e-10      23897.5
       925.30000  5.98334e-10      23903.5
       925.40000  5.98334e-10      23915.4
       925.50000  5.05345e-10      20208.7
       925.60000  5.05345e-10      20218.8
       925.70000  5.05345e-10      20228.9
       925.80000  5.05345e-10      20239.1
       925.90000  5.05345e-10      20249.2
       926.00000  5.05345e-10      20264.3
       926.10000  5.05345e-10      20294.6
       926.20000  5.05345e-10      20330.0
       926.30000  4.95497e-10      19963.6
       926.40000  4.95497e-10      19993.3
       926.50000  5.64560e-10      22813.9
       926.60000  5.64560e-10      22842.1
       926.70000  5.64560e-10      22870.3
       926.80000  5.64560e-10      22898.5
       926.90000  5.64560e-10      22926.8
       927.00000  5.64560e-10      22949.3
       927.10000  5.64560e-10      22971.9
       927.20000  5.64560e-10      22994.5
       927.30000  5.64560e-10      23011.4
       927.40000  5.64560e-10      23028.4
       927.50000  6.33566e-10      25862.2
       927.60000  6.33566e-10      25874.8
       927.70000  6.33566e-10      25893.8
       927.80000  6.33566e-10      25906.5
       927.90000  6.33566e-10      25912.8
       928.00000  6.33566e-10      25919.2
       928.10000  6.33566e-10      25906.5
       928.20000  6.33566e-10      25893.8
       928.30000  6.33566e-10      25874.8
       928.40000  6.33566e-10      25862.2
       928.50000  5.24468e-10      21398.3
       928.60000  5.24468e-10      21387.8
       928.70000  5.24468e-10      21377.3
       928.80000  5.14322e-10      20953.5
       928.90000  5.14322e-10      20943.2
       929.00000  5.14322e-10      20938.1
       929.10000  5.14322e-10      20927.8
       929.20000  5.14322e-10      20917.5
       929.30000  5.14322e-10      20912.4
       929.40000  5.14322e-10      20902.1
       929.50000  7.10035e-10      28848.7
       929.60000  7.10035e-10      28841.6
       929.70000  7.10035e-10      28827.4
       929.80000  7.10035e-10      28820.3
       929.90000  7.10035e-10      28813.2
       930.00000  7.10035e-10      28806.1
       930.10000  7.10035e-10      28806.1
       930.20000  7.10035e-10      28806.1
       930.30000  7.10035e-10      28799.0
       930.40000  7.10035e-10      28799.0
       930.50000  4.99256e-10      20249.8
       930.60000  4.99256e-10      20249.8
       930.70000  4.99256e-10      20244.8
       930.80000  4.99256e-10      20244.8
       930.90000  4.99256e-10      20244.8
       931.00000  4.99256e-10      20244.8
       931.10000  4.99256e-10      20244.8
       931.20000  4.99256e-10      20239.8
       931.30000  4.90124e-10      19869.6
       931.40000  4.90124e-10      19869.6
       931.50000  5.15644e-10      20904.2
       931.60000  5.15644e-10      20904.2
       931.70000  5.15644e-10      20904.2
       931.80000  5.15644e-10      20904.2
       931.90000  5.15644e-10      20904.2
       932.00000  5.15644e-10      20904.2
       932.10000  5.15644e-10      20904.2
       932.20000  5.15644e-10      20904.2
       932.30000  5.15644e-10      20904.2
       932.40000  5.15644e-10      20904.2
       932.50000  4.39656e-10      17823.7
       932.60000  4.39656e-10      17823.7
       932.70000  4.39656e-10      17823.7
       932.80000  4.39656e-10      17828.1
       932.90000  4.39656e-10      17828.1
       933.00000  4.39656e-10      17828.1
       933.10000  4.39656e-10      17828.1
       933.20000  4.39656e-10      17828.1
       933.30000  4.39656e-10      17832.5
       933.40000  4.39656e-10      17832.5
       933.50000  4.50448e-10      18270.2
       933.60000  4.50448e-10      18274.7
       933.70000  4.50448e-10      18274.7
       933.80000  4.42811e-10      17964.8
       933.90000  4.42811e-10      17969.3
       934.00000  4.42811e-10      17969.3
       934.10000  4.42811e-10      17956.0
       934.20000  4.42811e-10      17942.7
       934.30000  4.42811e-10      17929.4
       934.40000  4.42811e-10      17916.1
       934.50000  5.21296e-10      21076.0
       934.60000  5.21296e-10      21065.6
       934.70000  5.21296e-10      21055.1
       934.80000  5.21296e-10      21039.5
       934.90000  5.21296e-10      21029.1
       935.00000  5.21296e-10      21023.8
       935.10000  5.21296e-10      21013.4
       935.20000  5.21296e-10      21003.0
       935.30000  5.21296e-10      20997.8
       935.40000  5.21296e-10      20992.6
       935.50000  5.25616e-10      21161.3
       935.60000  5.25616e-10      21156.0
       935.70000  5.25616e-10      21150.8
       935.80000  5.25616e-10      21145.5
       935.90000  5.25616e-10      21145.5
       936.00000  5.25616e-10      21140.3
       936.10000  5.25616e-10      21156.0
       936.20000  5.25616e-10      21171.8
       936.30000  5.16972e-10      20839.1
       936.40000  5.16972e-10      20854.7
       936.50000  4.47052e-10      18043.0
       936.60000  4.47052e-10      18052.0
       936.70000  4.47052e-10      18060.9
       936.80000  4.47052e-10      18069.8
       936.90000  4.47052e-10      18074.3
       937.00000  4.47052e-10      18083.3
       937.10000  4.47052e-10      18087.7
       937.20000  4.47052e-10      18092.2
       937.30000  4.47052e-10      18092.2
       937.40000  4.47052e-10      18096.7
       937.50000  3.87362e-10      15680.4
       937.60000  3.87362e-10      15680.4
       937.70000  3.87362e-10      15680.4
       937.80000  3.87362e-10      15680.4
       937.90000  3.87362e-10      15676.5
       938.00000  3.87362e-10      15676.5
       938.10000  3.87362e-10      15672.7
       938.20000  3.87362e-10      15664.9
       938.30000  3.87362e-10      15661.0
       938.40000  3.87362e-10      15653.3
       938.50000  5.20824e-10      21041.3
       938.60000  5.20824e-10      21030.9
       938.70000  5.20824e-10      21015.2
       938.80000  5.12705e-10      20677.4
       938.90000  5.12705e-10      20662.0
       939.00000  5.12705e-10      20651.7
       939.10000  5.12705e-10      20636.4
       939.20000  5.12705e-10      20615.8
       939.30000  5.12705e-10      20600.5
       939.40000  5.12705e-10      20580.0
       939.50000  3.76086e-10      15081.1
       939.60000  3.76086e-10      15066.0
       939.70000  3.76086e-10      15051.0
       939.80000  3.76086e-10      15035.9
       939.90000  3.76086e-10      15017.1
       940.00000  3.76086e-10      14998.3
       940.10000  3.76086e-10      14972.0
       940.20000  3.76086e-10      14945.7
       940.30000  3.76086e-10      14923.1
       940.40000  3.76086e-10      14900.5
       940.50000  3.14465e-10      12440.2
       940.60000  3.14465e-10      12424.5
       940.70000  3.14465e-10      12408.8
       940.80000  3.14465e-10      12393.0
       940.90000  3.14465e-10      12377.3
       941.00000  3.14465e-10      12364.7
       941.10000  3.14465e-10      12352.2
       941.20000  3.14465e-10      12342.7
       941.30000  3.09778e-10      12149.5
       941.40000  3.09778e-10      12140.2
       941.50000  3.59156e-10      14064.5
       941.60000  3.59156e-10      14057.4
       941.70000  3.59156e-10      14050.2
       941.80000  3.59156e-10      14043.0
       941.90000  3.59156e-10      14035.8
       942.00000  3.59156e-10      14032.2
       942.10000  3.59156e-10      14043.0
       942.20000  3.59156e-10      14050.2
       942.30000  3.59156e-10      14061.0
       942.40000  3.59156e-10      14068.1
       942.50000  4.54382e-10      17807.2
       942.60000  4.54382e-10      17820.9
       942.70000  4.54382e-10      17829.9
       942.80000  4.54382e-10      17839.0
       942.90000  4.54382e-10      17848.1
       943.00000  4.54382e-10      17857.2
       943.10000  4.54382e-10      17870.8
       943.20000  4.54382e-10      17879.9
       943.30000  4.54382e-10      17889.0
       943.40000  4.54382e-10      17898.1
       943.50000  3.17033e-10      12494.3
       943.60000  3.17033e-10      12500.6
       943.70000  3.17033e-10      12506.9
       943.80000  3.12197e-10      12322.4
       943.90000  3.12197e-10      12328.7
       944.00000  3.12197e-10      12334.9
       944.10000  3.12197e-10      12341.2
       944.20000  3.12197e-10      12347.4
       944.30000  3.12197e-10      12350.5
       944.40000  3.12197e-10      12356.8
       944.50000  3.41378e-10      13518.6
       944.60000  3.41378e-10      13525.4
       944.70000  3.41378e-10      13528.8
       944.80000  3.41378e-10      13535.6
       944.90000  3.41378e-10      13542.5
       945.00000  3.41378e-10      13545.9
       945.10000  3.41378e-10      13552.7
       945.20000  3.41378e-10      13559.5
       945.30000  3.41378e-10      13562.9
       945.40000  3.41378e-10      13569.8
       945.50000  2.62913e-10      10453.4
       945.60000  2.62913e-10      10458.7
       945.70000  2.62913e-10      10461.3
       945.80000  2.62913e-10      10466.6
       945.90000  2.62913e-10      10469.2
       946.00000  2.62913e-10      10471.8
       946.10000  2.62913e-10      10477.1
       946.20000  2.62913e-10      10482.4
       946.30000  2.58968e-10      10330.2
       946.40000  2.58968e-10      10335.4
       946.50000  2.08308e-10      8317.73
       946.60000  2.08308e-10      8319.81
       946.70000  2.08308e-10      8323.98
       946.80000  2.08308e-10      8326.06
       946.90000  2.08308e-10      8328.15
       947.00000  2.08308e-10      8332.31
       947.10000  2.08308e-10      8334.40
       947.20000  2.08308e-10      8336.48
       947.30000  2.08308e-10      8338.56
       947.40000  2.08308e-10      8340.65
       947.50000  4.83599e-10      19363.3
       947.60000  4.83599e-10      19368.1
       947.70000  4.83599e-10      19373.0
       947.80000  4.83599e-10      19373.0
       947.90000  4.83599e-10      19377.8
       948.00000  4.83599e-10      19377.8
       948.10000  4.83599e-10      19377.8
       948.20000  4.83599e-10      19377.8
       948.30000  4.83599e-10      19373.0
       948.40000  4.83599e-10      19373.0
       948.50000  3.12057e-10      12497.9
       948.60000  3.12057e-10      12497.9
       948.70000  3.12057e-10      12497.9
       948.80000  3.07046e-10      12294.1
       948.90000  3.07046e-10      12294.1
       949.00000  3.07046e-10      12291.1
       949.10000  3.07046e-10      12291.1
       949.20000  3.07046e-10      12288.0
       949.30000  3.07046e-10      12288.0
       949.40000  3.07046e-10      12284.9
       949.50000  3.29528e-10      13184.4
       949.60000  3.29528e-10      13181.1
       949.70000  3.29528e-10      13177.8
       949.80000  3.29528e-10      13177.8
       949.90000  3.29528e-10      13174.5
       950.00000  3.29528e-10      13171.3
       950.10000  3.29528e-10      13171.3
       950.20000  3.29528e-10      13168.0
       950.30000  3.29528e-10      13164.7
       950.40000  3.29528e-10      13164.7
       950.50000  2.72571e-10      10886.5
       950.60000  2.72571e-10      10883.8
       950.70000  2.72571e-10      10881.0
       950.80000  2.72571e-10      10881.0
       950.90000  2.72571e-10      10878.3
       951.00000  2.72571e-10      10875.6
       951.10000  2.72571e-10      10872.9
       951.20000  2.72571e-10      10870.1
       951.30000  2.68210e-10      10696.2
       951.40000  2.68210e-10      10693.5
       951.50000  1.55965e-10      6216.75
       951.60000  1.55965e-10      6215.19
       951.70000  1.55965e-10      6213.63
       951.80000  1.55965e-10      6212.07
       951.90000  1.55965e-10      6210.51
       952.00000  1.55965e-10      6208.95
       952.10000  1.55965e-10      6196.47
       952.20000  1.55965e-10      6184.00
       952.30000  1.55965e-10      6173.08
       952.40000  1.55965e-10      6162.16
       952.50000  3.42597e-10      13512.0
       952.60000  3.42597e-10      13488.0
       952.70000  3.42597e-10      13467.5
       952.80000  3.42597e-10      13446.9
       952.90000  3.42597e-10      13426.4
       953.00000  3.42597e-10      13409.2
       953.10000  3.42597e-10      13392.1
       953.20000  3.42597e-10      13375.0
       953.30000  3.42597e-10      13361.3
       953.40000  3.42597e-10      13344.1
       953.50000  2.79680e-10      10882.4
       953.60000  2.79680e-10      10874.0
       953.70000  2.79680e-10      10862.8
       953.80000  2.75036e-10      10674.2
       953.90000  2.75036e-10      10665.9
       954.00000  2.75036e-10      10660.4
       954.10000  2.75036e-10      10657.7
       954.20000  2.75036e-10      10654.9
       954.30000  2.75036e-10      10654.9
       954.40000  2.75036e-10      10654.9
       954.50000  2.03157e-10      7868.29
       954.60000  2.03157e-10      7868.29
       954.70000  2.03157e-10      7868.29
       954.80000  2.03157e-10      7868.29
       954.90000  2.03157e-10      7870.32
       955.00000  2.03157e-10      7870.32
       955.10000  2.03157e-10      7872.35
       955.20000  2.03157e-10      7872.35
       955.30000  2.03157e-10      7874.38
       955.40000  2.03157e-10      7876.41
       955.50000  1.57283e-10      6099.44
       955.60000  1.57283e-10      6101.01
       955.70000  1.57283e-10      6102.58
       955.80000  1.57283e-10      6105.73
       955.90000  1.57283e-10      6107.30
       956.00000  1.57283e-10      6110.45
       956.10000  1.57283e-10      6113.59
       956.20000  1.57283e-10      6115.17
       956.30000  1.54716e-10      6018.43
       956.40000  1.54716e-10      6023.08
       956.50000  1.92717e-10      7506.31
       956.60000  1.92717e-10      7510.16
       956.70000  1.92717e-10      7515.94
       956.80000  1.92717e-10      7519.80
       956.90000  1.92717e-10      7525.58
       957.00000  1.92717e-10      7531.36
       957.10000  1.92717e-10      7537.14
       957.20000  1.92717e-10      7542.92
       957.30000  1.92717e-10      7550.63
       957.40000  1.92717e-10      7556.41
       957.50000  1.90574e-10      7478.13
       957.60000  1.90574e-10      7485.76
       957.70000  1.90574e-10      7493.38
       957.80000  1.90574e-10      7501.00
       957.90000  1.90574e-10      7508.63
       958.00000  1.90574e-10      7516.25
       958.10000  1.90574e-10      7516.25
       958.20000  1.90574e-10      7514.34
       958.30000  1.90574e-10      7514.34
       958.40000  1.90574e-10      7514.34
       958.50000  1.72651e-10      6807.63
       958.60000  1.72651e-10      6805.90
       958.70000  1.72651e-10      6805.90
       958.80000  1.69608e-10      6685.93
       958.90000  1.69608e-10      6684.23
       959.00000  1.69608e-10      6684.23
       959.10000  1.69608e-10      6682.54
       959.20000  1.69608e-10      6682.54
       959.30000  1.69608e-10      6680.84
       959.40000  1.69608e-10      6679.15
       959.50000  1.47145e-10      5794.58
       959.60000  1.47145e-10      5793.10
       959.70000  1.47145e-10      5793.10
       959.80000  1.47145e-10      5791.63
       959.90000  1.47145e-10      5790.16
       960.00000  1.47145e-10      5788.69
       960.10000  1.47145e-10      5787.22
       960.20000  1.47145e-10      5785.75
       960.30000  1.47145e-10      5784.28
       960.40000  1.47145e-10      5782.80
       960.50000  2.27150e-10      8924.73
       960.60000  2.27150e-10      8922.46
       960.70000  2.27150e-10      8920.19
       960.80000  2.27150e-10      8917.92
       960.90000  2.27150e-10      8915.65
       961.00000  2.27150e-10      8913.38
       961.10000  2.27150e-10      8911.10
       961.20000  2.27150e-10      8908.83
       961.30000  2.23204e-10      8751.81
       961.40000  2.23204e-10      8749.58
       961.50000  2.19712e-10      8610.50
       961.60000  2.19712e-10      8606.11
       961.70000  2.19712e-10      8603.91
       961.80000  2.19712e-10      8601.71
       961.90000  2.19712e-10      8599.51
       962.00000  2.19712e-10      8597.32
       962.10000  2.19712e-10      8592.92
       962.20000  2.19712e-10      8590.73
       962.30000  2.19712e-10      8588.53
       962.40000  2.19712e-10      8584.14
       962.50000  1.82847e-10      7141.99
       962.60000  1.82847e-10      7140.17
       962.70000  1.82847e-10      7136.51
       962.80000  1.82847e-10      7134.68
       962.90000  1.82847e-10      7131.02
       963.00000  1.82847e-10      7129.19
       963.10000  1.82847e-10      7127.37
       963.20000  1.82847e-10      7123.71
       963.30000  1.82847e-10      7121.88
       963.40000  1.82847e-10      7118.22
       963.50000  1.95313e-10      7601.57
       963.60000  1.95313e-10      7597.66
       963.70000  1.95313e-10      7595.71
       963.80000  1.91766e-10      7453.93
       963.90000  1.91766e-10      7450.10
       964.00000  1.91766e-10      7448.18
       964.10000  1.91766e-10      7444.35
       964.20000  1.91766e-10      7438.59
       964.30000  1.91766e-10      7434.76
       964.40000  1.91766e-10      7432.84
       964.50000  2.17321e-10      8419.02
       964.60000  2.17321e-10      8414.67
       964.70000  2.17321e-10      8412.50
       964.80000  2.17321e-10      8408.15
       964.90000  2.17321e-10      8405.98
       965.00000  2.17321e-10      8401.63
       965.10000  2.17321e-10      8399.46
       965.20000  2.17321e-10      8397.29
       965.30000  2.17321e-10      8395.11
       965.40000  2.17321e-10      8395.11
       965.50000  1.71358e-10      6617.85
       965.60000  1.71358e-10      6616.13
       965.70000  1.71358e-10      6616.13
       965.80000  1.71358e-10      6614.42
       965.90000  1.71358e-10      6614.42
       966.00000  1.71358e-10      6614.42
       966.10000  1.71358e-10      6616.13
       966.20000  1.71358e-10      6617.85
       966.30000  1.68189e-10      6498.83
       966.40000  1.68189e-10      6500.51
       966.50000  1.81978e-10      7035.25
       966.60000  1.81978e-10      7037.07
       966.70000  1.81978e-10      7038.89
       966.80000  1.81978e-10      7040.71
       966.90000  1.81978e-10      7042.53
       967.00000  1.81978e-10      7044.35
       967.10000  1.81978e-10      7046.17
       967.20000  1.81978e-10      7047.99
       967.30000  1.81978e-10      7049.81
       967.40000  1.81978e-10      7051.63
       967.50000  1.50588e-10      5835.28
       967.60000  1.50588e-10      5836.79
       967.70000  1.50588e-10      5838.29
       967.80000  1.50588e-10      5838.29
       967.90000  1.50588e-10      5839.80
       968.00000  1.50588e-10      5841.31
       968.10000  1.50588e-10      5841.31
       968.20000  1.50588e-10      5842.81
       968.30000  1.50588e-10      5842.81
       968.40000  1.50588e-10      5842.81
       968.50000  1.24579e-10      4834.93
       968.60000  1.24579e-10      4834.93
       968.70000  1.24579e-10      4834.93
       968.80000  1.22271e-10      4746.56
       968.90000  1.22271e-10      4746.56
       969.00000  1.22271e-10      4746.56
       969.10000  1.22271e-10      4746.56
       969.20000  1.22271e-10      4746.56
       969.30000  1.22271e-10      4746.56
       969.40000  1.22271e-10      4746.56
       969.50000  1.46363e-10      5681.81
       969.60000  1.46363e-10      5681.81
       969.70000  1.46363e-10      5681.81
       969.80000  1.46363e-10      5681.81
       969.90000  1.46363e-10      5681.81
       970.00000  1.46363e-10      5681.81
       970.10000  1.46363e-10      5683.27
       970.20000  1.46363e-10      5684.74
       970.30000  1.46363e-10      5684.74
       970.40000  1.46363e-10      5686.20
       970.50000  1.52913e-10      5940.67
       970.60000  1.52913e-10      5942.20
       970.70000  1.52913e-10      5942.20
       970.80000  1.52913e-10      5942.20
       970.90000  1.52913e-10      5942.20
       971.00000  1.52913e-10      5942.20
       971.10000  1.52913e-10      5942.20
       971.20000  1.52913e-10      5940.67
       971.30000  1.50086e-10      5830.84
       971.40000  1.50086e-10      5829.34
       971.50000  1.65951e-10      6445.53
       971.60000  1.65951e-10      6443.87
       971.70000  1.65951e-10      6442.21
       971.80000  1.65951e-10      6440.55
       971.90000  1.65951e-10      6438.89
       972.00000  1.65951e-10      6435.57
       972.10000  1.65951e-10      6428.94
       972.20000  1.65951e-10      6422.30
       972.30000  1.65951e-10      6417.32
       972.40000  1.65951e-10      6410.68
       972.50000  1.25360e-10      4838.90
       972.60000  1.25360e-10      4833.88
       972.70000  1.25360e-10      4830.12
       972.80000  1.25360e-10      4826.36
       972.90000  1.25360e-10      4822.60
       973.00000  1.25360e-10      4820.09
       973.10000  1.25360e-10      4816.33
       973.20000  1.25360e-10      4813.82
       973.30000  1.25360e-10      4811.32
       973.40000  1.25360e-10      4808.81
       973.50000  1.27511e-10      4888.77
       973.60000  1.27511e-10      4886.22
       973.70000  1.27511e-10      4884.95
       973.80000  1.25027e-10      4787.29
       973.90000  1.25027e-10      4786.04
       974.00000  1.25027e-10      4784.79
       974.10000  1.25027e-10      4786.04
       974.20000  1.25027e-10      4788.54
       974.30000  1.25027e-10      4789.79
       974.40000  1.25027e-10      4791.04
       974.50000  1.42283e-10      5453.71
       974.60000  1.42283e-10      5455.13
       974.70000  1.42283e-10      5456.56
       974.80000  1.42283e-10      5457.98
       974.90000  1.42283e-10      5457.98
       975.00000  1.42283e-10      5459.40
       975.10000  1.42283e-10      5460.83
       975.20000  1.42283e-10      5460.83
       975.30000  1.42283e-10      5462.25
       975.40000  1.42283e-10      5462.25
       975.50000  1.32993e-10      5105.58
       975.60000  1.32993e-10      5106.91
       975.70000  1.32993e-10      5106.91
       975.80000  1.32993e-10      5106.91
       975.90000  1.32993e-10      5106.91
       976.00000  1.32993e-10      5106.91
       976.10000  1.32993e-10      5105.58
       976.20000  1.32993e-10      5104.25
       976.30000  1.30449e-10      5005.34
       976.40000  1.30449e-10      5004.04
       976.50000  1.06482e-10      4084.66
       976.60000  1.06482e-10      4083.59
       976.70000  1.06482e-10      4082.53
       976.80000  1.06482e-10      4081.46
       976.90000  1.06482e-10      4081.46
       977.00000  1.06482e-10      4080.40
       977.10000  1.06482e-10      4079.33
       977.20000  1.06482e-10      4078.27
       977.30000  1.06482e-10      4078.27
       977.40000  1.06482e-10      4077.20
       977.50000  1.55412e-10      5949.16
       977.60000  1.55412e-10      5949.16
       977.70000  1.55412e-10      5947.60
       977.80000  1.55412e-10      5946.05
       977.90000  1.55412e-10      5946.05
       978.00000  1.55412e-10      5944.50
       978.10000  1.55412e-10      5944.50
       978.20000  1.55412e-10      5942.94
       978.30000  1.55412e-10      5942.94
       978.40000  1.55412e-10      5941.39
       978.50000  1.08298e-10      4139.16
       978.60000  1.08298e-10      4139.16
       978.70000  1.08298e-10      4139.16
       978.80000  1.06190e-10      4057.53
       978.90000  1.06190e-10      4057.53
       979.00000  1.06190e-10      4056.47
       979.10000  1.06190e-10      4056.47
       979.20000  1.06190e-10      4055.41
       979.30000  1.06190e-10      4055.41
       979.40000  1.06190e-10      4055.41
       979.50000  7.26110e-11      2772.29
       979.60000  7.26110e-11      2772.29
       979.70000  7.26110e-11      2772.29
       979.80000  7.26110e-11      2771.56
       979.90000  7.26110e-11      2771.56
       980.00000  7.26110e-11      2771.56
       980.10000  7.26110e-11      2773.01
       980.20000  7.26110e-11      2773.74
       980.30000  7.26110e-11      2775.19
       980.40000  7.26110e-11      2775.92
       980.50000  9.38443e-11      3589.54
       980.60000  9.38443e-11      3590.48
       980.70000  9.38443e-11      3591.42
       980.80000  9.38443e-11      3592.36
       980.90000  9.38443e-11      3593.30
       981.00000  9.38443e-11      3594.24
       981.10000  9.38443e-11      3595.17
       981.20000  9.38443e-11      3596.11
       981.30000  9.19453e-11      3523.34
       981.40000  9.19453e-11      3524.26
       981.50000  9.63596e-11      3693.46
       981.60000  9.63596e-11      3693.46
       981.70000  9.63596e-11      3694.43
       981.80000  9.63596e-11      3694.43
       981.90000  9.63596e-11      3694.43
       982.00000  9.63596e-11      3693.46
       982.10000  9.63596e-11      3692.50
       982.20000  9.63596e-11      3690.57
       982.30000  9.63596e-11      3689.61
       982.40000  9.63596e-11      3687.68
       982.50000  8.68959e-11      3324.64
       982.60000  8.68959e-11      3322.90
       982.70000  8.68959e-11      3322.03
       982.80000  8.68959e-11      3321.16
       982.90000  8.68959e-11      3319.43
       983.00000  8.68959e-11      3318.56
       983.10000  8.68959e-11      3317.69
       983.20000  8.68959e-11      3316.82
       983.30000  8.68959e-11      3315.95
       983.40000  8.68959e-11      3314.21
       983.50000  8.82087e-11      3363.40
       983.60000  8.82087e-11      3362.52
       983.70000  8.82087e-11      3361.64
       983.80000  8.64690e-11      3294.47
       983.90000  8.64690e-11      3293.60
       984.00000  8.64690e-11      3292.74
       984.10000  8.64690e-11      3292.74
       984.20000  8.64690e-11      3291.87
       984.30000  8.64690e-11      3291.01
       984.40000  8.64690e-11      3290.14
       984.50000  1.05658e-10      4020.30
       984.60000  1.05658e-10      4019.24
       984.70000  1.05658e-10      4018.19
       984.80000  1.05658e-10      4018.19
       984.90000  1.05658e-10      4017.13
       985.00000  1.05658e-10      4016.07
       985.10000  1.05658e-10      4016.07
       985.20000  1.05658e-10      4015.02
       985.30000  1.05658e-10      4015.02
       985.40000  1.05658e-10      4015.02
       985.50000  9.17077e-11      3483.97
       985.60000  9.17077e-11      3483.97
       985.70000  9.17077e-11      3483.97
       985.80000  9.17077e-11      3483.06
       985.90000  9.17077e-11      3483.06
       986.00000  9.17077e-11      3483.06
       986.10000  9.17077e-11      3482.14
       986.20000  9.17077e-11      3482.14
       986.30000  8.99002e-11      3413.51
       986.40000  8.99002e-11      3412.61
       986.50000  6.77590e-11      2571.45
       986.60000  6.77590e-11      2571.45
       986.70000  6.77590e-11      2570.78
       986.80000  6.77590e-11      2570.78
       986.90000  6.77590e-11      2570.10
       987.00000  6.77590e-11      2569.42
       987.10000  6.77590e-11      2568.74
       987.20000  6.77590e-11      2568.74
       987.30000  6.77590e-11      2568.07
       987.40000  6.77590e-11      2567.39
       987.50000  6.42609e-11      2434.20
       987.60000  6.42609e-11      2433.56
       987.70000  6.42609e-11      2432.92
       987.80000  6.42609e-11      2432.28
       987.90000  6.42609e-11      2431.63
       988.00000  6.42609e-11      2430.99
       988.10000  6.42609e-11      2429.06
       988.20000  6.42609e-11      2427.78
       988.30000  6.42609e-11      2425.85
       988.40000  6.42609e-11      2424.56
       988.50000  9.91536e-11      3739.08
       988.60000  9.91536e-11      3737.10
       988.70000  9.91536e-11      3735.12
       988.80000  9.72217e-11      3660.40
       988.90000  9.72217e-11      3658.45
       989.00000  9.72217e-11      3657.48
       989.10000  9.72217e-11      3656.51
       989.20000  9.72217e-11      3654.56
       989.30000  9.72217e-11      3653.59
       989.40000  9.72217e-11      3652.62
       989.50000  8.88472e-11      3337.10
       989.60000  8.88472e-11      3336.21
       989.70000  8.88472e-11      3336.21
       989.80000  8.88472e-11      3335.32
       989.90000  8.88472e-11      3335.32
       990.00000  8.88472e-11      3335.32
       990.10000  8.88472e-11      3334.44
       990.20000  8.88472e-11      3334.44
       990.30000  8.88472e-11      3335.32
       990.40000  8.88472e-11      3335.32
       990.50000  7.08862e-11      2661.07
       990.60000  7.08862e-11      2661.78
       990.70000  7.08862e-11      2661.78
       990.80000  7.08862e-11      2662.49
       990.90000  7.08862e-11      2663.19
       991.00000  7.08862e-11      2663.90
       991.10000  7.08862e-11      2664.61
       991.20000  7.08862e-11      2665.32
       991.30000  6.95726e-11      2616.63
       991.40000  6.95726e-11      2618.02
       991.50000  7.26686e-11      2735.25
       991.60000  7.26686e-11      2736.70
       991.70000  7.26686e-11      2738.15
       991.80000  7.26686e-11      2739.61
       991.90000  7.26686e-11      2741.06
       992.00000  7.26686e-11      2742.51
       992.10000  7.26686e-11      2743.24
       992.20000  7.26686e-11      2743.24
       992.30000  7.26686e-11      2743.24
       992.40000  7.26686e-11      2743.24
       992.50000  3.09521e-11      1168.75
       992.60000  3.09521e-11      1168.75
       992.70000  3.09521e-11      1168.75
       992.80000  3.09521e-11      1168.75
       992.90000  3.09521e-11      1168.75
       993.00000  3.09521e-11      1169.06
       993.10000  3.09521e-11      1169.06
       993.20000  3.09521e-11      1169.06
       993.30000  3.09521e-11      1169.06
       993.40000  3.09521e-11      1169.06
       993.50000  5.53261e-11      2089.67
       993.60000  5.53261e-11      2089.67
       993.70000  5.53261e-11      2089.67
       993.80000  5.43713e-11      2053.61
       993.90000  5.43713e-11      2053.06
       994.00000  5.43713e-11      2053.06
       994.10000  5.43713e-11      2053.06
       994.20000  5.43713e-11      2052.52
       994.30000  5.43713e-11      2052.52
       994.40000  5.43713e-11      2051.97
       994.50000  6.49120e-11      2449.78
       994.60000  6.49120e-11      2449.13
       994.70000  6.49120e-11      2449.13
       994.80000  6.49120e-11      2448.48
       994.90000  6.49120e-11      2448.48
       995.00000  6.49120e-11      2447.83
       995.10000  6.49120e-11      2447.83
       995.20000  6.49120e-11      2447.83
       995.30000  6.49120e-11      2447.18
       995.40000  6.49120e-11      2447.18
       995.50000  5.21243e-11      1965.09
       995.60000  5.21243e-11      1964.57
       995.70000  5.21243e-11      1964.57
       995.80000  5.21243e-11      1964.57
       995.90000  5.21243e-11      1964.57
       996.00000  5.21243e-11      1964.04
       996.10000  5.21243e-11      1964.57
       996.20000  5.21243e-11      1964.57
       996.30000  5.12507e-11      1931.64
       996.40000  5.12507e-11      1931.64
       996.50000  5.80579e-11      2188.20
       996.60000  5.80579e-11      2188.20
       996.70000  5.80579e-11      2188.20
       996.80000  5.80579e-11      2188.20
       996.90000  5.80579e-11      2188.20
       997.00000  5.80579e-11      2188.20
       997.10000  5.80579e-11      2188.20
       997.20000  5.80579e-11      2188.20
       997.30000  5.80579e-11      2188.20
       997.40000  5.80579e-11      2188.20
       997.50000  4.93061e-11      1858.35
       997.60000  4.93061e-11      1858.35
       997.70000  4.93061e-11      1858.35
       997.80000  4.93061e-11      1858.35
       997.90000  4.93061e-11      1858.35
       998.00000  4.93061e-11      1857.85
       998.10000  4.93061e-11      1857.85
       998.20000  4.93061e-11      1857.36
       998.30000  4.93061e-11      1857.36
       998.40000  4.93061e-11      1856.87
       998.50000  3.72809e-11      1403.62
       998.60000  3.72809e-11      1403.62
       998.70000  3.72809e-11      1403.25
       998.80000  3.67126e-11      1381.86
       998.90000  3.67126e-11      1381.86
       999.00000  3.67126e-11      1381.50
       999.10000  3.67126e-11      1381.50
       999.20000  3.67126e-11      1381.13
       999.30000  3.67126e-11      1381.13
       999.40000  3.67126e-11      1381.13
       999.50000  4.27030e-11      1606.06
       999.60000  4.27030e-11      1606.06
       999.70000  4.27030e-11      1606.06
       999.80000  4.27030e-11      1606.06
       999.90000  4.27030e-11      1606.06
       1000.0000  4.27030e-11      1605.63
       1000.1000  4.27030e-11      1605.63
       1000.2000  4.27030e-11      1605.63
       1000.3000  4.27030e-11      1605.63
       1000.4000  4.27030e-11      1605.63
       1000.5000  3.50869e-11      1319.27
       1000.6000  3.50869e-11      1319.27
       1000.7000  3.50869e-11      1319.27
       1000.8000  3.50869e-11      1319.27
       1000.9000  3.50869e-11      1319.27
       1001.0000  3.50869e-11      1319.27
       1001.1000  3.50869e-11      1319.27
       1001.2000  3.50869e-11      1319.62
       1001.3000  3.45690e-11      1300.14
       1001.4000  3.45690e-11      1300.14
       1001.5000  4.16494e-11      1566.44
       1001.6000  4.16494e-11      1566.44
       1001.7000  4.16494e-11      1566.85
       1001.8000  4.16494e-11      1566.85
       1001.9000  4.16494e-11      1566.85
       1002.0000  4.16494e-11      1567.27
       1002.1000  4.16494e-11      1564.77
       1002.2000  4.16494e-11      1562.27
       1002.3000  4.16494e-11      1560.19
       1002.4000  4.16494e-11      1557.69
       1002.5000  4.59864e-11      1717.59
       1002.6000  4.59864e-11      1714.83
       1002.7000  4.59864e-11      1712.53
       1002.8000  4.59864e-11      1710.24
       1002.9000  4.59864e-11      1707.94
       1003.0000  4.59864e-11      1705.64
       1003.1000  4.59864e-11      1703.34
       1003.2000  4.59864e-11      1701.04
       1003.3000  4.59864e-11      1699.20
       1003.4000  4.59864e-11      1696.90
       1003.5000  4.84429e-11      1785.61
       1003.6000  4.84429e-11      1783.67
       1003.7000  4.84429e-11      1781.25
       1003.8000  4.77831e-11      1755.07
       1003.9000  4.77831e-11      1753.16
       1004.0000  4.77831e-11      1751.25
       1004.1000  4.77831e-11      1748.38
       1004.2000  4.77831e-11      1745.04
       1004.3000  4.77831e-11      1742.65
       1004.4000  4.77831e-11      1739.78
       1004.5000  3.40915e-11      1239.57
       1004.6000  3.40915e-11      1237.86
       1004.7000  3.40915e-11      1236.50
       1004.8000  3.40915e-11      1235.13
       1004.9000  3.40915e-11      1234.11
       1005.0000  3.40915e-11      1233.09
       1005.1000  3.40915e-11      1232.07
       1005.2000  3.40915e-11      1231.38
       1005.3000  3.40915e-11      1230.70
       1005.4000  3.40915e-11      1230.36
       1005.5000  3.78433e-11      1365.39
       1005.6000  3.78433e-11      1365.01
       1005.7000  3.78433e-11      1365.01
       1005.8000  3.78433e-11      1365.39
       1005.9000  3.78433e-11      1365.39
       1006.0000  3.78433e-11      1365.77
       1006.1000  3.78433e-11      1366.52
       1006.2000  3.78433e-11      1367.28
       1006.3000  3.73619e-11      1350.63
       1006.4000  3.73619e-11      1351.75
       1006.5000  2.84947e-11      1031.79
       1006.6000  2.84947e-11      1032.93
       1006.7000  2.84947e-11      1034.07
       1006.8000  2.84947e-11      1035.21
       1006.9000  2.84947e-11      1036.64
       1007.0000  2.84947e-11      1038.06
       1007.1000  2.84947e-11      1039.77
       1007.2000  2.84947e-11      1041.48
       1007.3000  2.84947e-11      1043.19
       1007.4000  2.84947e-11      1045.19
       1007.5000  2.91499e-11      1071.26
       1007.6000  2.91499e-11      1073.59
       1007.7000  2.91499e-11      1075.92
       1007.8000  2.91499e-11      1078.26
       1007.9000  2.91499e-11      1080.88
       1008.0000  2.91499e-11      1083.50
       1008.1000  2.91499e-11      1083.79
       1008.2000  2.91499e-11      1083.79
       1008.3000  2.91499e-11      1083.79
       1008.4000  2.91499e-11      1083.79
       1008.5000  3.00816e-11      1118.43
       1008.6000  3.00816e-11      1118.43
       1008.7000  3.00816e-11      1118.43
       1008.8000  2.97296e-11      1105.34
       1008.9000  2.97296e-11      1105.34
       1009.0000  2.97296e-11      1105.05
       1009.1000  2.97296e-11      1105.05
       1009.2000  2.97296e-11      1105.05
       1009.3000  2.97296e-11      1105.05
       1009.4000  2.97296e-11      1104.75
       1009.5000  3.71481e-11      1380.42
       1009.6000  3.71481e-11      1380.42
       1009.7000  3.71481e-11      1380.05
       1009.8000  3.71481e-11      1380.05
       1009.9000  3.71481e-11      1379.68
       1010.0000  3.71481e-11      1379.68
       1010.1000  3.71481e-11      1379.31
       1010.2000  3.71481e-11      1378.94
       1010.3000  3.71481e-11      1378.56
       1010.4000  3.71481e-11      1378.19
       1010.5000  3.84264e-11      1425.23
       1010.6000  3.84264e-11      1424.85
       1010.7000  3.84264e-11      1424.47
       1010.8000  3.84264e-11      1424.08
       1010.9000  3.84264e-11      1423.70
       1011.0000  3.84264e-11      1423.31
       1011.1000  3.84264e-11      1423.31
       1011.2000  3.84264e-11      1422.93
       1011.3000  3.80025e-11      1406.85
       1011.4000  3.80025e-11      1406.47
       1011.5000  3.38507e-11      1252.48
       1011.6000  3.38507e-11      1252.14
       1011.7000  3.38507e-11      1251.80
       1011.8000  3.38507e-11      1251.46
       1011.9000  3.38507e-11      1251.12
       1012.0000  3.38507e-11      1250.78
       1012.1000  3.38507e-11      1250.45
       1012.2000  3.38507e-11      1250.11
       1012.3000  3.38507e-11      1249.77
       1012.4000  3.38507e-11      1249.43
       1012.5000  4.75276e-11      1753.77
       1012.6000  4.75276e-11      1753.29
       1012.7000  4.75276e-11      1752.82
       1012.8000  4.75276e-11      1752.34
       1012.9000  4.75276e-11      1752.34
       1013.0000  4.75276e-11      1751.87
       1013.1000  4.75276e-11      1751.39
       1013.2000  4.75276e-11      1750.92
       1013.3000  4.75276e-11      1750.44
       1013.4000  4.75276e-11      1749.97
       1013.5000  2.59781e-11      956.254
       1013.6000  2.59781e-11      955.994
       1013.7000  2.59781e-11      955.735
       1013.8000  2.57110e-11      945.649
       1013.9000  2.57110e-11      945.392
       1014.0000  2.57110e-11      945.135
       1014.1000  2.57110e-11      944.621
       1014.2000  2.57110e-11      944.107
       1014.3000  2.57110e-11      943.593
       1014.4000  2.57110e-11      943.078
       1014.5000  2.02915e-11      744.088
       1014.6000  2.02915e-11      743.683
       1014.7000  2.02915e-11      743.277
       1014.8000  2.02915e-11      743.074
       1014.9000  2.02915e-11      742.668
       1015.0000  2.02915e-11      742.465
       1015.1000  2.02915e-11      742.059
       1015.2000  2.02915e-11      741.856
       1015.3000  2.02915e-11      741.653
       1015.4000  2.02915e-11      741.248
       1015.5000  2.45638e-11      897.069
       1015.6000  2.45638e-11      896.823
       1015.7000  2.45638e-11      896.577
       1015.8000  2.45638e-11      896.332
       1015.9000  2.45638e-11      896.086
       1016.0000  2.45638e-11      895.840
       1016.1000  2.45638e-11      895.840
       1016.2000  2.45638e-11      895.840
       1016.3000  2.43303e-11      887.328
       1016.4000  2.43303e-11      887.084
       1016.5000  2.48858e-11      907.336
       1016.6000  2.48858e-11      907.336
       1016.7000  2.48858e-11      907.336
       1016.8000  2.48858e-11      907.087
       1016.9000  2.48858e-11      907.087
       1017.0000  2.48858e-11      906.839
       1017.1000  2.48858e-11      906.839
       1017.2000  2.48858e-11      906.590
       1017.3000  2.48858e-11      906.590
       1017.4000  2.48858e-11      906.341
       1017.5000  2.85948e-11      1041.42
       1017.6000  2.85948e-11      1041.14
       1017.7000  2.85948e-11      1040.85
       1017.8000  2.85948e-11      1040.56
       1017.9000  2.85948e-11      1040.28
       1018.0000  2.85948e-11      1040.28
       1018.1000  2.85948e-11      1039.71
       1018.2000  2.85948e-11      1039.13
       1018.3000  2.85948e-11      1038.56
       1018.4000  2.85948e-11      1037.99
       1018.5000  2.39432e-11      868.897
       1018.6000  2.39432e-11      868.418
       1018.7000  2.39432e-11      868.179
       1018.8000  2.37239e-11      859.754
       1018.9000  2.37239e-11      859.517
       1019.0000  2.37239e-11      859.043
       1019.1000  2.37239e-11      858.806
       1019.2000  2.37239e-11      858.568
       1019.3000  2.37239e-11      858.331
       1019.4000  2.37239e-11      857.857
       1019.5000  2.21742e-11      801.597
       1019.6000  2.21742e-11      801.375
       1019.7000  2.21742e-11      801.153
       1019.8000  2.21742e-11      801.153
       1019.9000  2.21742e-11      800.931
       1020.0000  2.21742e-11      800.710
       1020.1000  2.21742e-11      800.488
       1020.2000  2.21742e-11      800.266
       1020.3000  2.21742e-11      800.266
       1020.4000  2.21742e-11      800.044
       1020.5000  2.05182e-11      740.295
       1020.6000  2.05182e-11      740.090
       1020.7000  2.05182e-11      740.090
       1020.8000  2.05182e-11      739.885
       1020.9000  2.05182e-11      739.885
       1021.0000  2.05182e-11      739.885
       1021.1000  2.05182e-11      739.885
       1021.2000  2.05182e-11      739.885
       1021.3000  2.03657e-11      734.388
       1021.4000  2.03657e-11      734.388
       1021.5000  1.80310e-11      650.198
       1021.6000  1.80310e-11      650.198
       1021.7000  1.80310e-11      650.198
       1021.8000  1.80310e-11      650.378
       1021.9000  1.80310e-11      650.378
       1022.0000  1.80310e-11      650.558
       1022.1000  1.80310e-11      650.558
       1022.2000  1.80310e-11      650.739
       1022.3000  1.80310e-11      650.919
       1022.4000  1.80310e-11      650.919
       1022.5000  1.80513e-11      651.831
       1022.6000  1.80513e-11      652.012
       1022.7000  1.80513e-11      652.192
       1022.8000  1.80513e-11      652.373
       1022.9000  1.80513e-11      652.553
       1023.0000  1.80513e-11      652.734
       1023.1000  1.80513e-11      653.095
       1023.2000  1.80513e-11      653.275
       1023.3000  1.80513e-11      653.456
       1023.4000  1.80513e-11      653.817
       1023.5000  2.29270e-11      830.646
       1023.6000  2.29270e-11      831.104
       1023.7000  2.29270e-11      831.334
       1023.8000  2.27832e-11      826.573
       1023.9000  2.27832e-11      827.028
       1024.0000  2.27832e-11      827.484
       1024.1000  2.27832e-11      827.484
       1024.2000  2.27832e-11      827.256
       1024.3000  2.27832e-11      827.256
       1024.4000  2.27832e-11      827.256
       1024.5000  2.19924e-11      798.543
       1024.6000  2.19924e-11      798.323
       1024.7000  2.19924e-11      798.323
       1024.8000  2.19924e-11      798.323
       1024.9000  2.19924e-11      798.103
       1025.0000  2.19924e-11      798.103
       1025.1000  2.19924e-11      798.103
       1025.2000  2.19924e-11      797.883
       1025.3000  2.19924e-11      797.883
       1025.4000  2.19924e-11      797.883
       1025.5000  1.95518e-11      709.143
       1025.6000  1.95518e-11      709.143
       1025.7000  1.95518e-11      708.947
       1025.8000  1.95518e-11      708.947
       1025.9000  1.95518e-11      708.751
       1026.0000  1.95518e-11      708.751
       1026.1000  1.95518e-11      708.751
       1026.2000  1.95518e-11      708.556
       1026.3000  1.94298e-11      704.137
       1026.4000  1.94298e-11      703.943
       1026.5000  1.53884e-11      557.520
       1026.6000  1.53884e-11      557.366
       1026.7000  1.53884e-11      557.212
       1026.8000  1.53884e-11      557.212
       1026.9000  1.53884e-11      557.058
       1027.0000  1.53884e-11      557.058
       1027.1000  1.53884e-11      556.904
       1027.2000  1.53884e-11      556.751
       1027.3000  1.53884e-11      556.751
       1027.4000  1.53884e-11      556.597
       1027.5000  1.68229e-11      608.317
       1027.6000  1.68229e-11      608.317
       1027.7000  1.68229e-11      608.149
       1027.8000  1.68229e-11      607.980
       1027.9000  1.68229e-11      607.812
       1028.0000  1.68229e-11      607.644
       1028.1000  1.68229e-11      607.644
       1028.2000  1.68229e-11      607.476
       1028.3000  1.68229e-11      607.308
       1028.4000  1.68229e-11      607.139
       1028.5000  1.75942e-11      634.798
       1028.6000  1.75942e-11      634.622
       1028.7000  1.75942e-11      634.446
       1028.8000  1.74433e-11      628.831
       1028.9000  1.74433e-11      628.656
       1029.0000  1.74433e-11      628.482
       1029.1000  1.74433e-11      628.307
       1029.2000  1.74433e-11      628.133
       1029.3000  1.74433e-11      627.958
       1029.4000  1.74433e-11      627.784
       1029.5000  1.70304e-11      612.752
       1029.6000  1.70304e-11      612.582
       1029.7000  1.70304e-11      612.412
       1029.8000  1.70304e-11      612.242
       1029.9000  1.70304e-11      612.071
       1030.0000  1.70304e-11      611.731
       1030.1000  1.70304e-11      611.901
       1030.2000  1.70304e-11      611.901
       1030.3000  1.70304e-11      611.901
       1030.4000  1.70304e-11      611.901
       1030.5000  1.79901e-11      646.385
       1030.6000  1.79901e-11      646.385
       1030.7000  1.79901e-11      646.205
       1030.8000  1.79901e-11      646.205
       1030.9000  1.79901e-11      646.205
       1031.0000  1.79901e-11      646.025
       1031.1000  1.79901e-11      646.025
       1031.2000  1.79901e-11      645.845
       1031.3000  1.77453e-11      637.057
       1031.4000  1.77453e-11      636.880
       1031.5000  1.41589e-11      508.022
       1031.6000  1.41589e-11      507.880
       1031.7000  1.41589e-11      507.739
       1031.8000  1.41589e-11      507.597
       1031.9000  1.41589e-11      507.456
       1032.0000  1.41589e-11      507.314
       1032.1000  1.41589e-11      506.889
       1032.2000  1.41589e-11      506.323
       1032.3000  1.41589e-11      505.898
       1032.4000  1.41589e-11      505.615
       1032.5000  1.77880e-11      634.676
       1032.6000  1.77880e-11      634.143
       1032.7000  1.77880e-11      633.787
       1032.8000  1.77880e-11      633.253
       1032.9000  1.77880e-11      632.898
       1033.0000  1.77880e-11      632.542
       1033.1000  1.77880e-11      632.186
       1033.2000  1.77880e-11      632.008
       1033.3000  1.77880e-11      631.652
       1033.4000  1.77880e-11      631.475
       1033.5000  1.69531e-11      601.496
       1033.6000  1.69531e-11      601.327
       1033.7000  1.69531e-11      601.157
       1033.8000  1.66304e-11      589.548
       1033.9000  1.66304e-11      589.548
       1034.0000  1.66304e-11      589.381
       1034.1000  1.66304e-11      589.381
       1034.2000  1.66304e-11      589.215
       1034.3000  1.66304e-11      589.215
       1034.4000  1.66304e-11      589.215
       1034.5000  1.47675e-11      523.211
       1034.6000  1.47675e-11      523.359
       1034.7000  1.47675e-11      523.359
       1034.8000  1.47675e-11      523.506
       1034.9000  1.47675e-11      523.506
       1035.0000  1.47675e-11      523.654
       1035.1000  1.47675e-11      523.802
       1035.2000  1.47675e-11      523.949
       1035.3000  1.47675e-11      524.245
       1035.4000  1.47675e-11      524.392
       1035.5000  1.20817e-11      429.262
       1035.6000  1.20817e-11      429.504
       1035.7000  1.20817e-11      429.625
       1035.8000  1.20817e-11      429.866
       1035.9000  1.20817e-11      430.229
       1036.0000  1.20817e-11      430.470
       1036.1000  1.20817e-11      430.229
       1036.2000  1.20817e-11      429.987
       1036.3000  1.17996e-11      419.711
       1036.4000  1.17996e-11      419.475
       1036.5000  1.05440e-11      374.629
       1036.6000  1.05440e-11      374.418
       1036.7000  1.05440e-11      374.313
       1036.8000  1.05440e-11      374.102
       1036.9000  1.05440e-11      373.891
       1037.0000  1.05440e-11      373.785
       1037.1000  1.05440e-11      373.680
       1037.2000  1.05440e-11      373.469
       1037.3000  1.05440e-11      373.364
       1037.4000  1.05440e-11      373.258
       1037.5000  1.19797e-11      423.961
       1037.6000  1.19797e-11      423.841
       1037.7000  1.19797e-11      423.721
       1037.8000  1.19797e-11      423.602
       1037.9000  1.19797e-11      423.482
       1038.0000  1.19797e-11      423.362
       1038.1000  1.19797e-11      423.362
       1038.2000  1.19797e-11      423.362
       1038.3000  1.19797e-11      423.482
       1038.4000  1.19797e-11      423.482
       1038.5000  1.46485e-11      517.825
       1038.6000  1.46485e-11      517.825
       1038.7000  1.46485e-11      517.825
       1038.8000  1.42674e-11      504.352
       1038.9000  1.42674e-11      504.352
       1039.0000  1.42674e-11      504.352
       1039.1000  1.42674e-11      504.352
       1039.2000  1.42674e-11      504.352
       1039.3000  1.42674e-11      504.352
       1039.4000  1.42674e-11      504.352
       1039.5000  1.13059e-11      399.663
       1039.6000  1.13059e-11      399.663
       1039.7000  1.13059e-11      399.663
       1039.8000  1.13059e-11      399.663
       1039.9000  1.13059e-11      399.663
       1040.0000  1.13059e-11      399.663
       1040.1000  1.13059e-11      399.663
       1040.2000  1.13059e-11      399.663
       1040.3000  1.13059e-11      399.663
       1040.4000  1.13059e-11      399.663
       1040.5000  1.01504e-11      358.816
       1040.6000  1.01504e-11      358.816
       1040.7000  1.01504e-11      358.816
       1040.8000  1.01504e-11      358.816
       1040.9000  1.01504e-11      358.816
       1041.0000  1.01504e-11      358.816
       1041.1000  1.01504e-11      358.816
       1041.2000  1.01504e-11      358.816
       1041.3000  9.85967e-12      348.539
       1041.4000  9.85967e-12      348.539
       1041.5000  8.64770e-12      305.696
       1041.6000  8.64770e-12      305.696
       1041.7000  8.64770e-12      305.696
       1041.8000  8.64770e-12      305.610
       1041.9000  8.64770e-12      305.610
       1042.0000  8.64770e-12      305.610
       1042.1000  8.64770e-12      305.696
       1042.2000  8.64770e-12      305.696
       1042.3000  8.64770e-12      305.783
       1042.4000  8.64770e-12      305.783
       1042.5000  5.62817e-12      199.012
       1042.6000  5.62817e-12      199.012
       1042.7000  5.62817e-12      199.012
       1042.8000  5.62817e-12      198.956
       1042.9000  5.62817e-12      198.956
       1043.0000  5.62817e-12      198.956
       1043.1000  5.62817e-12      198.900
       1043.2000  5.62817e-12      198.843
       1043.3000  5.62817e-12      198.843
       1043.4000  5.62817e-12      198.787
       1043.5000  1.08117e-11      381.761
       1043.6000  1.08117e-11      381.653
       1043.7000  1.08117e-11      381.545
       1043.8000  1.05024e-11      370.420
       1043.9000  1.05024e-11      370.315
       1044.0000  1.05024e-11      370.105
       1044.1000  1.05024e-11      369.685
       1044.2000  1.05024e-11      369.160
       1044.3000  1.05024e-11      368.740
       1044.4000  1.05024e-11      368.320
       1044.5000  7.97770e-12      279.459
       1044.6000  7.97770e-12      279.220
       1044.7000  7.97770e-12      278.900
       1044.8000  7.97770e-12      278.661
       1044.9000  7.97770e-12      278.422
       1045.0000  7.97770e-12      278.182
       1045.1000  7.97770e-12      278.023
       1045.2000  7.97770e-12      277.784
       1045.3000  7.97770e-12      277.624
       1045.4000  7.97770e-12      277.464
       1045.5000  6.22587e-12      216.473
       1045.6000  6.22587e-12      216.349
       1045.7000  6.22587e-12      216.287
       1045.8000  6.22587e-12      216.224
       1045.9000  6.22587e-12      216.162
       1046.0000  6.22587e-12      216.100
       1046.1000  6.22587e-12      216.100
       1046.2000  6.22587e-12      216.038
       1046.3000  6.04913e-12      209.905
       1046.4000  6.04913e-12      209.905
       1046.5000  5.37884e-12      186.700
       1046.6000  5.37884e-12      186.700
       1046.7000  5.37884e-12      186.753
       1046.8000  5.37884e-12      186.807
       1046.9000  5.37884e-12      186.861
       1047.0000  5.37884e-12      186.969
       1047.1000  5.37884e-12      187.022
       1047.2000  5.37884e-12      187.130
       1047.3000  5.37884e-12      187.237
       1047.4000  5.37884e-12      187.345
       1047.5000  5.19650e-12      181.150
       1047.6000  5.19650e-12      181.254
       1047.7000  5.19650e-12      181.410
       1047.8000  5.19650e-12      181.566
       1047.9000  5.19650e-12      181.722
       1048.0000  5.19650e-12      181.930
       1048.1000  5.19650e-12      181.930
       1048.2000  5.19650e-12      181.930
       1048.3000  5.19650e-12      181.930
       1048.4000  5.19650e-12      181.878
       1048.5000  6.43227e-12      225.130
       1048.6000  6.43227e-12      225.130
       1048.7000  6.43227e-12      225.130
       1048.8000  6.26405e-12      219.242
       1048.9000  6.26405e-12      219.242
       1049.0000  6.26405e-12      219.179
       1049.1000  6.26405e-12      219.179
       1049.2000  6.26405e-12      219.179
       1049.3000  6.26405e-12      219.116
       1049.4000  6.26405e-12      219.116
       1049.5000  5.82850e-12      203.881
       1049.6000  5.82850e-12      203.822
       1049.7000  5.82850e-12      203.822
       1049.8000  5.82850e-12      203.822
       1049.9000  5.82850e-12      203.764
       1050.0000  5.82850e-12      203.764
       1050.1000  5.82850e-12      203.706
       1050.2000  5.82850e-12      203.706
       1050.3000  5.82850e-12      203.648
       1050.4000  5.82850e-12      203.589
       1050.5000  3.38924e-12      118.386
       1050.6000  3.38924e-12      118.352
       1050.7000  3.38924e-12      118.352
       1050.8000  3.38924e-12      118.318
       1050.9000  3.38924e-12      118.284
       1051.0000  3.38924e-12      118.284
       1051.1000  3.38924e-12      118.251
       1051.2000  3.38924e-12      118.251
       1051.3000  3.31340e-12      115.571
       1051.4000  3.31340e-12      115.538
       1051.5000  3.03169e-12      105.715
       1051.6000  3.03169e-12      105.685
       1051.7000  3.03169e-12      105.654
       1051.8000  3.03169e-12      105.654
       1051.9000  3.03169e-12      105.624
       1052.0000  3.03169e-12      105.624
       1052.1000  3.03169e-12      105.594
       1052.2000  3.03169e-12      105.563
       1052.3000  3.03169e-12      105.563
       1052.4000  3.03169e-12      105.533
       1052.5000  2.82951e-12      98.4671
       1052.6000  2.82951e-12      98.4671
       1052.7000  2.82951e-12      98.4388
       1052.8000  2.82951e-12      98.4105
       1052.9000  2.82951e-12      98.4105
       1053.0000  2.82951e-12      98.3822
       1053.1000  2.82951e-12      98.3822
       1053.2000  2.82951e-12      98.3539
       1053.3000  2.82951e-12      98.3256
       1053.4000  2.82951e-12      98.3256
       1053.5000  2.56731e-12      89.1882
       1053.6000  2.56731e-12      89.1625
       1053.7000  2.56731e-12      89.1625
       1053.8000  2.51935e-12      87.4719
       1053.9000  2.51935e-12      87.4467
       1054.0000  2.51935e-12      87.4467
       1054.1000  2.51935e-12      87.4971
       1054.2000  2.51935e-12      87.5223
       1054.3000  2.51935e-12      87.5727
       1054.4000  2.51935e-12      87.6230
       1054.5000  1.50511e-12      52.3628
       1054.6000  1.50511e-12      52.3778
       1054.7000  1.50511e-12      52.3929
       1054.8000  1.50511e-12      52.4079
       1054.9000  1.50511e-12      52.4230
       1055.0000  1.50511e-12      52.4380
       1055.1000  1.50511e-12      52.4380
       1055.2000  1.50511e-12      52.4380
       1055.3000  1.50511e-12      52.4531
       1055.4000  1.50511e-12      52.4531
       1055.5000  1.63867e-12      57.0914
       1055.6000  1.63867e-12      57.0914
       1055.7000  1.63867e-12      57.0914
       1055.8000  1.63867e-12      57.0750
       1055.9000  1.63867e-12      57.0586
       1056.0000  1.63867e-12      57.0422
       1056.1000  1.63867e-12      56.9931
       1056.2000  1.63867e-12      56.9439
       1056.3000  1.60879e-12      55.8571
       1056.4000  1.60879e-12      55.7928
       1056.5000  7.07538e-13      24.5162
       1056.6000  7.07538e-13      24.5020
       1056.7000  7.07538e-13      24.4808
       1056.8000  7.07538e-13      24.4596
       1056.9000  7.07538e-13      24.4383
       1057.0000  7.07538e-13      24.4242
