PDS_VERSION_ID         = PDS3
RECORD_TYPE            = STREAM
OBJECT                 = TEXT
  PUBLICATION_DATE     = 2014-04-25
  INTERCHANGE_FORMAT   = ASCII
  NOTE                 = "System transmission vs. wavelength."
END_OBJECT             = TEXT
END
    
The systrans directory contains the non-wavelength-integrated system 
transmission values (QE*optics*filter1*filter2) for each filter combination. 
The naming convention for these files is as follows:

<camera><filter 1><filter 2>_systrans.tab

where <camera> is "issna" or "isswa," and <filter 1> and <filter 2> represent
the filter names. For polarized filter combinations, values are given for the
parallel orientation of the filter (full transmission), with values for the 
perpendicular (blocking) orientation provided in files with subscript 
"_b_systrans.tab". 

Columns in systrans files are as follows:

 1st column: Wavelength (nm)  
 2nd column: Transmitted Flux
 3rd column: Transmitted Flux * Solar Flux (phot per cm^2-s-angstrom at 1 AU)

The solar spectrum used for this calculation is provided in solarflux.tab.

\begindata
       659.00000  1.52842e-09      78438.3
       659.10000  1.52842e-09      78682.9
       659.20000  1.52842e-09      78912.1
       659.30000  1.52842e-09      79110.8
       659.40000  1.52842e-09      79294.2
       659.50000  1.41170e-09      73394.3
       659.60000  1.41170e-09      73535.5
       659.70000  1.41170e-09      73648.4
       659.80000  1.41170e-09      73761.4
       659.90000  1.41170e-09      73846.0
       660.00000  1.41170e-09      73916.6
       660.10000  1.41170e-09      73973.1
       660.20000  1.41170e-09      74001.3
       660.30000  1.41170e-09      74029.6
       660.40000  1.41170e-09      74029.6
       660.50000  9.41706e-10      49373.7
       660.60000  9.41706e-10      49354.8
       660.70000  9.41706e-10      49326.6
       660.80000  9.41706e-10      49279.5
       660.90000  9.41706e-10      49232.4
       661.00000  9.41706e-10      49166.5
       661.10000  9.41706e-10      49138.2
       661.20000  9.41706e-10      49100.6
       661.30000  9.34811e-10      48713.0
       661.40000  9.34811e-10      48685.0
       661.50000  6.31380e-10      32863.3
       661.60000  6.31380e-10      32850.7
       661.70000  6.31380e-10      32831.7
       661.80000  6.31380e-10      32819.1
       661.90000  6.31380e-10      32806.5
       662.00000  6.31380e-10      32793.9
       662.10000  6.31380e-10      32781.2
       662.20000  6.31380e-10      32768.6
       662.30000  6.31380e-10      32762.3
       662.40000  6.31380e-10      32756.0
       662.50000  7.48731e-10      38829.2
       662.60000  7.48731e-10      38829.2
       662.70000  7.48731e-10      38821.7
       662.80000  7.48731e-10      38814.2
       662.90000  7.48731e-10      38814.2
       663.00000  7.48731e-10      38814.2
       663.10000  7.48731e-10      38844.2
       663.20000  7.48731e-10      38866.6
       663.30000  7.48731e-10      38896.6
       663.40000  7.48731e-10      38919.1
       663.50000  8.19420e-10      42618.0
       663.60000  8.19420e-10      42642.6
       663.70000  8.19420e-10      42659.0
       663.80000  8.12681e-10      42332.6
       663.90000  8.12681e-10      42348.8
       664.00000  8.12681e-10      42357.0
       664.10000  8.12681e-10      42373.2
       664.20000  8.12681e-10      42381.3
       664.30000  8.12681e-10      42389.5
       664.40000  8.12681e-10      42397.6
       664.50000  2.78804e-10      14545.2
       664.60000  2.78804e-10      14545.2
       664.70000  2.78804e-10      14545.2
       664.80000  2.78804e-10      14545.2
       664.90000  2.78804e-10      14545.2
       665.00000  2.78804e-10      14542.4
       665.10000  2.78804e-10      14539.7
       665.20000  2.78804e-10      14536.9
       665.30000  2.78804e-10      14531.3
       665.40000  2.78804e-10      14525.7
       665.50000  1.23945e-10      6455.06
       665.60000  1.23945e-10      6452.58
       665.70000  1.23945e-10      6448.86
       665.80000  1.23945e-10      6446.38
       665.90000  1.23945e-10      6442.66
       666.00000  1.23945e-10      6437.71
       666.10000  1.23945e-10      6433.99
       666.20000  1.23945e-10      6429.03
       666.30000  1.23144e-10      6382.55
       666.40000  1.23144e-10      6377.62
       666.50000  3.46657e-10      17936.0
       666.60000  3.46657e-10      17918.7
       666.70000  3.46657e-10      17901.4
       666.80000  3.46657e-10      17884.0
       666.90000  3.46657e-10      17866.7
       667.00000  3.46657e-10      17845.9
       667.10000  3.46657e-10      17866.7
       667.20000  3.46657e-10      17884.0
       667.30000  3.46657e-10      17901.4
       667.40000  3.46657e-10      17918.7
       667.50000  4.62494e-10      23929.4
       667.60000  4.62494e-10      23947.9
       667.70000  4.62494e-10      23966.4
       667.80000  4.62494e-10      23980.3
       667.90000  4.62494e-10      23994.2
       668.00000  4.62494e-10      24008.0
       668.10000  4.62494e-10      24021.9
       668.20000  4.62494e-10      24031.2
       668.30000  4.62494e-10      24040.4
       668.40000  4.62494e-10      24045.0
       668.50000  2.77664e-10      14438.5
       668.60000  2.77664e-10      14441.3
       668.70000  2.77664e-10      14441.3
       668.80000  2.76070e-10      14358.4
       668.90000  2.76070e-10      14358.4
       669.00000  2.76070e-10      14355.7
       669.10000  2.76070e-10      14336.3
       669.20000  2.76070e-10      14317.0
       669.30000  2.76070e-10      14300.5
       669.40000  2.76070e-10      14283.9
       669.50000  2.76233e-10      14275.7
       669.60000  2.76233e-10      14259.1
       669.70000  2.76233e-10      14245.3
       669.80000  2.76233e-10      14231.5
       669.90000  2.76233e-10      14217.7
       670.00000  2.76233e-10      14206.7
       670.10000  2.76233e-10      14195.6
       670.20000  2.76233e-10      14184.6
       670.30000  2.76233e-10      14173.5
       670.40000  2.76233e-10      14165.2
       670.50000  1.38198e-10      7082.62
       670.60000  1.38198e-10      7078.48
       670.70000  1.38198e-10      7075.71
       670.80000  1.38198e-10      7072.95
       670.90000  1.38198e-10      7070.19
       671.00000  1.38198e-10      7068.80
       671.10000  1.38198e-10      7066.04
       671.20000  1.38198e-10      7066.04
       671.30000  1.37415e-10      7024.63
       671.40000  1.37415e-10      7024.63
       671.50000  1.37497e-10      7028.86
       671.60000  1.37497e-10      7028.86
       671.70000  1.37497e-10      7028.86
       671.80000  1.37497e-10      7030.24
       671.90000  1.37497e-10      7031.61
       672.00000  1.37497e-10      7034.36
       672.10000  1.37497e-10      7037.11
       672.20000  1.37497e-10      7039.86
       672.30000  1.37497e-10      7042.61
       672.40000  1.37497e-10      7046.74
       672.50000  1.37577e-10      7054.97
       672.60000  1.37577e-10      7059.09
       672.70000  1.37577e-10      7063.22
       672.80000  1.37577e-10      7068.72
       672.90000  1.37577e-10      7074.23
       673.00000  1.37577e-10      7081.10
       673.10000  1.37577e-10      7078.35
       673.20000  1.37577e-10      7075.60
       673.30000  1.37577e-10      7072.85
       673.40000  1.37577e-10      7071.47
       673.50000  1.83550e-10      9430.82
       673.60000  1.83550e-10      9428.99
       673.70000  1.83550e-10      9427.15
       673.80000  1.82409e-10      9364.85
       673.90000  1.82409e-10      9363.03
       674.00000  1.82409e-10      9361.21
       674.10000  1.82409e-10      9359.38
       674.20000  1.82409e-10      9357.56
       674.30000  1.82409e-10      9355.73
       674.40000  1.82409e-10      9353.91
       674.50000  1.36885e-10      7018.07
       674.60000  1.36885e-10      7018.07
       674.70000  1.36885e-10      7016.70
       674.80000  1.36885e-10      7016.70
       674.90000  1.36885e-10      7015.33
       675.00000  1.36885e-10      7015.33
       675.10000  1.36885e-10      7016.70
       675.20000  1.36885e-10      7018.07
       675.30000  1.36885e-10      7019.44
       675.40000  1.36885e-10      7020.81
       675.50000  2.29944e-11      1179.38
       675.60000  2.29944e-11      1179.61
       675.70000  2.29944e-11      1179.84
       675.80000  2.29944e-11      1179.84
       675.90000  2.29944e-11      1180.07
       676.00000  2.29944e-11      1180.07
       676.10000  2.29944e-11      1180.30
       676.20000  2.29944e-11      1180.30
       676.30000  2.28206e-11      1171.38
       676.40000  2.28206e-11      1171.38
       676.50000  1.36013e-10      6982.91
       676.60000  1.36013e-10      6982.91
       676.70000  1.36013e-10      6982.91
       676.80000  1.36013e-10      6981.55
       676.90000  1.36013e-10      6981.55
       677.00000  1.36013e-10      6981.55
       677.10000  1.36013e-10      6981.55
       677.20000  1.36013e-10      6980.19
       677.30000  1.36013e-10      6980.19
       677.40000  1.36013e-10      6978.83
       677.50000  1.36095e-10      6983.02
       677.60000  1.36095e-10      6981.66
       677.70000  1.36095e-10      6981.66
       677.80000  1.36095e-10      6980.30
       677.90000  1.36095e-10      6978.94
       678.00000  1.36095e-10      6977.58
       678.10000  1.36095e-10      6976.21
       678.20000  1.36095e-10      6974.85
       678.30000  1.36095e-10      6973.49
       678.40000  1.36095e-10      6972.13
       678.50000  4.53907e-11      2324.46
       678.60000  4.53907e-11      2324.01
       678.70000  4.53907e-11      2323.55
       678.80000  4.50486e-11      2305.14
       678.90000  4.50486e-11      2304.69
       679.00000  4.50486e-11      2303.79
       679.10000  4.50486e-11      2303.79
       679.20000  4.50486e-11      2304.24
       679.30000  4.50486e-11      2304.24
       679.40000  4.50486e-11      2304.24
       679.50000  9.01486e-11      4611.10
       679.60000  9.01486e-11      4611.10
       679.70000  9.01486e-11      4611.10
       679.80000  9.01486e-11      4611.10
       679.90000  9.01486e-11      4611.10
       680.00000  9.01486e-11      4610.20
       680.10000  9.01486e-11      4610.20
       680.20000  9.01486e-11      4610.20
       680.30000  9.01486e-11      4609.30
       680.40000  9.01486e-11      4609.30
       680.50000  6.76499e-11      3458.26
       680.60000  6.76499e-11      3458.26
       680.70000  6.76499e-11      3457.59
       680.80000  6.76499e-11      3456.91
       680.90000  6.76499e-11      3456.23
       681.00000  6.76499e-11      3456.23
       681.10000  6.76499e-11      3455.56
       681.20000  6.76499e-11      3454.88
       681.30000  6.70787e-11      3425.71
       681.40000  6.70787e-11      3425.04
       681.50000  8.94784e-11      4567.87
       681.60000  8.94784e-11      4566.98
       681.70000  8.94784e-11      4566.08
       681.80000  8.94784e-11      4564.30
       681.90000  8.94784e-11      4563.40
       682.00000  8.94784e-11      4562.51
       682.10000  8.94784e-11      4560.72
       682.20000  8.94784e-11      4558.93
       682.30000  8.94784e-11      4558.03
       682.40000  8.94784e-11      4556.24
       682.50000  1.06078e-11      539.938
       682.60000  1.06078e-11      539.726
       682.70000  1.06078e-11      539.514
       682.80000  1.06078e-11      539.302
       682.90000  1.06078e-11      538.984
       683.00000  1.06078e-11      538.771
       683.10000  1.06078e-11      538.559
       683.20000  1.06078e-11      538.241
       683.30000  1.06078e-11      537.923
       683.40000  1.06078e-11      537.604
       683.50000  6.71731e-11      3402.99
       683.60000  6.71731e-11      3400.97
       683.70000  6.71731e-11      3398.96
       683.80000  6.65353e-11      3364.02
       683.90000  6.65353e-11      3362.03
       684.00000  6.65353e-11      3360.03
       684.10000  6.65353e-11      3357.37
       684.20000  6.65353e-11      3355.37
       684.30000  6.65353e-11      3352.71
       684.40000  6.65353e-11      3350.72
       684.50000  8.87535e-11      4466.07
       684.60000  8.87535e-11      4462.52
       684.70000  8.87535e-11      4458.97
       684.80000  8.87535e-11      4455.42
       684.90000  8.87535e-11      4450.99
       685.00000  8.87535e-11      4447.44
       685.10000  8.87535e-11      4450.99
       685.20000  8.87535e-11      4455.42
       685.30000  8.87535e-11      4458.97
       685.40000  8.87535e-11      4461.64
       685.50000  8.87955e-11      4467.30
       685.60000  8.87955e-11      4470.85
       685.70000  8.87955e-11      4473.51
       685.80000  8.87955e-11      4476.18
       685.90000  8.87955e-11      4478.84
       686.00000  8.87955e-11      4481.51
       686.10000  8.87955e-11      4484.17
       686.20000  8.87955e-11      4485.95
       686.30000  8.79568e-11      4446.22
       686.40000  8.79568e-11      4447.98
       686.50000  1.40891e-10      7127.66
       686.60000  1.40891e-10      7130.48
       686.70000  1.40891e-10      7133.29
       686.80000  1.40891e-10      7134.70
       686.90000  1.40891e-10      7137.52
       687.00000  1.40891e-10      7138.93
       687.10000  1.40891e-10      7140.34
       687.20000  1.40891e-10      7140.34
       687.30000  1.40891e-10      7140.34
       687.40000  1.40891e-10      7140.34
       687.50000  5.93203e-11      3006.35
       687.60000  5.93203e-11      3006.35
       687.70000  5.93203e-11      3006.35
       687.80000  5.93203e-11      3006.35
       687.90000  5.93203e-11      3006.35
       688.00000  5.93203e-11      3005.76
       688.10000  5.93203e-11      3005.76
       688.20000  5.93203e-11      3005.76
       688.30000  5.93203e-11      3005.17
       688.40000  5.93203e-11      3005.17
       688.50000  1.32118e-11      669.180
       688.60000  1.32118e-11      669.048
       688.70000  1.32118e-11      669.048
       688.80000  1.31034e-11      663.424
       688.90000  1.31034e-11      663.293
       689.00000  1.31034e-11      663.162
       689.10000  1.31034e-11      663.031
       689.20000  1.31034e-11      662.900
       689.30000  1.31034e-11      662.769
       689.40000  1.31034e-11      662.638
       689.50000  5.17326e-11      2615.60
       689.60000  5.17326e-11      2615.08
       689.70000  5.17326e-11      2614.05
       689.80000  5.17326e-11      2613.53
       689.90000  5.17326e-11      2613.01
       690.00000  5.17326e-11      2611.98
       690.10000  5.17326e-11      2610.94
       690.20000  5.17326e-11      2610.43
       690.30000  5.17326e-11      2609.39
       690.40000  5.17326e-11      2608.36
       690.50000  4.91729e-11      2478.81
       690.60000  4.91729e-11      2477.82
       690.70000  4.91729e-11      2476.84
       690.80000  4.91729e-11      2475.86
       690.90000  4.91729e-11      2474.87
       691.00000  4.91729e-11      2473.89
       691.10000  4.91729e-11      2474.87
       691.20000  4.91729e-11      2475.37
       691.30000  4.88005e-11      2457.59
       691.40000  4.88005e-11      2458.08
       691.50000  4.93081e-11      2484.14
       691.60000  4.93081e-11      2485.13
       691.70000  4.93081e-11      2485.62
       691.80000  4.93081e-11      2486.11
       691.90000  4.93081e-11      2486.61
       692.00000  4.93081e-11      2486.61
       692.10000  4.93081e-11      2487.10
       692.20000  4.93081e-11      2487.59
       692.30000  4.93081e-11      2487.59
       692.40000  4.93081e-11      2487.59
       692.50000  5.00375e-11      2524.89
       692.60000  5.00375e-11      2524.89
       692.70000  5.00375e-11      2524.89
       692.80000  5.00375e-11      2524.89
       692.90000  5.00375e-11      2524.89
       693.00000  5.00375e-11      2524.39
       693.10000  5.00375e-11      2524.39
       693.20000  5.00375e-11      2523.89
       693.30000  5.00375e-11      2523.39
       693.40000  5.00375e-11      2522.89
       693.50000  6.22188e-11      3136.45
       693.60000  6.22188e-11      3135.83
       693.70000  6.22188e-11      3135.20
       693.80000  6.17896e-11      3112.96
       693.90000  6.17896e-11      3111.73
       694.00000  6.17896e-11      3111.11
       694.10000  6.17896e-11      3110.49
       694.20000  6.17896e-11      3109.25
       694.30000  6.17896e-11      3108.64
       694.40000  6.17896e-11      3107.40
       694.50000  4.74717e-11      2386.40
       694.60000  4.74717e-11      2385.93
       694.70000  4.74717e-11      2384.98
       694.80000  4.74717e-11      2384.03
       694.90000  4.74717e-11      2383.08
       695.00000  4.74717e-11      2382.13
       695.10000  4.74717e-11      2381.18
       695.20000  4.74717e-11      2380.23
       695.30000  4.74717e-11      2378.81
       695.40000  4.74717e-11      2377.86
       695.50000  2.80659e-11      1405.26
       695.60000  2.80659e-11      1404.42
       695.70000  2.80659e-11      1403.86
       695.80000  2.80659e-11      1403.01
       695.90000  2.80659e-11      1402.17
       696.00000  2.80659e-11      1401.61
       696.10000  2.80659e-11      1400.77
       696.20000  2.80659e-11      1399.93
       696.30000  2.79017e-11      1390.90
       696.40000  2.79017e-11      1390.06
       696.50000  1.40422e-11      699.162
       696.60000  1.40422e-11      698.740
       696.70000  1.40422e-11      698.179
       696.80000  1.40422e-11      697.757
       696.90000  1.40422e-11      697.336
       697.00000  1.40422e-11      696.775
       697.10000  1.40422e-11      697.757
       697.20000  1.40422e-11      698.460
       697.30000  1.40422e-11      699.302
       697.40000  1.40422e-11      700.004
       697.50000  6.19807e-11      3092.84
       697.60000  6.19807e-11      3095.32
       697.70000  6.19807e-11      3097.80
       697.80000  6.19807e-11      3099.66
       697.90000  6.19807e-11      3101.52
       698.00000  6.19807e-11      3102.76
       698.10000  6.19807e-11      3104.00
       698.20000  6.19807e-11      3105.23
       698.30000  6.19807e-11      3105.85
       698.40000  6.19807e-11      3106.47
       698.50000  3.71867e-11      1864.17
       698.60000  3.71867e-11      1864.17
       698.70000  3.71867e-11      1863.80
       698.80000  3.69587e-11      1852.00
       698.90000  3.69587e-11      1851.63
       699.00000  3.69587e-11      1850.89
       699.10000  3.69587e-11      1847.57
       699.20000  3.69587e-11      1843.87
       699.30000  3.69587e-11      1840.91
       699.40000  3.69587e-11      1837.59
       699.50000  1.18105e-11      586.272
       699.60000  1.18105e-11      585.327
       699.70000  1.18105e-11      584.501
       699.80000  1.18105e-11      583.674
       699.90000  1.18105e-11      582.847
       700.00000  1.18105e-11      582.139
       700.10000  1.18105e-11      581.430
       700.20000  1.18105e-11      580.721
       700.30000  1.18105e-11      580.131
       700.40000  1.18105e-11      579.540
       700.50000  5.21916e-11      2558.43
       700.60000  5.21916e-11      2556.34
       700.70000  5.21916e-11      2554.26
       700.80000  5.21916e-11      2552.69
       700.90000  5.21916e-11      2551.12
       701.00000  5.21916e-11      2549.56
       701.10000  5.21916e-11      2549.04
       701.20000  5.21916e-11      2548.52
       701.30000  5.18049e-11      2529.11
       701.40000  5.18049e-11      2529.11
       701.50000  4.48504e-11      2189.60
       701.60000  4.48504e-11      2189.60
       701.70000  4.48504e-11      2189.60
       701.80000  4.48504e-11      2190.05
       701.90000  4.48504e-11      2190.05
       702.00000  4.48504e-11      2190.49
       702.10000  4.48504e-11      2191.39
       702.20000  4.48504e-11      2191.84
       702.30000  4.48504e-11      2192.74
       702.40000  4.48504e-11      2193.19
       702.50000  9.44159e-12      461.883
       702.60000  9.44159e-12      462.166
       702.70000  9.44159e-12      462.355
       702.80000  9.44159e-12      462.638
       702.90000  9.44159e-12      462.921
       703.00000  9.44159e-12      463.204
       703.10000  9.44159e-12      464.054
       703.20000  9.44159e-12      464.904
       703.30000  9.44159e-12      465.659
       703.40000  9.44159e-12      466.415
       703.50000  4.50469e-11      2228.47
       703.60000  4.50469e-11      2232.07
       703.70000  4.50469e-11      2234.77
       703.80000  4.46288e-11      2217.16
       703.90000  4.46288e-11      2219.83
       704.00000  4.46288e-11      2222.07
       704.10000  4.46288e-11      2224.74
       704.20000  4.46288e-11      2226.97
       704.30000  4.46288e-11      2228.76
       704.40000  4.46288e-11      2230.55
       704.50000  1.94672e-11      973.749
       704.60000  1.94672e-11      974.527
       704.70000  1.94672e-11      975.111
       704.80000  1.94672e-11      975.501
       704.90000  1.94672e-11      976.085
       705.00000  1.94672e-11      976.474
       705.10000  1.94672e-11      976.669
       705.20000  1.94672e-11      976.863
       705.30000  1.94672e-11      977.058
       705.40000  1.94672e-11      977.253
       705.50000  2.14855e-11      1078.57
       705.60000  2.14855e-11      1078.57
       705.70000  2.14855e-11      1078.36
       705.80000  2.14855e-11      1078.14
       705.90000  2.14855e-11      1077.93
       706.00000  2.14855e-11      1077.50
       706.10000  2.14855e-11      1077.07
       706.20000  2.14855e-11      1076.42
       706.30000  2.12736e-11      1065.17
       706.40000  2.12736e-11      1064.53
       706.50000  2.02983e-11      1014.92
       706.60000  2.02983e-11      1014.10
       706.70000  2.02983e-11      1013.29
       706.80000  2.02983e-11      1012.28
       706.90000  2.02983e-11      1011.26
       707.00000  2.02983e-11      1010.25
       707.10000  2.02983e-11      1009.44
       707.20000  2.02983e-11      1008.83
       707.30000  2.02983e-11      1008.01
       707.40000  2.02983e-11      1007.41
       707.50000  2.01579e-11      999.832
       707.60000  2.01579e-11      999.227
       707.70000  2.01579e-11      998.824
       707.80000  2.01579e-11      998.219
       707.90000  2.01579e-11      997.816
       708.00000  2.01579e-11      997.413
       708.10000  2.01579e-11      997.010
       708.20000  2.01579e-11      996.607
       708.30000  2.01579e-11      996.203
       708.40000  2.01579e-11      995.800
       708.50000  2.94192e-11      1453.01
       708.60000  2.94192e-11      1452.42
       708.70000  2.94192e-11      1452.13
       708.80000  2.90822e-11      1435.20
       708.90000  2.90822e-11      1434.91
       709.00000  2.90822e-11      1434.91
       709.10000  2.90822e-11      1435.50
       709.20000  2.90822e-11      1436.08
       709.30000  2.90822e-11      1436.37
       709.40000  2.90822e-11      1436.95
       709.50000  3.86660e-11      1910.87
       709.60000  3.86660e-11      1911.65
       709.70000  3.86660e-11      1912.03
       709.80000  3.86660e-11      1912.42
       709.90000  3.86660e-11      1912.81
       710.00000  3.86660e-11      1913.19
       710.10000  3.86660e-11      1913.58
       710.20000  3.86660e-11      1913.97
       710.30000  3.86660e-11      1913.97
       710.40000  3.86660e-11      1914.35
       710.50000  2.76019e-11      1366.57
       710.60000  2.76019e-11      1366.57
       710.70000  2.76019e-11      1366.57
       710.80000  2.76019e-11      1366.57
       710.90000  2.76019e-11      1366.57
       711.00000  2.76019e-11      1366.57
       711.10000  2.76019e-11      1366.57
       711.20000  2.76019e-11      1366.29
       711.30000  2.71986e-11      1346.33
       711.40000  2.71986e-11      1346.06
       711.50000  3.68949e-11      1825.56
       711.60000  3.68949e-11      1825.19
       711.70000  3.68949e-11      1824.82
       711.80000  3.68949e-11      1824.45
       711.90000  3.68949e-11      1824.08
       712.00000  3.68949e-11      1823.34
       712.10000  3.68949e-11      1822.98
       712.20000  3.68949e-11      1822.24
       712.30000  3.68949e-11      1821.87
       712.40000  3.68949e-11      1821.13
       712.50000  1.79900e-11      887.625
       712.60000  1.79900e-11      887.265
       712.70000  1.79900e-11      886.726
       712.80000  1.79900e-11      886.366
       712.90000  1.79900e-11      886.006
       713.00000  1.79900e-11      885.466
       713.10000  1.79900e-11      885.466
       713.20000  1.79900e-11      885.466
       713.30000  1.79900e-11      885.466
       713.40000  1.79900e-11      885.286
       713.50000  3.79861e-11      1869.29
       713.60000  3.79861e-11      1869.29
       713.70000  3.79861e-11      1868.92
       713.80000  3.74683e-11      1843.44
       713.90000  3.74683e-11      1843.07
       714.00000  3.74683e-11      1843.07
       714.10000  3.74683e-11      1842.69
       714.20000  3.74683e-11      1842.32
       714.30000  3.74683e-11      1842.32
       714.40000  3.74683e-11      1841.94
       714.50000  6.79872e-12      334.157
       714.60000  6.79872e-12      334.089
       714.70000  6.79872e-12      334.089
       714.80000  6.79872e-12      334.021
       714.90000  6.79872e-12      333.953
       715.00000  6.79872e-12      333.885
       715.10000  6.79872e-12      333.817
       715.20000  6.79872e-12      333.817
       715.30000  6.79872e-12      333.817
       715.40000  6.79872e-12      333.749
       715.50000  1.34655e-12      66.0887
       715.60000  1.34655e-12      66.0752
       715.70000  1.34655e-12      66.0617
       715.80000  1.34655e-12      66.0483
       715.90000  1.34655e-12      66.0348
       716.00000  1.34655e-12      66.0079
       716.10000  1.34655e-12      65.9944
       716.20000  1.34655e-12      65.9675
       716.30000  1.32856e-12      65.0595
       716.40000  1.32856e-12      65.0329
       716.50000  1.77013e-11      866.125
       716.60000  1.77013e-11      865.771
       716.70000  1.77013e-11      865.417
       716.80000  1.77013e-11      864.886
       716.90000  1.77013e-11      864.532
       717.00000  1.77013e-11      864.001
       717.10000  1.77013e-11      863.470
       717.20000  1.77013e-11      862.939
       717.30000  1.77013e-11      862.408
       717.40000  1.77013e-11      861.877
       717.50000  4.79463e-11      2333.06
       717.60000  4.79463e-11      2331.15
       717.70000  4.79463e-11      2329.71
       717.80000  4.79463e-11      2327.79
       717.90000  4.79463e-11      2325.87
       718.00000  4.79463e-11      2323.96
       718.10000  4.79463e-11      2322.04
       718.20000  4.79463e-11      2320.12
       718.30000  4.79463e-11      2318.20
       718.40000  4.79463e-11      2315.80
       718.50000  9.34333e-12      450.909
       718.60000  9.34333e-12      450.442
       718.70000  9.34333e-12      449.975
       718.80000  9.23113e-12      444.110
       718.90000  9.23113e-12      443.648
       719.00000  9.23113e-12      443.187
       719.10000  9.23113e-12      443.187
       719.20000  9.23113e-12      443.187
       719.30000  9.23113e-12      443.187
       719.40000  9.23113e-12      443.279
       719.50000  2.85402e-11      1370.50
       719.60000  2.85402e-11      1370.78
       719.70000  2.85402e-11      1370.78
       719.80000  2.85402e-11      1371.07
       719.90000  2.85402e-11      1371.36
       720.00000  2.85402e-11      1371.93
       720.10000  2.85402e-11      1372.21
       720.20000  2.85402e-11      1372.50
       720.30000  2.85402e-11      1373.07
       720.40000  2.85402e-11      1373.35
       720.50000  2.69014e-11      1295.03
       720.60000  2.69014e-11      1295.57
       720.70000  2.69014e-11      1296.11
       720.80000  2.69014e-11      1296.65
       720.90000  2.69014e-11      1297.45
       721.00000  2.69014e-11      1297.99
       721.10000  2.69014e-11      1299.34
       721.20000  2.69014e-11      1300.68
       721.30000  2.65980e-11      1287.34
       721.40000  2.65980e-11      1288.41
       721.50000  1.62774e-11      789.292
       721.60000  1.62774e-11      789.943
       721.70000  1.62774e-11      790.594
       721.80000  1.62774e-11      791.408
       721.90000  1.62774e-11      792.059
       722.00000  1.62774e-11      792.548
       722.10000  1.62774e-11      793.199
       722.20000  1.62774e-11      793.850
       722.30000  1.62774e-11      794.338
       722.40000  1.62774e-11      794.826
       722.50000  3.35671e-11      1640.09
       722.60000  3.35671e-11      1641.43
       722.70000  3.35671e-11      1642.10
       722.80000  3.35671e-11      1643.11
       722.90000  3.35671e-11      1644.12
       723.00000  3.35671e-11      1644.79
       723.10000  3.35671e-11      1645.80
       723.20000  3.35671e-11      1646.47
       723.30000  3.35671e-11      1647.14
       723.40000  3.35671e-11      1647.81
       723.50000  2.40172e-11      1179.48
       723.60000  2.40172e-11      1179.72
       723.70000  2.40172e-11      1180.20
       723.80000  2.37461e-11      1167.12
       723.90000  2.37461e-11      1167.36
       724.00000  2.37461e-11      1167.59
       724.10000  2.37461e-11      1167.83
       724.20000  2.37461e-11      1168.07
       724.30000  2.37461e-11      1168.31
       724.40000  2.37461e-11      1168.54
       724.50000  6.86020e-12      337.591
       724.60000  6.86020e-12      337.591
       724.70000  6.86020e-12      337.591
       724.80000  6.86020e-12      337.591
       724.90000  6.86020e-12      337.591
       725.00000  6.86020e-12      337.591
       727.00000  4.85456e-12      238.844
       727.10000  4.85456e-12      238.504
       727.20000  4.85456e-12      238.164
       727.30000  4.85456e-12      237.825
       727.40000  4.85456e-12      237.533
       727.50000  4.91450e-12      240.171
       727.60000  4.91450e-12      239.877
       727.70000  4.91450e-12      239.631
       727.80000  4.91450e-12      239.385
       727.90000  4.91450e-12      239.139
       728.00000  4.91450e-12      238.943
       728.10000  4.91450e-12      238.746
       728.20000  4.91450e-12      238.550
       728.30000  4.91450e-12      238.353
       728.40000  4.91450e-12      238.206
       728.50000  2.71069e-12      131.306
       728.60000  2.71069e-12      131.252
       728.70000  2.71069e-12      131.170
       728.80000  2.68046e-12      129.681
       728.90000  2.68046e-12      129.627
       729.00000  2.68046e-12      129.600
       729.10000  2.68046e-12      129.574
       729.20000  2.68046e-12      129.547
       729.30000  2.68046e-12      129.547
       729.40000  2.68046e-12      129.520
       729.50000  3.91196e-12      189.065
       729.60000  3.91196e-12      189.065
       729.70000  3.91196e-12      189.104
       729.80000  3.91196e-12      189.143
       729.90000  3.91196e-12      189.222
       730.00000  3.91196e-12      189.300
       730.10000  3.91196e-12      189.378
       730.20000  3.91196e-12      189.456
       730.30000  3.91196e-12      189.574
       730.40000  3.91196e-12      189.691
       730.50000  6.56855e-12      318.706
       730.60000  6.56855e-12      318.969
       730.70000  6.56855e-12      319.231
       730.80000  6.56855e-12      319.494
       730.90000  6.56855e-12      319.823
       731.00000  6.56855e-12      320.151
       731.10000  6.56855e-12      320.085
       731.20000  6.56855e-12      320.020
       731.30000  6.48713e-12      315.988
       731.40000  6.48713e-12      315.988
       731.50000  4.52870e-12      220.548
       731.60000  4.52870e-12      220.502
       731.70000  4.52870e-12      220.457
       731.80000  4.52870e-12      220.457
       731.90000  4.52870e-12      220.412
       732.00000  4.52870e-12      220.366
       732.10000  4.52870e-12      220.321
       732.20000  4.52870e-12      220.276
       732.30000  4.52870e-12      220.276
       732.40000  4.52870e-12      220.231
       732.50000  1.91632e-13      9.31715
       732.60000  1.91632e-13      9.31524
       732.70000  1.91632e-13      9.31332
       732.80000  1.91632e-13      9.31141
       732.90000  1.91632e-13      9.30949
       733.00000  1.91632e-13      9.30757
       733.10000  1.91632e-13      9.30566
       733.20000  1.91632e-13      9.30182
       733.30000  1.91632e-13      9.29991
       733.40000  1.91632e-13      9.29607
       733.50000  2.80819e-12      136.197
       733.60000  2.80819e-12      136.169
       733.70000  2.80819e-12      136.113
       733.80000  2.76966e-12      134.218
       733.90000  2.76966e-12      134.190
       734.00000  2.76966e-12      134.162
       734.10000  2.76966e-12      134.135
       734.20000  2.76966e-12      134.107
       734.30000  2.76966e-12      134.079
       734.40000  2.76966e-12      134.079
       734.50000  2.23309e-13      10.8082
       734.60000  2.23309e-13      10.8059
       734.70000  2.23309e-13      10.8059
       734.80000  2.23309e-13      10.8037
       734.90000  2.23309e-13      10.8037
       735.00000  2.23309e-13      10.8015
       735.10000  2.23309e-13      10.8015
       735.20000  2.23309e-13      10.8015
       735.30000  2.23309e-13      10.8015
       735.40000  2.23309e-13      10.7992
       735.50000  1.11536e-12      53.9386
       735.60000  1.11536e-12      53.9386
       735.70000  1.11536e-12      53.9386
       735.80000  1.11536e-12      53.9498
       735.90000  1.11536e-12      53.9498
       736.00000  1.11536e-12      53.9498
       736.10000  1.11536e-12      53.9498
       736.20000  1.11536e-12      53.9610
       736.30000  1.09780e-12      53.1114
       736.40000  1.09780e-12      53.1224
       736.50000  3.43068e-12      166.011
       736.60000  3.43068e-12      166.045
       736.70000  3.43068e-12      166.079
       736.80000  3.43068e-12      166.079
       736.90000  3.43068e-12      166.114
       737.00000  3.43068e-12      166.148
       737.10000  3.43068e-12      165.976
       737.20000  3.43068e-12      165.770
       737.30000  3.43068e-12      165.599
       737.40000  3.43068e-12      165.427
       737.50000  4.31306e-12      207.717
       737.60000  4.31306e-12      207.501
       737.70000  4.31306e-12      207.286
       737.80000  4.31306e-12      207.070
       737.90000  4.31306e-12      206.898
       738.00000  4.31306e-12      206.682
       738.10000  4.31306e-12      206.466
       738.20000  4.31306e-12      206.251
       738.30000  4.31306e-12      206.078
       738.40000  4.31306e-12      205.906
       738.50000  3.67548e-12      175.283
       738.60000  3.67548e-12      175.136
       738.70000  3.67548e-12      174.989
       738.80000  3.61223e-12      171.834
       738.90000  3.61223e-12      171.689
       739.00000  3.61223e-12      171.545
       739.10000  3.61223e-12      171.256
       739.20000  3.61223e-12      171.003
       739.30000  3.61223e-12      170.786
       739.40000  3.61223e-12      170.570
       739.50000  5.67131e-13      26.7459
       739.60000  5.67131e-13      26.7176
       739.70000  5.67131e-13      26.6949
       739.80000  5.67131e-13      26.6665
       739.90000  5.67131e-13      26.6495
       740.00000  5.67131e-13      26.6268
       740.10000  5.67131e-13      26.6155
       740.20000  5.67131e-13      26.5985
       740.30000  5.67131e-13      26.5871
       740.40000  5.67131e-13      26.5814
       740.50000  2.13383e-12      99.9912
       740.60000  2.13383e-12      99.9698
       740.70000  2.13383e-12      99.9698
       740.80000  2.13383e-12      99.9698
       740.90000  2.13383e-12      99.9912
       741.00000  2.13383e-12      100.013
       741.10000  2.13383e-12      100.055
       741.20000  2.13383e-12      100.098
       741.30000  2.09694e-12      98.4094
       741.40000  2.09694e-12      98.4724
       741.50000  7.16162e-17   0.00336524
       741.60000  7.16162e-17   0.00336811
       741.70000  7.16162e-17   0.00337169
       741.80000  7.16162e-17   0.00337455
       741.90000  7.16162e-17   0.00337885
       742.00000  7.16162e-17   0.00338243
       742.10000  7.16162e-17   0.00338673
       742.20000  7.16162e-17   0.00339174
       742.30000  7.16162e-17   0.00339676
       742.40000  7.16162e-17   0.00340177
       742.50000  3.01234e-13      14.3327
       742.60000  3.01234e-13      14.3568
       742.70000  3.01234e-13      14.3839
       742.80000  3.01234e-13      14.4110
       742.90000  3.01234e-13      14.4412
       743.00000  3.01234e-13      14.4713
       743.10000  3.01234e-13      14.4653
       743.20000  3.01234e-13      14.4622
       743.30000  3.01234e-13      14.4592
       743.40000  3.01234e-13      14.4532
       743.50000  2.31631e-12      111.114
       743.60000  2.31631e-12      111.090
       743.70000  2.31631e-12      111.067
       743.80000  2.28056e-12      109.330
       743.90000  2.28056e-12      109.307
       744.00000  2.28056e-12      109.285
       744.10000  2.28056e-12      109.285
       744.20000  2.28056e-12      109.262
       744.30000  2.28056e-12      109.262
       744.40000  2.28056e-12      109.262
       744.50000  1.31874e-12      63.1678
       744.60000  1.31874e-12      63.1678
       744.70000  1.31874e-12      63.1678
       744.80000  1.31874e-12      63.1678
       744.90000  1.31874e-12      63.1810
       745.00000  1.31874e-12      63.1810
       745.10000  1.31874e-12      63.2206
       745.20000  1.31874e-12      63.2602
       745.30000  1.31874e-12      63.2865
       745.40000  1.31874e-12      63.3261
       745.50000  1.78244e-12      85.6283
       745.60000  1.78244e-12      85.6640
       745.70000  1.78244e-12      85.6996
       745.80000  1.78244e-12      85.7353
       745.90000  1.78244e-12      85.7531
       746.00000  1.78244e-12      85.7887
       746.10000  1.78244e-12      85.8066
       746.20000  1.78244e-12      85.8244
       746.30000  1.76197e-12      84.8566
       746.40000  1.76197e-12      84.8742
       746.50000  2.01385e-12      97.0275
       746.60000  2.01385e-12      97.0275
       746.70000  2.01385e-12      97.0476
       746.80000  2.01385e-12      97.0476
       746.90000  2.01385e-12      97.0476
       747.00000  2.01385e-12      97.0476
       747.10000  2.01385e-12      96.9872
       747.20000  2.01385e-12      96.9469
       747.30000  2.01385e-12      96.9066
       747.40000  2.01385e-12      96.8664
       747.50000  4.64772e-13      22.3463
       747.60000  4.64772e-13      22.3370
       747.70000  4.64772e-13      22.3277
       747.80000  4.64772e-13      22.3184
       747.90000  4.64772e-13      22.3091
       748.00000  4.64772e-13      22.2998
       748.10000  4.64772e-13      22.2951
       748.20000  4.64772e-13      22.2858
       748.30000  4.64772e-13      22.2765
       748.40000  4.64772e-13      22.2719
       748.50000  8.50059e-14      4.07178
       748.60000  8.50059e-14      4.07008
       748.70000  8.50059e-14      4.06923
       748.80000  8.40352e-14      4.02109
       748.90000  8.40352e-14      4.02025
       749.00000  8.40352e-14      4.01940
       749.10000  8.40352e-14      4.01772
       749.20000  8.40352e-14      4.01688
       749.30000  8.40352e-14      4.01604
       749.40000  8.40352e-14      4.01520
       749.50000  3.41236e-12      163.008
       749.60000  3.41236e-12      162.974
       749.70000  3.41236e-12      162.906
       749.80000  3.41236e-12      162.872
       749.90000  3.41236e-12      162.872
       750.00000  3.41236e-12      162.838
       750.10000  3.41236e-12      162.804
       750.20000  3.41236e-12      162.769
       750.30000  3.41236e-12      162.735
       750.40000  3.41236e-12      162.735
       750.50000  3.77896e-13      18.0181
       750.60000  3.77896e-13      18.0143
       750.70000  3.77896e-13      18.0143
       750.80000  3.77896e-13      18.0105
       750.90000  3.77896e-13      18.0105
       751.00000  3.77896e-13      18.0067
       751.10000  3.77896e-13      18.0067
       751.20000  3.77896e-13      18.0067
       751.30000  3.73049e-13      17.7721
       751.40000  3.73049e-13      17.7721
       751.50000  2.42347e-12      115.454
       751.60000  2.42347e-12      115.454
       751.70000  2.42347e-12      115.454
       751.80000  2.42347e-12      115.454
       751.90000  2.42347e-12      115.454
       752.00000  2.42347e-12      115.454
       752.10000  2.42347e-12      115.454
       752.20000  2.42347e-12      115.454
       752.30000  2.42347e-12      115.454
       752.40000  2.42347e-12      115.454
       752.50000  2.90287e-12      138.322
       752.60000  2.90287e-12      138.322
       752.70000  2.90287e-12      138.322
       752.80000  2.90287e-12      138.351
       752.90000  2.90287e-12      138.351
       753.00000  2.90287e-12      138.380
       753.10000  2.90287e-12      138.380
       753.20000  2.90287e-12      138.380
       753.30000  2.90287e-12      138.380
       753.40000  2.90287e-12      138.380
       753.50000  1.77203e-12      84.4728
       753.60000  1.77203e-12      84.4728
       753.70000  1.77203e-12      84.4728
       753.80000  1.74709e-12      83.2838
       753.90000  1.74709e-12      83.2838
       754.00000  1.74709e-12      83.2838
       754.10000  1.74709e-12      83.2838
       754.20000  1.74709e-12      83.2663
       754.30000  1.74709e-12      83.2663
       754.40000  1.74709e-12      83.2663
       754.50000  2.34494e-12      111.760
       754.60000  2.34494e-12      111.760
       754.70000  2.34494e-12      111.736
       754.80000  2.34494e-12      111.736
       754.90000  2.34494e-12      111.713
       755.00000  2.34494e-12      111.713
       755.10000  2.34494e-12      111.689
       755.20000  2.34494e-12      111.689
       755.30000  2.34494e-12      111.666
       755.40000  2.34494e-12      111.666
       755.50000  1.96275e-12      93.4464
       755.60000  1.96275e-12      93.4268
       755.70000  1.96275e-12      93.4268
       755.80000  1.96275e-12      93.4072
       755.90000  1.96275e-12      93.3876
       756.00000  1.96275e-12      93.3876
       756.10000  1.96275e-12      93.3679
       756.20000  1.96275e-12      93.3483
       756.30000  1.93451e-12      91.9861
       756.40000  1.93451e-12      91.9861
       756.50000  9.91779e-13      47.1492
       756.60000  9.91779e-13      47.1393
       756.70000  9.91779e-13      47.1293
       756.80000  9.91779e-13      47.1293
       756.90000  9.91779e-13      47.1194
       757.00000  9.91779e-13      47.1095
       757.10000  9.91779e-13      47.0996
       757.20000  9.91779e-13      47.0897
       757.30000  9.91779e-13      47.0897
       757.40000  9.91779e-13      47.0798
       757.50000  2.77423e-13      13.1665
       757.60000  2.77423e-13      13.1637
       757.70000  2.77423e-13      13.1610
       757.80000  2.77423e-13      13.1582
       757.90000  2.77423e-13      13.1554
       758.00000  2.77423e-13      13.1554
       758.10000  2.77423e-13      13.1526
       758.20000  2.77423e-13      13.1499
       758.30000  2.77423e-13      13.1471
       758.40000  2.77423e-13      13.1443
       758.50000  3.99216e-12      189.109
       758.60000  3.99216e-12      189.069
       758.70000  3.99216e-12      189.029
       758.80000  3.92151e-12      185.644
       758.90000  3.92151e-12      185.605
       759.00000  3.92151e-12      185.566
       759.10000  3.92151e-12      185.566
       759.20000  3.92151e-12      185.527
       759.30000  3.92151e-12      185.527
       759.40000  3.92151e-12      185.488
       759.50000  9.30952e-13      44.0340
       759.60000  9.30952e-13      44.0340
       759.70000  9.30952e-13      44.0247
       759.80000  9.30952e-13      44.0247
       759.90000  9.30952e-13      44.0247
       760.00000  9.30952e-13      44.0247
       760.10000  9.30952e-13      44.0247
       760.20000  9.30952e-13      44.0247
       760.30000  9.30952e-13      44.0340
       760.40000  9.30952e-13      44.0340
       760.50000  2.09942e-12      99.3024
       760.60000  2.09942e-12      99.3234
       760.70000  2.09942e-12      99.3234
       760.80000  2.09942e-12      99.3444
       760.90000  2.09942e-12      99.3444
       761.00000  2.09942e-12      99.3653
       761.10000  2.09942e-12      99.4493
       761.20000  2.09942e-12      99.5123
       761.30000  2.05615e-12      97.5231
       761.40000  2.05615e-12      97.5848
       761.50000  5.41382e-12      257.103
       761.60000  5.41382e-12      257.211
       761.70000  5.41382e-12      257.319
       761.80000  5.41382e-12      257.427
       761.90000  5.41382e-12      257.536
       762.00000  5.41382e-12      257.590
       762.10000  5.41382e-12      257.698
       762.20000  5.41382e-12      257.752
       762.30000  5.41382e-12      257.806
       762.40000  5.41382e-12      257.806
       762.50000  5.30115e-13      25.2441
       762.60000  5.30115e-13      25.2494
       762.70000  5.30115e-13      25.2494
       762.80000  5.30115e-13      25.2441
       762.90000  5.30115e-13      25.2441
       763.00000  5.30115e-13      25.2388
       763.10000  5.30115e-13      25.2335
       763.20000  5.30115e-13      25.2282
       763.30000  5.30115e-13      25.2176
       763.40000  5.30115e-13      25.2070
       763.50000  1.12816e-12      53.6214
       763.60000  1.12816e-12      53.5988
       763.70000  1.12816e-12      53.5763
       763.80000  1.09995e-12      52.2037
       763.90000  1.09995e-12      52.1707
       764.00000  1.09995e-12      52.1377
       764.10000  1.09995e-12      52.1047
       764.20000  1.09995e-12      52.0607
       764.30000  1.09995e-12      52.0167
       764.40000  1.09995e-12      51.9727
       764.50000  6.87308e-12      324.478
       764.60000  6.87308e-12      324.203
       764.70000  6.87308e-12      323.860
       764.80000  6.87308e-12      323.516
       764.90000  6.87308e-12      323.172
       765.00000  6.87308e-12      322.760
       765.10000  6.87308e-12      322.004
       765.20000  6.87308e-12      321.248
       765.30000  6.87308e-12      320.561
       765.40000  6.87308e-12      319.873
       765.50000  1.11408e-13      5.17488
       765.60000  1.11408e-13      5.16597
       765.70000  1.11408e-13      5.15594
       765.80000  1.11408e-13      5.14815
       765.90000  1.11408e-13      5.14035
       766.00000  1.11408e-13      5.13255
       766.10000  1.11408e-13      5.12586
       766.20000  1.11408e-13      5.11918
       766.30000  1.08657e-13      4.98737
       766.40000  1.08657e-13      4.98302
       766.50000  1.95932e-12      89.7761
       766.60000  1.95932e-12      89.6977
       766.70000  1.95932e-12      89.6585
       766.80000  1.95932e-12      89.5997
       766.90000  1.95932e-12      89.5605
       767.00000  1.95932e-12      89.5409
       767.10000  1.95932e-12      89.6389
       767.20000  1.95932e-12      89.7565
       767.30000  1.95932e-12      89.8544
       767.40000  1.95932e-12      89.9524
       767.50000  3.04578e-12      139.984
       767.60000  3.04578e-12      140.136
       767.70000  3.04578e-12      140.289
       767.80000  3.04578e-12      140.410
       767.90000  3.04578e-12      140.563
       768.00000  3.04578e-12      140.685
       768.10000  3.04578e-12      140.806
       768.20000  3.04578e-12      140.928
       768.30000  3.04578e-12      141.020
       768.40000  3.04578e-12      141.141
       768.50000  2.37621e-12      110.185
       768.60000  2.37621e-12      110.256
       768.70000  2.37621e-12      110.327
       768.80000  2.32217e-12      107.888
       768.90000  2.32217e-12      107.958
       769.00000  2.32217e-12      108.004
       769.10000  2.32217e-12      108.074
       769.20000  2.32217e-12      108.120
       769.30000  2.32217e-12      108.167
       769.40000  2.32217e-12      108.213
       769.50000  4.73939e-13      22.0903
       769.60000  4.73939e-13      22.0998
       769.70000  4.73939e-13      22.1045
       769.80000  4.73939e-13      22.1140
       769.90000  4.73939e-13      22.1187
       770.00000  4.73939e-13      22.1187
       770.10000  4.73939e-13      22.1235
       770.20000  4.73939e-13      22.1282
       770.30000  4.73939e-13      22.1282
       770.40000  4.73939e-13      22.1282
       770.50000  2.19964e-12      102.701
       770.60000  2.19964e-12      102.701
       770.70000  2.19964e-12      102.701
       770.80000  2.19964e-12      102.701
       770.90000  2.19964e-12      102.679
       771.00000  2.19964e-12      102.657
       771.10000  2.19964e-12      102.745
       771.20000  2.19964e-12      102.811
       771.30000  2.15817e-12      100.938
       771.40000  2.15817e-12      101.002
       771.50000  3.11235e-12      145.751
       771.60000  3.11235e-12      145.814
       771.70000  3.11235e-12      145.907
       771.80000  3.11235e-12      145.969
       771.90000  3.11235e-12      146.000
       772.00000  3.11235e-12      146.063
       774.00000  1.26448e-12      58.7730
       774.10000  1.26448e-12      58.7350
       774.20000  1.26448e-12      58.6971
       774.30000  1.26448e-12      58.6718
       774.40000  1.26448e-12      58.6339
       774.50000  6.01591e-12      278.837
       774.60000  6.01591e-12      278.777
       774.70000  6.01591e-12      278.657
       774.80000  6.01591e-12      278.597
       774.90000  6.01591e-12      278.536
       775.00000  6.01591e-12      278.476
       775.10000  6.01591e-12      278.476
       775.20000  6.01591e-12      278.476
       775.30000  6.01591e-12      278.476
       775.40000  6.01591e-12      278.476
       775.50000  3.26838e-12      151.326
       775.60000  3.26838e-12      151.359
       775.70000  3.26838e-12      151.392
       775.80000  3.26838e-12      151.424
       775.90000  3.26838e-12      151.490
       776.00000  3.26838e-12      151.555
       778.00000  1.29570e-12      60.3279
       778.10000  1.29570e-12      60.3150
       778.20000  1.29570e-12      60.3020
       778.30000  1.29570e-12      60.2891
       778.40000  1.29570e-12      60.2761
       778.50000  2.34173e-12      108.937
       778.60000  2.34173e-12      108.914
       778.70000  2.34173e-12      108.890
       778.80000  2.31532e-12      107.663
       778.90000  2.31532e-12      107.663
       779.00000  2.31532e-12      107.639
       779.10000  2.31532e-12      107.686
       779.20000  2.31532e-12      107.709
       779.30000  2.31532e-12      107.755
       779.40000  2.31532e-12      107.778
       779.50000  2.76545e-12      128.760
       779.60000  2.76545e-12      128.787
       779.70000  2.76545e-12      128.815
       779.80000  2.76545e-12      128.843
       779.90000  2.76545e-12      128.870
       780.00000  2.76545e-12      128.898
       780.10000  2.76545e-12      128.898
       780.20000  2.76545e-12      128.925
       780.30000  2.76545e-12      128.925
       780.40000  2.76545e-12      128.925
       780.50000  1.23211e-12      57.4408
       780.60000  1.23211e-12      57.4408
       780.70000  1.23211e-12      57.4408
       780.80000  1.23211e-12      57.4408
       780.90000  1.23211e-12      57.4408
       781.00000  1.23211e-12      57.4284
       781.10000  1.23211e-12      57.4284
       781.20000  1.23211e-12      57.4161
       781.30000  1.22099e-12      56.8860
       781.40000  1.22099e-12      56.8738
       781.50000  4.48470e-12      208.853
       781.60000  4.48470e-12      208.808
       781.70000  4.48470e-12      208.763
       781.80000  4.48470e-12      208.718
       781.90000  4.48470e-12      208.628
       782.00000  4.48470e-12      208.583
       782.10000  4.48470e-12      208.494
       782.20000  4.48470e-12      208.404
       782.30000  4.48470e-12      208.359
       782.40000  4.48470e-12      208.270
       782.50000  2.03408e-12      94.4220
       782.60000  2.03408e-12      94.3610
       782.70000  2.03408e-12      94.3203
       782.80000  2.03408e-12      94.2797
       782.90000  2.03408e-12      94.2186
       783.00000  2.03408e-12      94.1779
       783.10000  2.03408e-12      94.2186
       783.20000  2.03408e-12      94.2593
       783.30000  2.03408e-12      94.3000
       783.40000  2.03408e-12      94.3203
       783.50000  3.70771e-12      172.001
       783.60000  3.70771e-12      172.075
       783.70000  3.70771e-12      172.112
       783.80000  3.67390e-12      170.616
       783.90000  3.67390e-12      170.689
       784.00000  3.67390e-12      170.726
       784.10000  3.67390e-12      170.763
       784.20000  3.67390e-12      170.836
       784.30000  3.67390e-12      170.873
       784.40000  3.67390e-12      170.910
       784.50000  2.48233e-12      115.503
       784.60000  2.48233e-12      115.528
       784.70000  2.48233e-12      115.553
       784.80000  2.48233e-12      115.577
       784.90000  2.48233e-12      115.602
       785.00000  2.48233e-12      115.602
       785.10000  2.48233e-12      115.602
       785.20000  2.48233e-12      115.602
       785.30000  2.48233e-12      115.602
       785.40000  2.48233e-12      115.602
       785.50000  4.51031e-12      210.045
       785.60000  4.51031e-12      210.045
       785.70000  4.51031e-12      210.045
       785.80000  4.51031e-12      210.045
       785.90000  4.51031e-12      210.045
       786.00000  4.51031e-12      210.045
       786.10000  4.51031e-12      210.045
       786.20000  4.51031e-12      210.045
       786.30000  4.45718e-12      207.571
       786.40000  4.45718e-12      207.571
       786.50000  7.34029e-13      34.1838
       786.60000  7.34029e-13      34.1838
       786.70000  7.34029e-13      34.1838
       786.80000  7.34029e-13      34.1838
       786.90000  7.34029e-13      34.1838
       787.00000  7.34029e-13      34.1838
       787.10000  7.34029e-13      34.1838
       787.20000  7.34029e-13      34.1838
       787.30000  7.34029e-13      34.1838
       787.40000  7.34029e-13      34.1838
       787.50000  1.49523e-12      69.6328
       787.60000  1.49523e-12      69.6328
       787.70000  1.49523e-12      69.6328
       787.80000  1.49523e-12      69.6328
       787.90000  1.49523e-12      69.6328
       788.00000  1.49523e-12      69.6328
       790.00000  2.41391e-12      111.788
       790.10000  2.41391e-12      111.716
       790.20000  2.41391e-12      111.667
       790.30000  2.41391e-12      111.595
       790.40000  2.41391e-12      111.547
       790.50000  3.01782e-12      139.363
       790.60000  3.01782e-12      139.273
       790.70000  3.01782e-12      139.212
       790.80000  3.01782e-12      139.122
       790.90000  3.01782e-12      139.061
       791.00000  3.01782e-12      138.971
       791.10000  3.01782e-12      138.880
       791.20000  3.01782e-12      138.820
       791.30000  2.97214e-12      136.629
       791.40000  2.97214e-12      136.540
       791.50000  3.08203e-12      141.496
       791.60000  3.08203e-12      141.404
       791.70000  3.08203e-12      141.342
       791.80000  3.08203e-12      141.250
       791.90000  3.08203e-12      141.188
       792.00000  3.08203e-12      141.095
       792.10000  3.08203e-12      141.034
       792.20000  3.08203e-12      140.972
       792.30000  3.08203e-12      140.880
       792.40000  3.08203e-12      140.818
       792.50000  1.80454e-12      82.4134
       792.60000  1.80454e-12      82.3773
       792.70000  1.80454e-12      82.3412
       792.80000  1.80454e-12      82.3051
       792.90000  1.80454e-12      82.2690
       793.00000  1.80454e-12      82.2329
       793.10000  1.80454e-12      82.1788
       793.20000  1.80454e-12      82.1066
       793.30000  1.80454e-12      82.0525
       793.40000  1.80454e-12      81.9983
       793.50000  2.78788e-12      126.597
       793.60000  2.78788e-12      126.542
       793.70000  2.78788e-12      126.458
       793.80000  2.73965e-12      124.243
       793.90000  2.73965e-12      124.188
       794.00000  2.73965e-12      124.161
       794.10000  2.73965e-12      124.106
       794.20000  2.73965e-12      124.106
       794.30000  2.73965e-12      124.079
       794.40000  2.73965e-12      124.079
       794.50000  2.57228e-12      116.499
       794.60000  2.57228e-12      116.499
       794.70000  2.57228e-12      116.525
       794.80000  2.57228e-12      116.525
       794.90000  2.57228e-12      116.550
       795.00000  2.57228e-12      116.602
       795.10000  2.57228e-12      116.782
       795.20000  2.57228e-12      116.962
       795.30000  2.57228e-12      117.142
       795.40000  2.57228e-12      117.322
       795.50000  1.16419e-12      53.1688
       795.60000  1.16419e-12      53.2386
       795.70000  1.16419e-12      53.2968
       795.80000  1.16419e-12      53.3550
       795.90000  1.16419e-12      53.4133
       796.00000  1.16419e-12      53.4598
       796.10000  1.16419e-12      53.5064
       796.20000  1.16419e-12      53.5530
       796.30000  1.13983e-12      52.4665
       796.40000  1.13983e-12      52.5007
       796.50000  3.06438e-12      141.237
       796.60000  3.06438e-12      141.299
       796.70000  3.06438e-12      141.360
       796.80000  3.06438e-12      141.391
       796.90000  3.06438e-12      141.421
       797.00000  3.06438e-12      141.452
       797.10000  3.06438e-12      141.483
       797.20000  3.06438e-12      141.483
       797.30000  3.06438e-12      141.483
       797.40000  3.06438e-12      141.452
       797.50000  3.95388e-12      182.472
       797.60000  3.95388e-12      182.432
       797.70000  3.95388e-12      182.353
       797.80000  3.95388e-12      182.274
       797.90000  3.95388e-12      182.195
       798.00000  3.95388e-12      182.076
       800.00000  2.18074e-13      10.0074
       800.10000  2.18074e-13      10.0118
       800.20000  2.18074e-13      10.0161
       800.30000  2.18074e-13      10.0205
       800.40000  2.18074e-13      10.0227
       800.50000  1.39317e-12      64.0441
       800.60000  1.39317e-12      64.0580
       800.70000  1.39317e-12      64.0580
       800.80000  1.39317e-12      64.0720
       800.90000  1.39317e-12      64.0720
       801.00000  1.39317e-12      64.0720
       801.10000  1.39317e-12      64.0441
       801.20000  1.39317e-12      64.0163
       801.30000  1.36106e-12      62.5133
       801.40000  1.36106e-12      62.4861
       801.50000  4.84344e-12      222.265
       801.60000  4.84344e-12      222.168
       801.70000  4.84344e-12      222.072
       801.80000  4.84344e-12      221.975
       801.90000  4.84344e-12      221.878
       802.00000  4.84344e-12      221.781
       802.10000  4.84344e-12      221.684
       802.20000  4.84344e-12      221.587
       802.30000  4.84344e-12      221.490
       802.40000  4.84344e-12      221.393
       802.50000  4.06744e-12      185.841
       802.60000  4.06744e-12      185.760
       802.70000  4.06744e-12      185.679
       802.80000  4.06744e-12      185.557
       802.90000  4.06744e-12      185.475
       803.00000  4.06744e-12      185.394
       803.10000  4.06744e-12      185.313
       803.20000  4.06744e-12      185.231
       803.30000  4.06744e-12      185.150
       803.40000  4.06744e-12      185.028
       803.50000  5.85680e-12      266.309
       803.60000  5.85680e-12      266.192
       803.70000  5.85680e-12      266.074
       803.80000  5.71954e-12      259.724
       803.90000  5.71954e-12      259.553
       804.00000  5.71954e-12      259.438
       804.10000  5.71954e-12      259.324
       804.20000  5.71954e-12      259.210
       804.30000  5.71954e-12      259.038
       804.40000  5.71954e-12      258.924
       804.50000  2.95747e-12      133.825
       804.60000  2.95747e-12      133.737
       804.70000  2.95747e-12      133.678
       804.80000  2.95747e-12      133.618
       804.90000  2.95747e-12      133.530
       805.00000  2.95747e-12      133.470
       805.10000  2.95747e-12      133.589
       805.20000  2.95747e-12      133.737
       805.30000  2.95747e-12      133.825
       805.40000  2.95747e-12      133.944
       805.50000  2.04111e-12      92.5031
       805.60000  2.04111e-12      92.5643
       805.70000  2.04111e-12      92.6255
       805.80000  2.04111e-12      92.6663
       805.90000  2.04111e-12      92.7072
       806.00000  2.04111e-12      92.7480
       806.10000  2.04111e-12      92.7684
       806.20000  2.04111e-12      92.7888
       806.30000  1.99001e-12      90.4859
       806.40000  1.99001e-12      90.5058
       806.50000  3.61364e-12      164.348
       806.60000  3.61364e-12      164.348
       806.70000  3.61364e-12      164.312
       806.80000  3.61364e-12      164.312
       806.90000  3.61364e-12      164.276
       807.00000  3.61364e-12      164.204
       807.10000  3.61364e-12      163.915
       807.20000  3.61364e-12      163.590
       807.30000  3.61364e-12      163.300
       807.40000  3.61364e-12      163.048
       807.50000  3.66089e-12      164.923
       807.60000  3.66089e-12      164.667
       807.70000  3.66089e-12      164.447
       807.80000  3.66089e-12      164.264
       807.90000  3.66089e-12      164.081
       808.00000  3.66089e-12      163.898
       808.10000  3.66089e-12      163.752
       808.20000  3.66089e-12      163.605
       808.30000  3.66089e-12      163.459
       808.40000  3.66089e-12      163.349
       808.50000  4.87927e-12      217.616
       808.60000  4.87927e-12      217.518
       808.70000  4.87927e-12      217.420
       808.80000  4.75761e-12      211.951
       808.90000  4.75761e-12      211.904
       809.00000  4.75761e-12      211.904
       809.10000  4.75761e-12      211.904
       809.20000  4.75761e-12      211.951
       809.30000  4.75761e-12      211.999
       809.40000  4.75761e-12      212.047
       809.50000  5.49762e-12      245.139
       809.60000  5.49762e-12      245.304
       809.70000  5.49762e-12      245.469
       809.80000  5.49762e-12      245.634
       809.90000  5.49762e-12      245.853
       810.00000  5.49762e-12      246.073
       810.10000  5.49762e-12      246.348
       810.20000  5.49762e-12      246.623
       810.30000  5.49762e-12      246.898
       810.40000  5.49762e-12      247.228
       810.50000  3.90065e-12      175.685
       810.60000  3.90065e-12      175.919
       810.70000  3.90065e-12      176.231
       810.80000  3.90065e-12      176.543
       810.90000  3.90065e-12      176.855
       811.00000  3.90065e-12      177.206
       811.10000  3.90065e-12      177.245
       811.20000  3.90065e-12      177.323
       811.30000  3.80202e-12      172.878
       811.40000  3.80202e-12      172.954
       811.50000  2.09744e-12      95.4337
       811.60000  2.09744e-12      95.4547
       811.70000  2.09744e-12      95.4757
       811.80000  2.09744e-12      95.4966
       811.90000  2.09744e-12      95.5176
       812.00000  2.09744e-12      95.5386
       812.10000  2.09744e-12      95.5386
       812.20000  2.09744e-12      95.5595
       812.30000  2.09744e-12      95.5805
       812.40000  2.09744e-12      95.5805
       812.50000  3.85225e-12      175.547
       812.60000  3.85225e-12      175.586
       812.70000  3.85225e-12      175.586
       812.80000  3.85225e-12      175.586
       812.90000  3.85225e-12      175.586
       813.00000  3.85225e-12      175.586
       813.10000  3.85225e-12      175.509
       813.20000  3.85225e-12      175.470
       813.30000  3.85225e-12      175.393
       813.40000  3.85225e-12      175.355
       813.50000  2.50578e-12      114.013
       813.60000  2.50578e-12      113.988
       813.70000  2.50578e-12      113.963
       813.80000  2.44482e-12      111.166
       813.90000  2.44482e-12      111.142
       814.00000  2.44482e-12      111.093
       814.10000  2.44482e-12      111.068
       814.20000  2.44482e-12      111.044
       814.30000  2.44482e-12      111.019
       814.40000  2.44482e-12      111.019
       814.50000  6.05853e-12      275.057
       814.60000  6.05853e-12      274.997
       814.70000  6.05853e-12      274.936
       814.80000  6.05853e-12      274.876
       814.90000  6.05853e-12      274.876
       815.00000  6.05853e-12      274.815
       815.10000  6.05853e-12      275.057
       815.20000  6.05853e-12      275.239
       815.30000  6.05853e-12      275.421
       815.40000  6.05853e-12      275.542
       815.50000  5.90034e-12      268.525
       815.60000  5.90034e-12      268.584
       815.70000  5.90034e-12      268.702
       815.80000  5.90034e-12      268.702
       815.90000  5.90034e-12      268.761
       816.00000  5.90034e-12      268.761
       816.10000  5.90034e-12      268.761
       816.20000  5.90034e-12      268.702
       816.30000  5.75204e-12      261.890
       816.40000  5.75204e-12      261.833
       816.50000  3.46738e-12      157.766
       816.60000  3.46738e-12      157.696
       816.70000  3.46738e-12      157.592
       816.80000  3.46738e-12      157.488
       816.90000  3.46738e-12      157.384
       817.00000  3.46738e-12      157.245
       817.10000  3.46738e-12      156.760
       817.20000  3.46738e-12      156.309
       817.30000  3.46738e-12      155.893
       817.40000  3.46738e-12      155.477
       817.50000  1.00402e-12      44.9100
       817.60000  1.00402e-12      44.8096
       817.70000  1.00402e-12      44.7092
       817.80000  1.00402e-12      44.6088
       817.90000  1.00402e-12      44.5285
       818.00000  1.00402e-12      44.4381
       818.10000  1.00402e-12      44.3678
       818.20000  1.00402e-12      44.2976
       818.30000  1.00402e-12      44.2273
       818.40000  1.00402e-12      44.1771
       818.50000  3.26499e-12      143.464
       818.60000  3.26499e-12      143.333
       818.70000  3.26499e-12      143.203
       818.80000  3.18228e-12      139.447
       818.90000  3.18228e-12      139.384
       819.00000  3.18228e-12      139.288
       819.10000  3.18228e-12      139.257
       819.20000  3.18228e-12      139.225
       819.30000  3.18228e-12      139.193
       819.40000  3.18228e-12      139.193
       819.50000  3.22318e-12      141.014
       819.60000  3.22318e-12      141.047
       819.70000  3.22318e-12      141.111
       819.80000  3.22318e-12      141.208
       819.90000  3.22318e-12      141.304
       820.00000  3.22318e-12      141.433
       820.10000  3.22318e-12      141.562
       820.20000  3.22318e-12      141.723
       820.30000  3.22318e-12      141.917
       820.40000  3.22318e-12      142.110
       820.50000  1.49634e-12      66.0783
       820.60000  1.49634e-12      66.1830
       820.70000  1.49634e-12      66.3027
       820.80000  1.49634e-12      66.4225
       820.90000  1.49634e-12      66.5571
       821.00000  1.49634e-12      66.7068
       821.10000  1.49634e-12      66.6768
       821.20000  1.49634e-12      66.6619
       821.30000  1.46183e-12      65.0953
       821.40000  1.46183e-12      65.0806
       821.50000  1.64805e-12      73.3382
       821.60000  1.64805e-12      73.3218
       821.70000  1.64805e-12      73.3053
       821.80000  1.64805e-12      73.2723
       821.90000  1.64805e-12      73.2558
       822.00000  1.64805e-12      73.2394
       822.10000  1.64805e-12      73.2394
       822.20000  1.64805e-12      73.2229
       822.30000  1.64805e-12      73.2064
       822.40000  1.64805e-12      73.2064
       822.50000  3.19475e-12      141.879
       822.60000  3.19475e-12      141.879
       822.70000  3.19475e-12      141.847
       822.80000  3.19475e-12      141.847
       822.90000  3.19475e-12      141.847
       823.00000  3.19475e-12      141.847
       823.10000  3.19475e-12      141.847
       823.20000  3.19475e-12      141.847
       823.30000  3.19475e-12      141.847
       823.40000  3.19475e-12      141.847
       823.50000  4.25257e-12      188.856
       823.60000  4.25257e-12      188.856
       823.70000  4.25257e-12      188.899
       823.80000  4.15803e-12      184.700
       823.90000  4.15803e-12      184.741
       824.00000  4.15803e-12      184.783
       824.10000  4.15803e-12      184.825
       824.20000  4.15803e-12      184.866
       824.30000  4.15803e-12      184.908
       824.40000  4.15803e-12      184.991
       824.50000  3.28623e-12      146.237
       824.60000  3.28623e-12      146.303
       824.70000  3.28623e-12      146.336
       824.80000  3.28623e-12      146.402
       824.90000  3.28623e-12      146.467
       825.00000  3.28623e-12      146.533
       825.10000  3.28623e-12      146.599
       825.20000  3.28623e-12      146.665
       825.30000  3.28623e-12      146.763
       825.40000  3.28623e-12      146.829
       825.50000  4.55141e-12      203.494
       825.60000  4.55141e-12      203.585
       825.70000  4.55141e-12      203.721
       825.80000  4.55141e-12      203.858
       825.90000  4.55141e-12      203.994
       826.00000  4.55141e-12      204.131
       826.10000  4.55141e-12      204.267
       826.20000  4.55141e-12      204.358
       826.30000  4.45877e-12      200.332
       826.40000  4.45877e-12      200.422
       826.50000  4.05719e-12      182.411
       826.60000  4.05719e-12      182.492
       826.70000  4.05719e-12      182.574
       826.80000  4.05719e-12      182.614
       826.90000  4.05719e-12      182.655
       827.00000  4.05719e-12      182.695
       827.10000  4.05719e-12      182.695
       827.20000  4.05719e-12      182.736
       827.30000  4.05719e-12      182.736
       827.40000  4.05719e-12      182.736
       827.50000  4.59710e-12      207.054
       827.60000  4.59710e-12      207.054
       827.70000  4.59710e-12      207.008
       827.80000  4.59710e-12      206.962
       827.90000  4.59710e-12      206.916
       828.00000  4.59710e-12      206.870
       828.10000  4.59710e-12      206.732
       828.20000  4.59710e-12      206.548
       828.30000  4.59710e-12      206.364
       828.40000  4.59710e-12      206.180
       828.50000  5.32215e-12      238.539
       828.60000  5.32215e-12      238.326
       828.70000  5.32215e-12      238.166
       828.80000  5.21765e-12      233.333
       828.90000  5.21765e-12      233.125
       829.00000  5.21765e-12      232.968
       829.10000  5.21765e-12      232.812
       829.20000  5.21765e-12      232.655
       829.30000  5.21765e-12      232.498
       829.40000  5.21765e-12      232.342
       829.50000  4.40274e-12      195.922
       829.60000  4.40274e-12      195.790
       829.70000  4.40274e-12      195.658
       829.80000  4.40274e-12      195.526
       829.90000  4.40274e-12      195.437
       830.00000  4.40274e-12      195.305
       830.10000  4.40274e-12      195.217
       830.20000  4.40274e-12      195.085
       830.30000  4.40274e-12      194.997
       830.40000  4.40274e-12      194.865
       830.50000  2.91253e-12      128.850
       830.60000  2.91253e-12      128.792
       830.70000  2.91253e-12      128.705
       830.80000  2.91253e-12      128.646
       830.90000  2.91253e-12      128.588
       831.00000  2.91253e-12      128.530
       831.10000  2.91253e-12      128.472
       831.20000  2.91253e-12      128.413
       831.30000  2.85449e-12      125.826
       831.40000  2.85449e-12      125.769
       831.50000  4.91180e-12      216.315
       831.60000  4.91180e-12      216.266
       831.70000  4.91180e-12      216.168
       831.80000  4.91180e-12      216.070
       831.90000  4.91180e-12      216.021
       832.00000  4.91180e-12      215.972
       832.10000  4.91180e-12      215.775
       832.20000  4.91180e-12      215.579
       832.30000  4.91180e-12      215.431
       832.40000  4.91180e-12      215.284
       832.50000  7.64815e-12      334.989
       832.60000  7.64815e-12      334.836
       832.70000  7.64815e-12      334.683
       832.80000  7.64815e-12      334.453
       832.90000  7.64815e-12      334.377
       833.00000  7.64815e-12      334.224
       833.10000  7.64815e-12      334.071
       833.20000  7.64815e-12      333.995
       833.30000  7.64815e-12      333.918
       833.40000  7.64815e-12      333.842
       833.50000  7.59153e-12      331.370
       833.60000  7.59153e-12      331.294
       833.70000  7.59153e-12      331.294
       833.80000  7.44986e-12      325.112
       833.90000  7.44986e-12      325.186
       834.00000  7.44986e-12      325.186
       834.10000  7.44986e-12      325.559
       834.20000  7.44986e-12      325.857
       834.30000  7.44986e-12      326.229
       834.40000  7.44986e-12      326.527
       834.50000  6.47293e-12      283.968
       834.60000  6.47293e-12      284.227
       834.70000  6.47293e-12      284.421
       834.80000  6.47293e-12      284.615
       834.90000  6.47293e-12      284.874
       835.00000  6.47293e-12      285.068
       835.10000  6.47293e-12      285.197
       835.20000  6.47293e-12      285.392
       835.30000  6.47293e-12      285.521
       835.40000  6.47293e-12      285.651
       835.50000  8.56980e-12      378.357
       835.60000  8.56980e-12      378.528
       835.70000  8.56980e-12      378.614
       835.80000  8.56980e-12      378.785
       835.90000  8.56980e-12      378.871
       836.00000  8.56980e-12      378.957
       836.10000  8.56980e-12      378.785
       836.20000  8.56980e-12      378.699
       836.30000  8.43129e-12      372.410
       836.40000  8.43129e-12      372.326
       836.50000  6.81459e-12      300.864
       836.60000  6.81459e-12      300.728
       836.70000  6.81459e-12      300.660
       836.80000  6.81459e-12      300.591
       836.90000  6.81459e-12      300.455
       837.00000  6.81459e-12      300.387
       837.10000  6.81459e-12      300.319
       837.20000  6.81459e-12      300.251
       837.30000  6.81459e-12      300.183
       837.40000  6.81459e-12      300.114
       837.50000  1.07060e-11      471.385
       837.60000  1.07060e-11      471.278
       837.70000  1.07060e-11      471.171
       837.80000  1.07060e-11      471.064
       837.90000  1.07060e-11      471.064
       838.00000  1.07060e-11      470.957
       838.10000  1.07060e-11      470.850
       838.20000  1.07060e-11      470.850
       838.30000  1.07060e-11      470.850
       838.40000  1.07060e-11      470.850
       838.50000  7.57901e-12      333.249
       838.60000  7.57901e-12      333.249
       838.70000  7.57901e-12      333.249
       838.80000  7.46758e-12      328.275
       838.90000  7.46758e-12      328.275
       839.00000  7.46758e-12      328.275
       839.10000  7.46758e-12      328.200
       839.20000  7.46758e-12      328.200
       839.30000  7.46758e-12      328.200
       839.40000  7.46758e-12      328.126
       839.50000  1.11398e-11      489.481
       839.60000  1.11398e-11      489.481
       839.70000  1.11398e-11      489.370
       839.80000  1.11398e-11      489.370
       839.90000  1.11398e-11      489.370
       840.00000  1.11398e-11      489.259
       840.10000  1.11398e-11      489.259
       840.20000  1.11398e-11      489.259
       840.30000  1.11398e-11      489.147
       840.40000  1.11398e-11      489.147
       840.50000  1.36338e-11      598.662
       840.60000  1.36338e-11      598.525
       840.70000  1.36338e-11      598.525
       840.80000  1.36338e-11      598.525
       840.90000  1.36338e-11      598.389
       841.00000  1.36338e-11      598.389
       841.10000  1.36338e-11      598.389
       841.20000  1.36338e-11      598.389
       841.30000  1.34131e-11      588.566
       841.40000  1.34131e-11      588.566
       841.50000  1.09689e-11      481.316
       841.60000  1.09689e-11      481.207
       841.70000  1.09689e-11      481.207
       841.80000  1.09689e-11      481.207
       841.90000  1.09689e-11      481.097
       842.00000  1.09689e-11      481.097
       842.10000  1.09689e-11      480.658
       842.20000  1.09689e-11      480.329
       842.30000  1.09689e-11      480.000
       842.40000  1.09689e-11      479.561
       842.50000  1.08108e-11      472.325
       842.60000  1.08108e-11      472.108
       842.70000  1.08108e-11      471.784
       842.80000  1.08108e-11      471.568
       842.90000  1.08108e-11      471.244
       843.00000  1.08108e-11      471.027
       843.10000  1.08108e-11      470.811
       843.20000  1.08108e-11      470.595
       843.30000  1.08108e-11      470.487
       843.40000  1.08108e-11      470.271
       843.50000  1.18636e-11      515.946
       843.60000  1.18636e-11      515.828
       843.70000  1.18636e-11      515.709
       843.80000  1.16567e-11      506.598
       843.90000  1.16567e-11      506.598
       844.00000  1.16567e-11      506.481
       844.10000  1.16567e-11      506.831
       844.20000  1.16567e-11      507.064
       844.30000  1.16567e-11      507.297
       844.40000  1.16567e-11      507.531
       844.50000  1.39143e-11      606.109
       844.60000  1.39143e-11      606.387
       844.70000  1.39143e-11      606.526
       844.80000  1.39143e-11      606.805
       844.90000  1.39143e-11      606.944
       845.00000  1.39143e-11      607.222
       845.10000  1.39143e-11      607.361
       845.20000  1.39143e-11      607.500
       845.30000  1.39143e-11      607.779
       845.40000  1.39143e-11      607.918
       845.50000  1.26010e-11      550.538
       845.60000  1.26010e-11      550.664
       845.70000  1.26010e-11      550.790
       845.80000  1.26010e-11      550.916
       845.90000  1.26010e-11      550.916
       846.00000  1.26010e-11      551.042
       846.10000  1.26010e-11      551.042
       846.20000  1.26010e-11      551.042
       846.30000  1.23651e-11      540.726
       846.40000  1.23651e-11      540.849
       846.50000  1.35527e-11      592.794
       846.60000  1.35527e-11      592.658
       846.70000  1.35527e-11      592.658
       846.80000  1.35527e-11      592.658
       846.90000  1.35527e-11      592.522
       847.00000  1.35527e-11      592.522
       847.10000  1.35527e-11      592.387
       847.20000  1.35527e-11      592.387
       847.30000  1.35527e-11      592.251
       847.40000  1.35527e-11      592.116
       847.50000  1.56312e-11      682.771
       847.60000  1.56312e-11      682.615
       847.70000  1.56312e-11      682.458
       847.80000  1.56312e-11      682.302
       847.90000  1.56312e-11      681.990
       848.00000  1.56312e-11      681.833
       848.10000  1.56312e-11      678.551
       848.20000  1.56312e-11      675.581
       848.30000  1.56312e-11      672.611
       848.40000  1.56312e-11      669.797
       848.50000  1.15040e-11      490.990
       848.60000  1.15040e-11      489.264
       848.70000  1.15040e-11      487.539
       848.80000  1.12936e-11      477.041
       848.90000  1.12936e-11      475.572
       849.00000  1.12936e-11      474.217
       849.10000  1.12936e-11      472.862
       849.20000  1.12936e-11      471.733
       849.30000  1.12936e-11      470.716
       849.40000  1.12936e-11      469.700
       849.50000  1.04509e-09      43392.1
       849.60000  1.04509e-09      43318.9
       849.70000  1.04509e-09      43266.7
       849.80000  1.04509e-09      43214.4
       849.90000  1.04509e-09      43172.6
       850.00000  1.04509e-09      43141.3
       850.10000  1.04509e-09      43371.2
       850.20000  1.04509e-09      43590.6
       850.30000  1.04509e-09      43789.2
       850.40000  1.04509e-09      43966.9
       850.50000  1.01909e-09      43036.0
       850.60000  1.01909e-09      43178.7
       850.70000  1.01909e-09      43301.0
       850.80000  1.01909e-09      43413.1
       850.90000  1.01909e-09      43504.8
       851.00000  1.01909e-09      43586.3
       851.10000  1.01909e-09      43647.5
       851.20000  1.01909e-09      43698.4
       851.30000  1.00153e-09      42975.5
       851.40000  1.00153e-09      42985.5
       851.50000  1.05206e-09      45154.3
       851.60000  1.05206e-09      45133.3
       851.70000  1.05206e-09      45101.7
       851.80000  1.05206e-09      45049.1
       851.90000  1.05206e-09      44975.5
       852.00000  1.05206e-09      44891.3
       852.10000  1.05206e-09      44786.1
       852.20000  1.05206e-09      44670.4
       852.30000  1.05206e-09      44533.6
       852.40000  1.05206e-09      44386.3
       852.50000  1.74077e-09      73147.4
       852.60000  1.74077e-09      72851.4
       852.70000  1.74077e-09      72503.3
       852.80000  1.74077e-09      72155.1
       852.90000  1.74077e-09      71754.7
       853.00000  1.74077e-09      71337.0
       853.10000  1.74077e-09      70884.4
       853.20000  1.74077e-09      70414.3
       853.30000  1.74077e-09      69909.5
       853.40000  1.74077e-09      69387.3
       853.50000  1.83852e-09      72695.0
       853.60000  1.83852e-09      72069.9
       853.70000  1.83852e-09      71426.5
       853.80000  1.80705e-09      69535.5
       853.90000  1.80705e-09      68848.8
       854.00000  1.80705e-09      68126.0
       854.10000  1.80705e-09      68632.0
       854.20000  1.80705e-09      69137.9
       854.30000  1.80705e-09      69625.8
       854.40000  1.80705e-09      70095.7
       854.50000  1.88923e-09      73755.4
       854.60000  1.88923e-09      74227.7
       854.70000  1.88923e-09      74681.1
       854.80000  1.88923e-09      75115.7
       854.90000  1.88923e-09      75550.2
       855.00000  1.88923e-09      75965.8
       855.10000  1.88923e-09      76362.5
       855.20000  1.88923e-09      76740.4
       855.30000  1.88923e-09      77118.2
       855.40000  1.88923e-09      77458.3
       855.50000  1.55343e-09      63985.6
       855.60000  1.55343e-09      64249.7
       855.70000  1.55343e-09      64513.8
       855.80000  1.55343e-09      64762.3
       855.90000  1.55343e-09      64995.3
       856.00000  1.55343e-09      65212.8
       856.10000  1.55343e-09      65383.7
       856.20000  1.55343e-09      65539.0
       856.30000  1.52205e-09      64367.4
       856.40000  1.52205e-09      64519.6
       856.50000  1.50945e-09      64121.5
       856.60000  1.50945e-09      64257.3
       856.70000  1.50945e-09      64378.1
       856.80000  1.50945e-09      64498.8
       856.90000  1.50945e-09      64604.5
       857.00000  1.50945e-09      64710.1
       857.10000  1.50945e-09      64815.8
       857.20000  1.50945e-09      64906.4
       857.30000  1.50945e-09      64996.9
       857.40000  1.50945e-09      65072.4
       857.50000  1.79777e-09      77591.7
       857.60000  1.79777e-09      77681.6
       857.70000  1.79777e-09      77753.5
       857.80000  1.79777e-09      77825.4
       857.90000  1.79777e-09      77879.3
       858.00000  1.79777e-09      77951.2
       858.10000  1.79777e-09      77987.2
       858.20000  1.79777e-09      78023.1
       858.30000  1.79777e-09      78059.1
       858.40000  1.79777e-09      78077.1
       858.50000  1.98921e-09      86411.3
       858.60000  1.98921e-09      86431.2
       858.70000  1.98921e-09      86431.2
       858.80000  1.94667e-09      84582.7
       858.90000  1.94667e-09      84563.2
       859.00000  1.94667e-09      84543.8
       859.10000  1.94667e-09      84524.3
       859.20000  1.94667e-09      84485.4
       859.30000  1.94667e-09      84446.4
       859.40000  1.94667e-09      84388.0
       859.50000  2.59070e-09      112229.
       859.60000  2.59070e-09      112151.
       859.70000  2.59070e-09      112048.
       859.80000  2.59070e-09      111918.
       859.90000  2.59070e-09      111815.
       860.00000  2.59070e-09      111685.
       860.10000  2.59070e-09      111659.
       860.20000  2.59070e-09      111633.
       860.30000  2.59070e-09      111633.
       860.40000  2.59070e-09      111633.
       860.50000  1.40938e-09      60716.0
       860.60000  1.40938e-09      60716.0
       860.70000  1.40938e-09      60716.0
       860.80000  1.40938e-09      60716.0
       860.90000  1.40938e-09      60716.0
       861.00000  1.40938e-09      60716.0
       861.10000  1.40938e-09      60716.0
       861.20000  1.40938e-09      60716.0
       861.30000  1.37942e-09      59425.2
       861.40000  1.37942e-09      59439.0
       861.50000  3.38485e-09      145853.
       861.60000  3.38485e-09      145853.
       861.70000  3.38485e-09      145887.
       861.80000  3.38485e-09      145921.
       861.90000  3.38485e-09      145921.
       862.00000  3.38485e-09      145955.
       862.10000  3.38485e-09      146428.
       862.20000  3.38485e-09      146835.
       862.30000  3.38485e-09      147207.
       862.40000  3.38485e-09      147545.
       862.50000  4.06325e-09      177442.
       862.60000  4.06325e-09      177727.
       862.70000  4.06325e-09      177970.
       862.80000  4.06325e-09      178174.
       862.90000  4.06325e-09      178295.
       863.00000  4.06325e-09      178377.
       863.10000  4.06325e-09      178417.
       863.20000  4.06325e-09      178417.
       863.30000  4.06325e-09      178336.
       863.40000  4.06325e-09      178214.
       863.50000  7.44115e-09      326071.
       863.60000  7.44115e-09      325625.
       863.70000  7.44115e-09      325104.
       863.80000  7.28205e-09      317570.
       863.90000  7.28205e-09      316915.
       864.00000  7.28205e-09      316114.
       864.10000  7.28205e-09      315240.
       864.20000  7.28205e-09      314293.
       864.30000  7.28205e-09      313201.
       864.40000  7.28205e-09      312109.
       864.50000  5.94143e-09      253580.
       864.60000  5.94143e-09      252511.
       864.70000  5.94143e-09      251322.
       864.80000  5.94143e-09      250134.
       864.90000  5.94143e-09      248768.
       865.00000  5.94143e-09      247401.
       865.10000  5.94143e-09      245916.
       865.20000  5.94143e-09      244371.
       865.30000  5.94143e-09      242767.
       865.40000  5.94143e-09      241044.
       865.50000  7.45986e-09      300409.
       865.60000  7.45986e-09      298096.
       865.70000  7.45986e-09      295709.
       865.80000  7.45986e-09      293172.
       865.90000  7.45986e-09      290562.
       866.00000  7.45986e-09      287876.
       866.10000  7.45986e-09      288920.
       866.20000  7.45986e-09      289890.
       866.30000  7.30119e-09      284746.
       866.40000  7.30119e-09      285695.
       866.50000  9.20441e-09      361365.
       866.60000  9.20441e-09      362562.
       866.70000  9.20441e-09      363758.
       866.80000  9.20441e-09      364955.
       866.90000  9.20441e-09      366059.
       867.00000  9.20441e-09      367164.
       867.10000  9.20441e-09      368268.
       867.20000  9.20441e-09      369373.
       867.30000  9.20441e-09      370477.
       867.40000  9.20441e-09      371490.
       867.50000  1.18237e-08      478506.
       867.60000  1.18237e-08      479807.
       867.70000  1.18237e-08      481107.
       867.80000  1.18237e-08      482408.
       867.90000  1.18237e-08      483590.
       868.00000  1.18237e-08      484772.
       868.10000  1.18237e-08      486073.
       868.20000  1.18237e-08      487374.
       868.30000  1.18237e-08      488556.
       868.40000  1.18237e-08      489738.
       868.50000  1.55173e-08      644280.
       868.60000  1.55173e-08      645676.
       868.70000  1.55173e-08      647228.
       868.80000  1.51776e-08      634273.
       868.90000  1.51776e-08      635639.
       869.00000  1.51776e-08      636853.
       869.10000  1.51776e-08      638067.
       869.20000  1.51776e-08      639281.
       869.30000  1.51776e-08      640495.
       869.40000  1.51776e-08      641558.
       869.50000  1.96114e-08      830347.
       869.60000  1.96114e-08      831523.
       869.70000  1.96114e-08      832700.
       869.80000  1.96114e-08      833877.
       869.90000  1.96114e-08      835053.
       870.00000  1.96114e-08      836230.
       870.10000  1.96114e-08      837211.
       870.20000  1.96114e-08      838191.
       870.30000  1.96114e-08      838976.
       870.40000  1.96114e-08      839760.
       870.50000  2.60558e-08  1.11675e+06
       870.60000  2.60558e-08  1.11780e+06
       870.70000  2.60558e-08  1.11858e+06
       870.80000  2.60558e-08  1.11962e+06
       870.90000  2.60558e-08  1.12014e+06
       871.00000  2.60558e-08  1.12092e+06
       871.10000  2.60558e-08  1.12144e+06
       871.20000  2.60558e-08  1.12196e+06
       871.30000  2.55096e-08  1.09895e+06
       871.40000  2.55096e-08  1.09921e+06
       871.50000  3.44168e-08  1.48337e+06
       871.60000  3.44168e-08  1.48371e+06
       871.70000  3.44168e-08  1.48371e+06
       871.80000  3.44168e-08  1.48405e+06
       871.90000  3.44168e-08  1.48371e+06
       872.00000  3.44168e-08  1.48371e+06
       872.10000  3.44168e-08  1.48268e+06
       872.20000  3.44168e-08  1.48199e+06
       872.30000  3.44168e-08  1.48096e+06
       872.40000  3.44168e-08  1.48027e+06
       872.50000  4.62054e-08  1.98591e+06
       872.60000  4.62054e-08  1.98499e+06
       872.70000  4.62054e-08  1.98406e+06
       872.80000  4.62054e-08  1.98314e+06
       872.90000  4.62054e-08  1.98175e+06
       873.00000  4.62054e-08  1.98083e+06
       873.10000  4.62054e-08  1.97990e+06
       873.20000  4.62054e-08  1.97898e+06
       873.30000  4.62054e-08  1.97806e+06
       873.40000  4.62054e-08  1.97713e+06
       873.50000  6.23784e-08  2.66792e+06
       873.60000  6.23784e-08  2.66668e+06
       873.70000  6.23784e-08  2.66543e+06
       873.80000  6.09627e-08  2.60433e+06
       873.90000  6.09627e-08  2.60311e+06
       874.00000  6.09627e-08  2.60189e+06
       874.10000  6.09627e-08  2.60006e+06
       874.20000  6.09627e-08  2.59823e+06
       874.30000  6.09627e-08  2.59701e+06
       874.40000  6.09627e-08  2.59518e+06
       874.50000  8.48106e-08  3.60869e+06
       874.60000  8.48106e-08  3.60699e+06
       874.70000  8.48106e-08  3.60530e+06
       874.80000  8.48106e-08  3.60445e+06
       874.90000  8.48106e-08  3.60275e+06
       875.00000  8.48106e-08  3.60191e+06
       875.10000  8.48106e-08  3.60106e+06
       875.20000  8.48106e-08  3.60021e+06
       875.30000  8.48106e-08  3.60021e+06
       875.40000  8.48106e-08  3.59936e+06
       875.50000  1.13945e-07  4.83582e+06
       875.60000  1.13945e-07  4.83582e+06
       875.70000  1.13945e-07  4.83582e+06
       875.80000  1.13945e-07  4.83696e+06
       875.90000  1.13945e-07  4.83696e+06
       876.00000  1.13945e-07  4.83809e+06
       876.10000  1.13945e-07  4.83923e+06
       876.20000  1.13945e-07  4.84037e+06
       876.30000  1.11224e-07  4.72590e+06
       876.40000  1.11224e-07  4.72813e+06
       876.50000  1.49820e-07  6.37186e+06
       876.60000  1.49820e-07  6.37486e+06
       876.70000  1.49820e-07  6.37785e+06
       876.80000  1.49820e-07  6.38085e+06
       876.90000  1.49820e-07  6.38534e+06
       877.00000  1.49820e-07  6.38984e+06
       877.10000  1.49820e-07  6.39433e+06
       877.20000  1.49820e-07  6.39883e+06
       877.30000  1.49820e-07  6.40332e+06
       877.40000  1.49820e-07  6.40932e+06
       877.50000  2.00876e-07  8.60152e+06
       877.60000  2.00876e-07  8.60955e+06
       877.70000  2.00876e-07  8.61759e+06
       877.80000  2.00876e-07  8.62562e+06
       877.90000  2.00876e-07  8.63567e+06
       878.00000  2.00876e-07  8.64571e+06
       878.10000  2.00876e-07  8.63366e+06
       878.20000  2.00876e-07  8.62362e+06
       878.30000  2.00876e-07  8.61357e+06
       878.40000  2.00876e-07  8.60353e+06
       878.50000  2.57708e-07  1.10248e+07
       878.60000  2.57708e-07  1.10144e+07
       878.70000  2.57708e-07  1.10016e+07
       878.80000  2.51421e-07  1.07231e+07
       878.90000  2.51421e-07  1.07130e+07
       879.00000  2.51421e-07  1.07030e+07
       879.10000  2.51421e-07  1.06929e+07
       879.20000  2.51421e-07  1.06854e+07
       879.30000  2.51421e-07  1.06753e+07
       879.40000  2.51421e-07  1.06678e+07
       879.50000  1.54997e-07  6.57187e+06
       879.60000  1.54997e-07  6.56722e+06
       879.70000  1.54997e-07  6.56257e+06
       879.80000  1.54997e-07  6.55947e+06
       879.90000  1.54997e-07  6.55482e+06
       880.00000  1.54997e-07  6.55172e+06
       880.10000  1.54997e-07  6.55017e+06
       880.20000  1.54997e-07  6.54707e+06
       880.30000  1.54997e-07  6.54552e+06
       880.40000  1.54997e-07  6.54242e+06
       880.50000  3.68042e-07  1.55314e+07
       880.60000  3.68042e-07  1.55277e+07
       880.70000  3.68042e-07  1.55240e+07
       880.80000  3.68042e-07  1.55240e+07
       880.90000  3.68042e-07  1.55203e+07
       881.00000  3.68042e-07  1.55166e+07
       881.10000  3.68042e-07  1.55166e+07
       881.20000  3.68042e-07  1.55166e+07
       881.30000  3.59261e-07  1.51465e+07
       881.40000  3.59261e-07  1.51429e+07
       881.50000  4.04658e-07  1.70604e+07
       881.60000  4.04658e-07  1.70604e+07
       881.70000  4.04658e-07  1.70604e+07
       881.80000  4.04658e-07  1.70644e+07
       881.90000  4.04658e-07  1.70644e+07
       882.00000  4.04658e-07  1.70685e+07
       882.10000  4.04658e-07  1.70887e+07
       882.20000  4.04658e-07  1.71049e+07
       882.30000  4.04658e-07  1.71211e+07
       882.40000  4.04658e-07  1.71373e+07
       882.50000  4.34344e-07  1.84119e+07
       882.60000  4.34344e-07  1.84249e+07
       882.70000  4.34344e-07  1.84379e+07
       882.80000  4.34344e-07  1.84510e+07
       882.90000  4.34344e-07  1.84596e+07
       883.00000  4.34344e-07  1.84683e+07
       883.10000  4.34344e-07  1.84770e+07
       883.20000  4.34344e-07  1.84857e+07
       883.30000  4.34344e-07  1.84900e+07
       883.40000  4.34344e-07  1.84944e+07
       883.50000  4.48695e-07  1.91099e+07
       883.60000  4.48695e-07  1.91099e+07
       883.70000  4.48695e-07  1.91099e+07
       883.80000  4.38273e-07  1.86661e+07
       883.90000  4.38273e-07  1.86617e+07
       884.00000  4.38273e-07  1.86573e+07
       884.10000  4.38273e-07  1.86310e+07
       884.20000  4.38273e-07  1.86047e+07
       884.30000  4.38273e-07  1.85784e+07
       884.40000  4.38273e-07  1.85521e+07
       884.50000  2.19534e-07  9.27970e+06
       884.60000  2.19534e-07  9.26873e+06
       884.70000  2.19534e-07  9.25775e+06
       884.80000  2.19534e-07  9.24897e+06
       884.90000  2.19534e-07  9.23799e+06
       885.00000  2.19534e-07  9.22921e+06
       885.10000  2.19534e-07  9.22262e+06
       885.20000  2.19534e-07  9.21384e+06
       885.30000  2.19534e-07  9.20726e+06
       885.40000  2.19534e-07  9.20067e+06
       885.50000  4.31211e-07  1.80634e+07
       885.60000  4.31211e-07  1.80505e+07
       885.70000  4.31211e-07  1.80419e+07
       885.80000  4.31211e-07  1.80375e+07
       885.90000  4.31211e-07  1.80289e+07
       886.00000  4.31211e-07  1.80246e+07
       886.10000  4.31211e-07  1.80203e+07
       886.20000  4.31211e-07  1.80160e+07
       886.30000  4.21594e-07  1.76142e+07
       886.40000  4.21594e-07  1.76142e+07
       886.50000  2.05049e-07  8.56694e+06
       886.60000  2.05049e-07  8.56900e+06
       886.70000  2.05049e-07  8.57105e+06
       886.80000  2.05049e-07  8.57310e+06
       886.90000  2.05049e-07  8.57515e+06
       887.00000  2.05049e-07  8.57925e+06
       887.10000  2.05049e-07  8.58335e+06
       887.20000  2.05049e-07  8.58745e+06
       887.30000  2.05049e-07  8.59155e+06
       887.40000  2.05049e-07  8.59770e+06
       887.50000  1.98757e-07  8.33986e+06
       887.60000  1.98757e-07  8.34781e+06
       887.70000  1.98757e-07  8.35377e+06
       887.80000  1.98757e-07  8.36172e+06
       887.90000  1.98757e-07  8.37166e+06
       888.00000  1.98757e-07  8.37961e+06
       888.10000  1.98757e-07  8.38955e+06
       888.20000  1.98757e-07  8.39750e+06
       888.30000  1.98757e-07  8.40744e+06
       888.40000  1.98757e-07  8.41539e+06
       888.50000  1.93200e-07  8.18780e+06
       888.60000  1.93200e-07  8.19360e+06
       888.70000  1.93200e-07  8.19939e+06
       888.80000  1.89347e-07  8.04155e+06
       888.90000  1.89347e-07  8.04723e+06
       889.00000  1.89347e-07  8.05291e+06
       889.10000  1.89347e-07  8.05670e+06
       889.20000  1.89347e-07  8.06048e+06
       889.30000  1.89347e-07  8.06427e+06
       889.40000  1.89347e-07  8.06616e+06
       889.50000  1.84733e-07  7.87334e+06
       889.60000  1.84733e-07  7.87519e+06
       889.70000  1.84733e-07  7.87704e+06
       889.80000  1.84733e-07  7.87704e+06
       889.90000  1.84733e-07  7.87704e+06
       890.00000  1.84733e-07  7.87704e+06
       890.10000  1.84733e-07  7.87149e+06
       890.20000  1.84733e-07  7.86595e+06
       890.30000  1.84733e-07  7.86041e+06
       890.40000  1.84733e-07  7.85487e+06
       890.50000  1.81051e-07  7.69286e+06
       890.60000  1.81051e-07  7.68742e+06
       890.70000  1.81051e-07  7.68199e+06
       890.80000  1.81051e-07  7.67656e+06
       890.90000  1.81051e-07  7.67113e+06
       891.00000  1.81051e-07  7.66751e+06
       891.10000  1.81051e-07  7.66208e+06
       891.20000  1.81051e-07  7.65846e+06
       891.30000  1.77831e-07  7.51690e+06
       891.40000  1.77831e-07  7.51334e+06
       891.50000  1.75114e-07  7.39506e+06
       891.60000  1.75114e-07  7.39155e+06
       891.70000  1.75114e-07  7.38805e+06
       891.80000  1.75114e-07  7.38455e+06
       891.90000  1.75114e-07  7.38105e+06
       892.00000  1.75114e-07  7.37755e+06
       892.10000  1.75114e-07  7.37404e+06
       892.20000  1.75114e-07  7.37229e+06
       892.30000  1.75114e-07  7.36879e+06
       892.40000  1.75114e-07  7.36704e+06
       892.50000  1.73183e-07  7.28234e+06
       892.60000  1.73183e-07  7.28061e+06
       892.70000  1.73183e-07  7.27888e+06
       892.80000  1.73183e-07  7.27714e+06
       892.90000  1.73183e-07  7.27541e+06
       893.00000  1.73183e-07  7.27368e+06
       893.10000  1.73183e-07  7.27195e+06
       893.20000  1.73183e-07  7.27022e+06
       893.30000  1.73183e-07  7.26848e+06
       893.40000  1.73183e-07  7.26848e+06
       893.50000  1.71685e-07  7.20389e+06
       893.60000  1.71685e-07  7.20389e+06
       893.70000  1.71685e-07  7.20217e+06
       893.80000  1.68723e-07  7.07791e+06
       893.90000  1.68723e-07  7.07791e+06
       894.00000  1.68723e-07  7.07791e+06
       894.10000  1.68723e-07  7.08298e+06
       894.20000  1.68723e-07  7.08635e+06
       894.30000  1.68723e-07  7.09141e+06
       894.40000  1.68723e-07  7.09479e+06
       894.50000  1.64626e-07  6.92745e+06
       894.60000  1.64626e-07  6.93075e+06
       894.70000  1.64626e-07  6.93404e+06
       894.80000  1.64626e-07  6.93733e+06
       894.90000  1.64626e-07  6.94062e+06
       895.00000  1.64626e-07  6.94392e+06
       895.10000  1.64626e-07  6.94556e+06
       895.20000  1.64626e-07  6.94886e+06
       895.30000  1.64626e-07  6.95050e+06
       895.40000  1.64626e-07  6.95215e+06
       895.50000  1.47582e-07  6.23534e+06
       895.60000  1.47582e-07  6.23682e+06
       895.70000  1.47582e-07  6.23829e+06
       895.80000  1.47582e-07  6.23829e+06
       895.90000  1.47582e-07  6.23977e+06
       896.00000  1.47582e-07  6.24124e+06
       896.10000  1.47582e-07  6.24272e+06
       896.20000  1.47582e-07  6.24272e+06
       896.30000  1.45411e-07  6.15234e+06
       896.40000  1.45411e-07  6.15234e+06
       896.50000  1.63937e-07  6.93616e+06
       896.60000  1.63937e-07  6.93616e+06
       896.70000  1.63937e-07  6.93616e+06
       896.80000  1.63937e-07  6.93616e+06
       896.90000  1.63937e-07  6.93616e+06
       897.00000  1.63937e-07  6.93452e+06
       897.10000  1.63937e-07  6.93452e+06
       897.20000  1.63937e-07  6.93288e+06
       897.30000  1.63937e-07  6.93125e+06
       897.40000  1.63937e-07  6.92961e+06
       897.50000  1.63304e-07  6.89960e+06
       897.60000  1.63304e-07  6.89797e+06
       897.70000  1.63304e-07  6.89470e+06
       897.80000  1.63304e-07  6.89307e+06
       897.90000  1.63304e-07  6.88980e+06
       898.00000  1.63304e-07  6.88654e+06
       898.10000  1.63304e-07  6.88164e+06
       898.20000  1.63304e-07  6.87837e+06
       898.30000  1.63304e-07  6.87511e+06
       898.40000  1.63304e-07  6.87021e+06
       898.50000  1.62684e-07  6.83923e+06
       898.60000  1.62684e-07  6.83435e+06
       898.70000  1.62684e-07  6.82947e+06
       898.80000  1.60280e-07  6.72376e+06
       898.90000  1.60280e-07  6.71735e+06
       899.00000  1.60280e-07  6.71254e+06
       899.10000  1.60280e-07  6.70613e+06
       899.20000  1.60280e-07  6.69972e+06
       899.30000  1.60280e-07  6.69331e+06
       899.40000  1.60280e-07  6.68690e+06
       899.50000  1.59655e-07  6.65443e+06
       899.60000  1.59655e-07  6.64645e+06
       899.70000  1.59655e-07  6.64006e+06
       899.80000  1.59655e-07  6.63208e+06
       899.90000  1.59655e-07  6.62410e+06
       900.00000  1.59655e-07  6.61612e+06
       900.10000  1.59655e-07  6.59696e+06
       900.20000  1.59655e-07  6.58099e+06
       900.30000  1.59655e-07  6.56343e+06
       900.40000  1.59655e-07  6.54906e+06
       900.50000  1.35229e-07  5.53492e+06
       900.60000  1.35229e-07  5.52410e+06
       900.70000  1.35229e-07  5.51328e+06
       900.80000  1.35229e-07  5.50517e+06
       900.90000  1.35229e-07  5.49706e+06
       901.00000  1.35229e-07  5.48894e+06
       901.10000  1.35229e-07  5.48353e+06
       901.20000  1.35229e-07  5.47812e+06
       901.30000  1.33308e-07  5.39499e+06
       901.40000  1.33308e-07  5.39232e+06
       901.50000  1.47012e-07  5.94371e+06
       901.60000  1.47012e-07  5.94224e+06
       901.70000  1.47012e-07  5.94077e+06
       901.80000  1.47012e-07  5.94077e+06
       901.90000  1.47012e-07  5.94224e+06
       902.00000  1.47012e-07  5.94518e+06
       902.10000  1.47012e-07  5.96576e+06
       902.20000  1.47012e-07  5.98487e+06
       902.30000  1.47012e-07  6.00398e+06
       902.40000  1.47012e-07  6.02162e+06
       902.50000  1.56051e-07  6.41057e+06
       902.60000  1.56051e-07  6.42774e+06
       902.70000  1.56051e-07  6.44490e+06
       902.80000  1.56051e-07  6.46051e+06
       902.90000  1.56051e-07  6.47611e+06
       903.00000  1.56051e-07  6.49016e+06
       903.10000  1.56051e-07  6.50420e+06
       903.20000  1.56051e-07  6.51669e+06
       903.30000  1.56051e-07  6.52761e+06
       903.40000  1.56051e-07  6.53853e+06
       903.50000  1.26057e-07  5.28935e+06
       903.60000  1.26057e-07  5.29691e+06
       903.70000  1.26057e-07  5.30447e+06
       903.80000  1.24300e-07  5.23553e+06
       903.90000  1.24300e-07  5.24174e+06
       904.00000  1.24300e-07  5.24547e+06
       904.10000  1.24300e-07  5.24920e+06
       904.20000  1.24300e-07  5.25293e+06
       904.30000  1.24300e-07  5.25542e+06
       904.40000  1.24300e-07  5.25666e+06
       904.50000  1.13860e-07  4.81627e+06
       904.60000  1.13860e-07  4.81740e+06
       904.70000  1.13860e-07  4.81740e+06
       904.80000  1.13860e-07  4.81627e+06
       904.90000  1.13860e-07  4.81513e+06
       905.00000  1.13860e-07  4.81285e+06
       905.10000  1.13860e-07  4.81057e+06
       905.20000  1.13860e-07  4.80716e+06
       905.30000  1.13860e-07  4.80374e+06
       905.40000  1.13860e-07  4.79919e+06
       905.50000  1.21961e-07  5.13457e+06
       905.60000  1.21961e-07  5.12847e+06
       905.70000  1.21961e-07  5.12237e+06
       905.80000  1.21961e-07  5.11505e+06
       905.90000  1.21961e-07  5.10652e+06
       906.00000  1.21961e-07  5.09798e+06
       906.10000  1.21961e-07  5.09310e+06
       906.20000  1.21961e-07  5.08944e+06
       906.30000  1.20199e-07  5.01230e+06
       906.40000  1.20199e-07  5.00749e+06
       906.50000  1.27667e-07  5.31478e+06
       906.60000  1.27667e-07  5.31095e+06
       906.70000  1.27667e-07  5.30712e+06
       906.80000  1.27667e-07  5.30329e+06
       906.90000  1.27667e-07  5.29946e+06
       907.00000  1.27667e-07  5.29563e+06
       907.10000  1.27667e-07  5.29180e+06
       907.20000  1.27667e-07  5.28797e+06
       907.30000  1.27667e-07  5.28414e+06
       907.40000  1.27667e-07  5.28031e+06
       907.50000  1.46545e-07  6.05669e+06
       907.60000  1.46545e-07  6.05376e+06
       907.70000  1.46545e-07  6.04937e+06
       907.80000  1.46545e-07  6.04497e+06
       907.90000  1.46545e-07  6.04204e+06
       908.00000  1.46545e-07  6.03764e+06
       908.10000  1.46545e-07  6.03178e+06
       908.20000  1.46545e-07  6.02739e+06
       908.30000  1.46545e-07  6.02152e+06
       908.40000  1.46545e-07  6.01713e+06
       908.50000  1.15268e-07  4.72944e+06
       908.60000  1.15268e-07  4.72599e+06
       908.70000  1.15268e-07  4.72368e+06
       908.80000  1.13528e-07  4.64898e+06
       908.90000  1.13528e-07  4.64671e+06
       909.00000  1.13528e-07  4.64444e+06
       909.10000  1.13528e-07  4.64217e+06
       909.20000  1.13528e-07  4.63990e+06
       909.30000  1.13528e-07  4.63763e+06
       909.40000  1.13528e-07  4.63650e+06
       909.50000  1.15981e-07  4.73548e+06
       909.60000  1.15981e-07  4.73432e+06
       909.70000  1.15981e-07  4.73316e+06
       909.80000  1.15981e-07  4.73200e+06
       909.90000  1.15981e-07  4.73200e+06
       910.00000  1.15981e-07  4.73085e+06
       910.10000  1.15981e-07  4.73085e+06
       910.20000  1.15981e-07  4.73085e+06
       910.30000  1.15981e-07  4.73200e+06
       910.40000  1.15981e-07  4.73200e+06
       910.50000  1.14498e-07  4.67266e+06
       910.60000  1.14498e-07  4.67266e+06
       910.70000  1.14498e-07  4.67380e+06
       910.80000  1.14498e-07  4.67609e+06
       910.90000  1.14498e-07  4.67724e+06
       911.00000  1.14498e-07  4.67838e+06
       911.10000  1.14498e-07  4.68067e+06
       911.20000  1.14498e-07  4.68296e+06
       911.30000  1.12672e-07  4.61056e+06
       911.40000  1.12672e-07  4.61281e+06
       911.50000  1.19267e-07  4.88637e+06
       911.60000  1.19267e-07  4.88876e+06
       911.70000  1.19267e-07  4.89234e+06
       911.80000  1.19267e-07  4.89591e+06
       911.90000  1.19267e-07  4.89949e+06
       912.00000  1.19267e-07  4.90426e+06
       912.10000  1.19267e-07  4.91023e+06
       912.20000  1.19267e-07  4.91500e+06
       912.30000  1.19267e-07  4.91977e+06
       912.40000  1.19267e-07  4.92454e+06
       912.50000  9.74519e-08  4.02769e+06
       912.60000  9.74519e-08  4.03159e+06
       912.70000  9.74519e-08  4.03548e+06
       912.80000  9.74519e-08  4.03841e+06
       912.90000  9.74519e-08  4.04133e+06
       913.00000  9.74519e-08  4.04425e+06
       913.10000  9.74519e-08  4.04718e+06
       913.20000  9.74519e-08  4.04913e+06
       913.30000  9.74519e-08  4.05205e+06
       913.40000  9.74519e-08  4.05400e+06
       913.50000  1.05362e-07  4.38516e+06
       913.60000  1.05362e-07  4.38727e+06
       913.70000  1.05362e-07  4.38832e+06
       913.80000  1.03556e-07  4.31415e+06
       913.90000  1.03556e-07  4.31622e+06
       914.00000  1.03556e-07  4.31725e+06
       914.10000  1.03556e-07  4.31518e+06
       914.20000  1.03556e-07  4.31415e+06
       914.30000  1.03556e-07  4.31311e+06
       914.40000  1.03556e-07  4.31207e+06
       914.50000  1.07081e-07  4.45777e+06
       914.60000  1.07081e-07  4.45563e+06
       914.70000  1.07081e-07  4.45456e+06
       914.80000  1.07081e-07  4.45349e+06
       914.90000  1.07081e-07  4.45242e+06
       915.00000  1.07081e-07  4.45135e+06
       915.10000  1.07081e-07  4.45028e+06
       915.20000  1.07081e-07  4.44921e+06
       915.30000  1.07081e-07  4.44814e+06
       915.40000  1.07081e-07  4.44706e+06
       915.50000  9.07679e-08  3.76868e+06
       915.60000  9.07679e-08  3.76777e+06
       915.70000  9.07679e-08  3.76687e+06
       915.80000  9.07679e-08  3.76596e+06
       915.90000  9.07679e-08  3.76505e+06
       916.00000  9.07679e-08  3.76414e+06
       916.10000  9.07679e-08  3.76324e+06
       916.20000  9.07679e-08  3.76233e+06
       916.30000  8.90807e-08  3.69150e+06
       916.40000  8.90807e-08  3.69061e+06
       916.50000  1.17473e-07  4.86575e+06
       916.60000  1.17473e-07  4.86575e+06
       916.70000  1.17473e-07  4.86457e+06
       916.80000  1.17473e-07  4.86340e+06
       916.90000  1.17473e-07  4.86222e+06
       917.00000  1.17473e-07  4.86105e+06
       917.10000  1.17473e-07  4.86105e+06
       917.20000  1.17473e-07  4.85988e+06
       917.30000  1.17473e-07  4.85870e+06
       917.40000  1.17473e-07  4.85753e+06
       917.50000  1.04188e-07  4.30817e+06
       917.60000  1.04188e-07  4.30713e+06
       917.70000  1.04188e-07  4.30609e+06
       917.80000  1.04188e-07  4.30609e+06
       917.90000  1.04188e-07  4.30505e+06
       918.00000  1.04188e-07  4.30401e+06
       918.10000  1.04188e-07  4.30609e+06
       918.20000  1.04188e-07  4.30817e+06
       918.30000  1.04188e-07  4.31026e+06
       918.40000  1.04188e-07  4.31130e+06
       918.50000  9.62984e-08  3.98579e+06
       918.60000  9.62984e-08  3.98675e+06
       918.70000  9.62984e-08  3.98675e+06
       918.80000  9.44970e-08  3.91218e+06
       918.90000  9.44970e-08  3.91218e+06
       919.00000  9.44970e-08  3.91218e+06
       919.10000  9.44970e-08  3.91123e+06
       919.20000  9.44970e-08  3.91029e+06
       919.30000  9.44970e-08  3.90934e+06
       919.40000  9.44970e-08  3.90745e+06
       919.50000  8.85118e-08  3.65819e+06
       919.60000  8.85118e-08  3.65642e+06
       919.70000  8.85118e-08  3.65465e+06
       919.80000  8.85118e-08  3.65200e+06
       919.90000  8.85118e-08  3.65022e+06
       920.00000  8.85118e-08  3.64757e+06
       920.10000  8.85118e-08  3.63960e+06
       920.20000  8.85118e-08  3.63252e+06
       920.30000  8.85118e-08  3.62544e+06
       920.40000  8.85118e-08  3.61836e+06
       920.50000  9.68546e-08  3.95167e+06
       920.60000  9.68546e-08  3.94489e+06
       920.70000  9.68546e-08  3.93811e+06
       920.80000  9.68546e-08  3.93230e+06
       920.90000  9.68546e-08  3.92552e+06
       921.00000  9.68546e-08  3.91970e+06
       921.10000  9.68546e-08  3.91389e+06
       921.20000  9.68546e-08  3.90905e+06
       921.30000  9.49946e-08  3.82828e+06
       921.40000  9.49946e-08  3.82353e+06
       921.50000  9.76915e-08  3.92720e+06
       921.60000  9.76915e-08  3.92329e+06
       921.70000  9.76915e-08  3.91938e+06
       921.80000  9.76915e-08  3.91547e+06
       921.90000  9.76915e-08  3.91157e+06
       922.00000  9.76915e-08  3.90864e+06
       922.10000  9.76915e-08  3.90473e+06
       922.20000  9.76915e-08  3.90277e+06
       922.30000  9.76915e-08  3.89984e+06
       922.40000  9.76915e-08  3.89789e+06
       922.50000  8.48974e-08  3.38486e+06
       922.60000  8.48974e-08  3.38401e+06
       922.70000  8.48974e-08  3.38231e+06
       922.80000  8.48974e-08  3.38147e+06
       922.90000  8.48974e-08  3.38062e+06
       923.00000  8.48974e-08  3.37977e+06
       923.10000  8.48974e-08  3.37977e+06
       923.20000  8.48974e-08  3.37892e+06
       923.30000  8.48974e-08  3.37892e+06
       923.40000  8.48974e-08  3.37977e+06
       923.50000  8.53682e-08  3.39851e+06
       923.60000  8.53682e-08  3.39936e+06
       923.70000  8.53682e-08  3.40022e+06
       923.80000  8.37071e-08  3.33573e+06
       923.90000  8.37071e-08  3.33656e+06
       924.00000  8.37071e-08  3.33824e+06
       924.10000  8.37071e-08  3.33824e+06
       924.20000  8.37071e-08  3.33824e+06
       924.30000  8.37071e-08  3.33824e+06
       924.40000  8.37071e-08  3.33824e+06
       924.50000  8.72204e-08  3.47835e+06
       924.60000  8.72204e-08  3.47835e+06
       924.70000  8.72204e-08  3.47922e+06
       924.80000  8.72204e-08  3.48010e+06
       924.90000  8.72204e-08  3.48010e+06
       925.00000  8.72204e-08  3.48097e+06
       925.10000  8.72204e-08  3.48271e+06
       925.20000  8.72204e-08  3.48358e+06
       925.30000  8.72204e-08  3.48446e+06
       925.40000  8.72204e-08  3.48620e+06
       925.50000  9.93162e-08  3.97165e+06
       925.60000  9.93162e-08  3.97364e+06
       925.70000  9.93162e-08  3.97563e+06
       925.80000  9.93162e-08  3.97761e+06
       925.90000  9.93162e-08  3.97960e+06
       926.00000  9.93162e-08  3.98258e+06
       926.10000  9.93162e-08  3.98854e+06
       926.20000  9.93162e-08  3.99549e+06
       926.30000  9.73807e-08  3.92347e+06
       926.40000  9.73807e-08  3.92931e+06
       926.50000  1.04291e-07  4.21440e+06
       926.60000  1.04291e-07  4.21962e+06
       926.70000  1.04291e-07  4.22483e+06
       926.80000  1.04291e-07  4.23004e+06
       926.90000  1.04291e-07  4.23526e+06
       927.00000  1.04291e-07  4.23943e+06
       927.10000  1.04291e-07  4.24360e+06
       927.20000  1.04291e-07  4.24777e+06
       927.30000  1.04291e-07  4.25090e+06
       927.40000  1.04291e-07  4.25403e+06
       927.50000  8.79028e-08  3.58819e+06
       927.60000  8.79028e-08  3.58995e+06
       927.70000  8.79028e-08  3.59259e+06
       927.80000  8.79028e-08  3.59435e+06
       927.90000  8.79028e-08  3.59522e+06
       928.00000  8.79028e-08  3.59610e+06
       928.10000  8.79028e-08  3.59435e+06
       928.20000  8.79028e-08  3.59259e+06
       928.30000  8.79028e-08  3.58995e+06
       928.40000  8.79028e-08  3.58819e+06
       928.50000  9.36150e-08  3.81949e+06
       928.60000  9.36150e-08  3.81762e+06
       928.70000  9.36150e-08  3.81575e+06
       928.80000  9.18040e-08  3.74010e+06
       928.90000  9.18040e-08  3.73826e+06
       929.00000  9.18040e-08  3.73734e+06
       929.10000  9.18040e-08  3.73551e+06
       929.20000  9.18040e-08  3.73367e+06
       929.30000  9.18040e-08  3.73275e+06
       929.40000  9.18040e-08  3.73092e+06
       929.50000  9.82390e-08  3.99145e+06
       929.60000  9.82390e-08  3.99047e+06
       929.70000  9.82390e-08  3.98850e+06
       929.80000  9.82390e-08  3.98752e+06
       929.90000  9.82390e-08  3.98654e+06
       930.00000  9.82390e-08  3.98556e+06
       930.10000  9.82390e-08  3.98556e+06
       930.20000  9.82390e-08  3.98556e+06
       930.30000  9.82390e-08  3.98457e+06
       930.40000  9.82390e-08  3.98457e+06
       930.50000  8.92587e-08  3.62033e+06
       930.60000  8.92587e-08  3.62033e+06
       930.70000  8.92587e-08  3.61944e+06
       930.80000  8.92587e-08  3.61944e+06
       930.90000  8.92587e-08  3.61944e+06
       931.00000  8.92587e-08  3.61944e+06
       931.10000  8.92587e-08  3.61944e+06
       931.20000  8.92587e-08  3.61855e+06
       931.30000  8.76261e-08  3.55236e+06
       931.40000  8.76261e-08  3.55236e+06
       931.50000  9.36852e-08  3.79800e+06
       931.60000  9.36852e-08  3.79800e+06
       931.70000  9.36852e-08  3.79800e+06
       931.80000  9.36852e-08  3.79800e+06
       931.90000  9.36852e-08  3.79800e+06
       932.00000  9.36852e-08  3.79800e+06
       932.10000  9.36852e-08  3.79800e+06
       932.20000  9.36852e-08  3.79800e+06
       932.30000  9.36852e-08  3.79800e+06
       932.40000  9.36852e-08  3.79800e+06
       932.50000  9.23075e-08  3.74215e+06
       932.60000  9.23075e-08  3.74215e+06
       932.70000  9.23075e-08  3.74215e+06
       932.80000  9.23075e-08  3.74307e+06
       932.90000  9.23075e-08  3.74307e+06
       933.00000  9.23075e-08  3.74307e+06
       933.10000  9.23075e-08  3.74307e+06
       933.20000  9.23075e-08  3.74307e+06
       933.30000  9.23075e-08  3.74399e+06
       933.40000  9.23075e-08  3.74399e+06
       933.50000  8.80973e-08  3.57323e+06
       933.60000  8.80973e-08  3.57411e+06
       933.70000  8.80973e-08  3.57411e+06
       933.80000  8.66037e-08  3.51351e+06
       933.90000  8.66037e-08  3.51438e+06
       934.00000  8.66037e-08  3.51438e+06
       934.10000  8.66037e-08  3.51178e+06
       934.20000  8.66037e-08  3.50918e+06
       934.30000  8.66037e-08  3.50658e+06
       934.40000  8.66037e-08  3.50398e+06
       934.50000  8.65182e-08  3.49793e+06
       934.60000  8.65182e-08  3.49620e+06
       934.70000  8.65182e-08  3.49447e+06
       934.80000  8.65182e-08  3.49187e+06
       934.90000  8.65182e-08  3.49014e+06
       935.00000  8.65182e-08  3.48928e+06
       935.10000  8.65182e-08  3.48755e+06
       935.20000  8.65182e-08  3.48582e+06
       935.30000  8.65182e-08  3.48495e+06
       935.40000  8.65182e-08  3.48409e+06
       935.50000  8.51558e-08  3.42837e+06
       935.60000  8.51558e-08  3.42752e+06
       935.70000  8.51558e-08  3.42667e+06
       935.80000  8.51558e-08  3.42582e+06
       935.90000  8.51558e-08  3.42582e+06
       936.00000  8.51558e-08  3.42497e+06
       936.10000  8.51558e-08  3.42752e+06
       936.20000  8.51558e-08  3.43008e+06
       936.30000  8.37554e-08  3.37618e+06
       936.40000  8.37554e-08  3.37869e+06
       936.50000  8.38349e-08  3.38358e+06
       936.60000  8.38349e-08  3.38525e+06
       936.70000  8.38349e-08  3.38693e+06
       936.80000  8.38349e-08  3.38861e+06
       936.90000  8.38349e-08  3.38944e+06
       937.00000  8.38349e-08  3.39112e+06
       937.10000  8.38349e-08  3.39196e+06
       937.20000  8.38349e-08  3.39280e+06
       937.30000  8.38349e-08  3.39280e+06
       937.40000  8.38349e-08  3.39364e+06
       937.50000  8.24697e-08  3.33837e+06
       937.60000  8.24697e-08  3.33837e+06
       937.70000  8.24697e-08  3.33837e+06
       937.80000  8.24697e-08  3.33837e+06
       937.90000  8.24697e-08  3.33755e+06
       938.00000  8.24697e-08  3.33755e+06
       938.10000  8.24697e-08  3.33672e+06
       938.20000  8.24697e-08  3.33507e+06
       938.30000  8.24697e-08  3.33425e+06
       938.40000  8.24697e-08  3.33260e+06
       938.50000  8.11488e-08  3.27841e+06
       938.60000  8.11488e-08  3.27679e+06
       938.70000  8.11488e-08  3.27435e+06
       938.80000  7.98838e-08  3.22171e+06
       938.90000  7.98838e-08  3.21932e+06
       939.00000  7.98838e-08  3.21772e+06
       939.10000  7.98838e-08  3.21532e+06
       939.20000  7.98838e-08  3.21213e+06
       939.30000  7.98838e-08  3.20973e+06
       939.40000  7.98838e-08  3.20653e+06
       939.50000  7.85600e-08  3.15026e+06
       939.60000  7.85600e-08  3.14712e+06
       939.70000  7.85600e-08  3.14397e+06
       939.80000  7.85600e-08  3.14083e+06
       939.90000  7.85600e-08  3.13690e+06
       940.00000  7.85600e-08  3.13297e+06
       940.10000  7.85600e-08  3.12748e+06
       940.20000  7.85600e-08  3.12198e+06
       940.30000  7.85600e-08  3.11726e+06
       940.40000  7.85600e-08  3.11255e+06
       940.50000  7.72843e-08  3.05737e+06
       940.60000  7.72843e-08  3.05350e+06
       940.70000  7.72843e-08  3.04964e+06
       940.80000  7.72843e-08  3.04577e+06
       940.90000  7.72843e-08  3.04191e+06
       941.00000  7.72843e-08  3.03882e+06
       941.10000  7.72843e-08  3.03573e+06
       941.20000  7.72843e-08  3.03341e+06
       941.30000  7.61325e-08  2.98592e+06
       941.40000  7.61325e-08  2.98363e+06
       941.50000  7.48948e-08  2.93288e+06
       941.60000  7.48948e-08  2.93138e+06
       941.70000  7.48948e-08  2.92988e+06
       941.80000  7.48948e-08  2.92839e+06
       941.90000  7.48948e-08  2.92689e+06
       942.00000  7.48948e-08  2.92614e+06
       942.10000  7.48948e-08  2.92839e+06
       942.20000  7.48948e-08  2.92988e+06
       942.30000  7.48948e-08  2.93213e+06
       942.40000  7.48948e-08  2.93363e+06
       942.50000  7.29063e-08  2.85720e+06
       942.60000  7.29063e-08  2.85939e+06
       942.70000  7.29063e-08  2.86084e+06
       942.80000  7.29063e-08  2.86230e+06
       942.90000  7.29063e-08  2.86376e+06
       943.00000  7.29063e-08  2.86522e+06
       943.10000  7.29063e-08  2.86740e+06
       943.20000  7.29063e-08  2.86886e+06
       943.30000  7.29063e-08  2.87032e+06
       943.40000  7.29063e-08  2.87178e+06
       943.50000  7.18409e-08  2.83125e+06
       943.60000  7.18409e-08  2.83269e+06
       943.70000  7.18409e-08  2.83412e+06
       943.80000  7.07452e-08  2.79231e+06
       943.90000  7.07452e-08  2.79373e+06
       944.00000  7.07452e-08  2.79514e+06
       944.10000  7.07452e-08  2.79656e+06
       944.20000  7.07452e-08  2.79797e+06
       944.30000  7.07452e-08  2.79868e+06
       944.40000  7.07452e-08  2.80010e+06
       944.50000  6.76277e-08  2.67806e+06
       944.60000  6.76277e-08  2.67941e+06
       944.70000  6.76277e-08  2.68009e+06
       944.80000  6.76277e-08  2.68144e+06
       944.90000  6.76277e-08  2.68279e+06
       945.00000  6.76277e-08  2.68347e+06
       945.10000  6.76277e-08  2.68482e+06
       945.20000  6.76277e-08  2.68617e+06
       945.30000  6.76277e-08  2.68685e+06
       945.40000  6.76277e-08  2.68820e+06
       945.50000  6.90718e-08  2.74629e+06
       945.60000  6.90718e-08  2.74768e+06
       945.70000  6.90718e-08  2.74837e+06
       945.80000  6.90718e-08  2.74975e+06
       945.90000  6.90718e-08  2.75044e+06
       946.00000  6.90718e-08  2.75113e+06
       946.10000  6.90718e-08  2.75251e+06
       946.20000  6.90718e-08  2.75389e+06
       946.30000  6.80352e-08  2.71392e+06
       946.40000  6.80352e-08  2.71528e+06
       946.50000  6.69038e-08  2.67147e+06
       946.60000  6.69038e-08  2.67214e+06
       946.70000  6.69038e-08  2.67348e+06
       946.80000  6.69038e-08  2.67415e+06
       946.90000  6.69038e-08  2.67481e+06
       947.00000  6.69038e-08  2.67615e+06
       947.10000  6.69038e-08  2.67682e+06
       947.20000  6.69038e-08  2.67749e+06
       947.30000  6.69038e-08  2.67816e+06
       947.40000  6.69038e-08  2.67883e+06
       947.50000  6.57999e-08  2.63463e+06
       947.60000  6.57999e-08  2.63528e+06
       947.70000  6.57999e-08  2.63594e+06
       947.80000  6.57999e-08  2.63594e+06
       947.90000  6.57999e-08  2.63660e+06
       948.00000  6.57999e-08  2.63660e+06
       948.10000  6.57999e-08  2.63660e+06
       948.20000  6.57999e-08  2.63660e+06
       948.30000  6.57999e-08  2.63594e+06
       948.40000  6.57999e-08  2.63594e+06
       948.50000  6.15865e-08  2.46654e+06
       948.60000  6.15865e-08  2.46654e+06
       948.70000  6.15865e-08  2.46654e+06
       948.80000  6.05975e-08  2.42632e+06
       948.90000  6.05975e-08  2.42632e+06
       949.00000  6.05975e-08  2.42572e+06
       949.10000  6.05975e-08  2.42572e+06
       949.20000  6.05975e-08  2.42511e+06
       949.30000  6.05975e-08  2.42511e+06
       949.40000  6.05975e-08  2.42451e+06
       949.50000  6.26009e-08  2.50466e+06
       949.60000  6.26009e-08  2.50404e+06
       949.70000  6.26009e-08  2.50341e+06
       949.80000  6.26009e-08  2.50341e+06
       949.90000  6.26009e-08  2.50278e+06
       950.00000  6.26009e-08  2.50216e+06
       950.10000  6.26009e-08  2.50216e+06
       950.20000  6.26009e-08  2.50153e+06
       950.30000  6.26009e-08  2.50091e+06
       950.40000  6.26009e-08  2.50091e+06
       950.50000  6.17866e-08  2.46776e+06
       950.60000  6.17866e-08  2.46714e+06
       950.70000  6.17866e-08  2.46652e+06
       950.80000  6.17866e-08  2.46652e+06
       950.90000  6.17866e-08  2.46590e+06
       951.00000  6.17866e-08  2.46528e+06
       951.10000  6.17866e-08  2.46467e+06
       951.20000  6.17866e-08  2.46405e+06
       951.30000  6.07981e-08  2.42463e+06
       951.40000  6.07981e-08  2.42402e+06
       951.50000  5.85822e-08  2.33508e+06
       951.60000  5.85822e-08  2.33450e+06
       951.70000  5.85822e-08  2.33391e+06
       951.80000  5.85822e-08  2.33333e+06
       951.90000  5.85822e-08  2.33274e+06
       952.00000  5.85822e-08  2.33216e+06
       952.10000  5.85822e-08  2.32747e+06
       952.20000  5.85822e-08  2.32278e+06
       952.30000  5.85822e-08  2.31868e+06
       952.40000  5.85822e-08  2.31458e+06
       952.50000  5.61624e-08  2.21505e+06
       952.60000  5.61624e-08  2.21112e+06
       952.70000  5.61624e-08  2.20775e+06
       952.80000  5.61624e-08  2.20438e+06
       952.90000  5.61624e-08  2.20101e+06
       953.00000  5.61624e-08  2.19820e+06
       953.10000  5.61624e-08  2.19539e+06
       953.20000  5.61624e-08  2.19258e+06
       953.30000  5.61624e-08  2.19034e+06
       953.40000  5.61624e-08  2.18753e+06
       953.50000  5.85508e-08  2.27821e+06
       953.60000  5.85508e-08  2.27646e+06
       953.70000  5.85508e-08  2.27412e+06
       953.80000  5.75787e-08  2.23463e+06
       953.90000  5.75787e-08  2.23290e+06
       954.00000  5.75787e-08  2.23175e+06
       954.10000  5.75787e-08  2.23117e+06
       954.20000  5.75787e-08  2.23060e+06
       954.30000  5.75787e-08  2.23060e+06
       954.40000  5.75787e-08  2.23060e+06
       954.50000  5.68394e-08  2.20139e+06
       954.60000  5.68394e-08  2.20139e+06
       954.70000  5.68394e-08  2.20139e+06
       954.80000  5.68394e-08  2.20139e+06
       954.90000  5.68394e-08  2.20196e+06
       955.00000  5.68394e-08  2.20196e+06
       955.10000  5.68394e-08  2.20253e+06
       955.20000  5.68394e-08  2.20253e+06
       955.30000  5.68394e-08  2.20310e+06
       955.40000  5.68394e-08  2.20366e+06
       955.50000  5.53446e-08  2.14626e+06
       955.60000  5.53446e-08  2.14682e+06
       955.70000  5.53446e-08  2.14737e+06
       955.80000  5.53446e-08  2.14848e+06
       955.90000  5.53446e-08  2.14903e+06
       956.00000  5.53446e-08  2.15014e+06
       956.10000  5.53446e-08  2.15124e+06
       956.20000  5.53446e-08  2.15180e+06
       956.30000  5.44411e-08  2.11776e+06
       956.40000  5.44411e-08  2.11939e+06
       956.50000  5.28394e-08  2.05810e+06
       956.60000  5.28394e-08  2.05915e+06
       956.70000  5.28394e-08  2.06074e+06
       956.80000  5.28394e-08  2.06179e+06
       956.90000  5.28394e-08  2.06338e+06
       957.00000  5.28394e-08  2.06497e+06
       957.10000  5.28394e-08  2.06655e+06
       957.20000  5.28394e-08  2.06814e+06
       957.30000  5.28394e-08  2.07025e+06
       957.40000  5.28394e-08  2.07183e+06
       957.50000  5.09778e-08  2.00037e+06
       957.60000  5.09778e-08  2.00241e+06
       957.70000  5.09778e-08  2.00445e+06
       957.80000  5.09778e-08  2.00649e+06
       957.90000  5.09778e-08  2.00852e+06
       958.00000  5.09778e-08  2.01056e+06
       958.10000  5.09778e-08  2.01056e+06
       958.20000  5.09778e-08  2.01005e+06
       958.30000  5.09778e-08  2.01005e+06
       958.40000  5.09778e-08  2.01005e+06
       958.50000  5.10146e-08  2.01150e+06
       958.60000  5.10146e-08  2.01099e+06
       958.70000  5.10146e-08  2.01099e+06
       958.80000  5.01153e-08  1.97554e+06
       958.90000  5.01153e-08  1.97504e+06
       959.00000  5.01153e-08  1.97504e+06
       959.10000  5.01153e-08  1.97454e+06
       959.20000  5.01153e-08  1.97454e+06
       959.30000  5.01153e-08  1.97404e+06
       959.40000  5.01153e-08  1.97354e+06
       959.50000  4.84901e-08  1.90954e+06
       959.60000  4.84901e-08  1.90905e+06
       959.70000  4.84901e-08  1.90905e+06
       959.80000  4.84901e-08  1.90857e+06
       959.90000  4.84901e-08  1.90808e+06
       960.00000  4.84901e-08  1.90760e+06
       960.10000  4.84901e-08  1.90711e+06
       960.20000  4.84901e-08  1.90663e+06
       960.30000  4.84901e-08  1.90614e+06
       960.40000  4.84901e-08  1.90566e+06
       960.50000  4.94384e-08  1.94243e+06
       960.60000  4.94384e-08  1.94194e+06
       960.70000  4.94384e-08  1.94145e+06
       960.80000  4.94384e-08  1.94095e+06
       960.90000  4.94384e-08  1.94046e+06
       961.00000  4.94384e-08  1.93996e+06
       961.10000  4.94384e-08  1.93947e+06
       961.20000  4.94384e-08  1.93897e+06
       961.30000  4.85794e-08  1.90480e+06
       961.40000  4.85794e-08  1.90431e+06
       961.50000  4.52197e-08  1.77216e+06
       961.60000  4.52197e-08  1.77126e+06
       961.70000  4.52197e-08  1.77080e+06
       961.80000  4.52197e-08  1.77035e+06
       961.90000  4.52197e-08  1.76990e+06
       962.00000  4.52197e-08  1.76945e+06
       962.10000  4.52197e-08  1.76854e+06
       962.20000  4.52197e-08  1.76809e+06
       962.30000  4.52197e-08  1.76764e+06
       962.40000  4.52197e-08  1.76673e+06
       962.50000  4.35419e-08  1.70075e+06
       962.60000  4.35419e-08  1.70031e+06
       962.70000  4.35419e-08  1.69944e+06
       962.80000  4.35419e-08  1.69900e+06
       962.90000  4.35419e-08  1.69813e+06
       963.00000  4.35419e-08  1.69770e+06
       963.10000  4.35419e-08  1.69726e+06
       963.20000  4.35419e-08  1.69639e+06
       963.30000  4.35419e-08  1.69596e+06
       963.40000  4.35419e-08  1.69509e+06
       963.50000  4.14844e-08  1.61457e+06
       963.60000  4.14844e-08  1.61374e+06
       963.70000  4.14844e-08  1.61333e+06
       963.80000  4.07310e-08  1.58321e+06
       963.90000  4.07310e-08  1.58240e+06
       964.00000  4.07310e-08  1.58199e+06
       964.10000  4.07310e-08  1.58118e+06
       964.20000  4.07310e-08  1.57996e+06
       964.30000  4.07310e-08  1.57914e+06
       964.40000  4.07310e-08  1.57873e+06
       964.50000  4.19354e-08  1.62458e+06
       964.60000  4.19354e-08  1.62374e+06
       964.70000  4.19354e-08  1.62332e+06
       964.80000  4.19354e-08  1.62248e+06
       964.90000  4.19354e-08  1.62206e+06
       965.00000  4.19354e-08  1.62122e+06
       965.10000  4.19354e-08  1.62080e+06
       965.20000  4.19354e-08  1.62038e+06
       965.30000  4.19354e-08  1.61996e+06
       965.40000  4.19354e-08  1.61996e+06
       965.50000  4.00191e-08  1.54554e+06
       965.60000  4.00191e-08  1.54514e+06
       965.70000  4.00191e-08  1.54514e+06
       965.80000  4.00191e-08  1.54474e+06
       965.90000  4.00191e-08  1.54474e+06
       966.00000  4.00191e-08  1.54474e+06
       966.10000  4.00191e-08  1.54514e+06
       966.20000  4.00191e-08  1.54554e+06
       966.30000  3.92790e-08  1.51774e+06
       966.40000  3.92790e-08  1.51813e+06
       966.50000  3.67742e-08  1.42169e+06
       966.60000  3.67742e-08  1.42206e+06
       966.70000  3.67742e-08  1.42243e+06
       966.80000  3.67742e-08  1.42279e+06
       966.90000  3.67742e-08  1.42316e+06
       967.00000  3.67742e-08  1.42353e+06
       967.10000  3.67742e-08  1.42390e+06
       967.20000  3.67742e-08  1.42427e+06
       967.30000  3.67742e-08  1.42463e+06
       967.40000  3.67742e-08  1.42500e+06
       967.50000  3.59273e-08  1.39218e+06
       967.60000  3.59273e-08  1.39254e+06
       967.70000  3.59273e-08  1.39290e+06
       967.80000  3.59273e-08  1.39290e+06
       967.90000  3.59273e-08  1.39326e+06
       968.00000  3.59273e-08  1.39362e+06
       968.10000  3.59273e-08  1.39362e+06
       968.20000  3.59273e-08  1.39398e+06
       968.30000  3.59273e-08  1.39398e+06
       968.40000  3.59273e-08  1.39398e+06
       968.50000  3.35086e-08  1.30047e+06
       968.60000  3.35086e-08  1.30047e+06
       968.70000  3.35086e-08  1.30047e+06
       968.80000  3.28877e-08  1.27670e+06
       968.90000  3.28877e-08  1.27670e+06
       969.00000  3.28877e-08  1.27670e+06
       969.10000  3.28877e-08  1.27670e+06
       969.20000  3.28877e-08  1.27670e+06
       969.30000  3.28877e-08  1.27670e+06
       969.40000  3.28877e-08  1.27670e+06
       969.50000  3.12280e-08  1.21227e+06
       969.60000  3.12280e-08  1.21227e+06
       969.70000  3.12280e-08  1.21227e+06
       969.80000  3.12280e-08  1.21227e+06
       969.90000  3.12280e-08  1.21227e+06
       970.00000  3.12280e-08  1.21227e+06
       970.10000  3.12280e-08  1.21258e+06
       970.20000  3.12280e-08  1.21289e+06
       970.30000  3.12280e-08  1.21289e+06
       970.40000  3.12280e-08  1.21321e+06
       970.50000  2.98786e-08  1.16078e+06
       970.60000  2.98786e-08  1.16108e+06
       970.70000  2.98786e-08  1.16108e+06
       970.80000  2.98786e-08  1.16108e+06
       970.90000  2.98786e-08  1.16108e+06
       971.00000  2.98786e-08  1.16108e+06
       971.10000  2.98786e-08  1.16108e+06
       971.20000  2.98786e-08  1.16078e+06
       971.30000  2.93262e-08  1.13932e+06
       971.40000  2.93262e-08  1.13903e+06
       971.50000  2.64143e-08  1.02593e+06
       971.60000  2.64143e-08  1.02567e+06
       971.70000  2.64143e-08  1.02540e+06
       971.80000  2.64143e-08  1.02514e+06
       971.90000  2.64143e-08  1.02488e+06
       972.00000  2.64143e-08  1.02435e+06
       972.10000  2.64143e-08  1.02329e+06
       972.20000  2.64143e-08  1.02223e+06
       972.30000  2.64143e-08  1.02144e+06
       972.40000  2.64143e-08  1.02039e+06
       972.50000  2.58514e-08      997864.
       972.60000  2.58514e-08      996830.
       972.70000  2.58514e-08      996054.
       972.80000  2.58514e-08      995278.
       972.90000  2.58514e-08      994503.
       973.00000  2.58514e-08      993986.
       973.10000  2.58514e-08      993210.
       973.20000  2.58514e-08      992693.
       973.30000  2.58514e-08      992176.
       973.40000  2.58514e-08      991659.
       973.50000  2.48962e-08      954521.
       973.60000  2.48962e-08      954023.
       973.70000  2.48962e-08      953774.
       973.80000  2.44113e-08      934707.
       973.90000  2.44113e-08      934463.
       974.00000  2.44113e-08      934219.
       974.10000  2.44113e-08      934463.
       974.20000  2.44113e-08      934952.
       974.30000  2.44113e-08      935196.
       974.40000  2.44113e-08      935440.
       974.50000  2.36586e-08      906836.
       974.60000  2.36586e-08      907072.
       974.70000  2.36586e-08      907309.
       974.80000  2.36586e-08      907545.
       974.90000  2.36586e-08      907545.
       975.00000  2.36586e-08      907782.
       975.10000  2.36586e-08      908018.
       975.20000  2.36586e-08      908018.
       975.30000  2.36586e-08      908255.
       975.40000  2.36586e-08      908255.
       975.50000  2.57125e-08      987104.
       975.60000  2.57125e-08      987361.
       975.70000  2.57125e-08      987361.
       975.80000  2.57125e-08      987361.
       975.90000  2.57125e-08      987361.
       976.00000  2.57125e-08      987361.
       976.10000  2.57125e-08      987104.
       976.20000  2.57125e-08      986847.
       976.30000  2.52208e-08      967723.
       976.40000  2.52208e-08      967471.
       976.50000  2.13886e-08      820465.
       976.60000  2.13886e-08      820251.
       976.70000  2.13886e-08      820037.
       976.80000  2.13886e-08      819823.
       976.90000  2.13886e-08      819823.
       977.00000  2.13886e-08      819609.
       977.10000  2.13886e-08      819396.
       977.20000  2.13886e-08      819182.
       977.30000  2.13886e-08      819182.
       977.40000  2.13886e-08      818968.
       977.50000  1.89582e-08      725721.
       977.60000  1.89582e-08      725721.
       977.70000  1.89582e-08      725531.
       977.80000  1.89582e-08      725342.
       977.90000  1.89582e-08      725342.
       978.00000  1.89582e-08      725152.
       978.10000  1.89582e-08      725152.
       978.20000  1.89582e-08      724963.
       978.30000  1.89582e-08      724963.
       978.40000  1.89582e-08      724773.
       978.50000  1.99256e-08      761558.
       978.60000  1.99256e-08      761558.
       978.70000  1.99256e-08      761558.
       978.80000  1.95378e-08      746539.
       978.90000  1.95378e-08      746539.
       979.00000  1.95378e-08      746344.
       979.10000  1.95378e-08      746344.
       979.20000  1.95378e-08      746148.
       979.30000  1.95378e-08      746148.
       979.40000  1.95378e-08      746148.
       979.50000  1.90259e-08      726408.
       979.60000  1.90259e-08      726408.
       979.70000  1.90259e-08      726408.
       979.80000  1.90259e-08      726218.
       979.90000  1.90259e-08      726218.
       980.00000  1.90259e-08      726218.
       980.10000  1.90259e-08      726598.
       980.20000  1.90259e-08      726789.
       980.30000  1.90259e-08      727169.
       980.40000  1.90259e-08      727359.
       980.50000  1.79571e-08      686861.
       980.60000  1.79571e-08      687040.
       980.70000  1.79571e-08      687220.
       980.80000  1.79571e-08      687400.
       980.90000  1.79571e-08      687579.
       981.00000  1.79571e-08      687759.
       981.10000  1.79571e-08      687938.
       981.20000  1.79571e-08      688118.
       981.30000  1.75938e-08      674193.
       981.40000  1.75938e-08      674369.
       981.50000  1.64762e-08      631534.
       981.60000  1.64762e-08      631534.
       981.70000  1.64762e-08      631699.
       981.80000  1.64762e-08      631699.
       981.90000  1.64762e-08      631699.
       982.00000  1.64762e-08      631534.
       982.10000  1.64762e-08      631369.
       982.20000  1.64762e-08      631040.
       982.30000  1.64762e-08      630875.
       982.40000  1.64762e-08      630545.
       982.50000  1.68767e-08      645704.
       982.60000  1.68767e-08      645366.
       982.70000  1.68767e-08      645198.
       982.80000  1.68767e-08      645029.
       982.90000  1.68767e-08      644691.
       983.00000  1.68767e-08      644523.
       983.10000  1.68767e-08      644354.
       983.20000  1.68767e-08      644185.
       983.30000  1.68767e-08      644016.
       983.40000  1.68767e-08      643679.
       983.50000  1.61299e-08      615032.
       983.60000  1.61299e-08      614870.
       983.70000  1.61299e-08      614709.
       983.80000  1.58117e-08      602427.
       983.90000  1.58117e-08      602269.
       984.00000  1.58117e-08      602110.
       984.10000  1.58117e-08      602110.
       984.20000  1.58117e-08      601952.
       984.30000  1.58117e-08      601794.
       984.40000  1.58117e-08      601636.
       984.50000  1.57955e-08      601018.
       984.60000  1.57955e-08      600860.
       984.70000  1.57955e-08      600702.
       984.80000  1.57955e-08      600702.
       984.90000  1.57955e-08      600544.
       985.00000  1.57955e-08      600386.
       985.10000  1.57955e-08      600386.
       985.20000  1.57955e-08      600228.
       985.30000  1.57955e-08      600228.
       985.40000  1.57955e-08      600228.
       985.50000  1.31381e-08      499117.
       985.60000  1.31381e-08      499117.
       985.70000  1.31381e-08      499117.
       985.80000  1.31381e-08      498986.
       985.90000  1.31381e-08      498986.
       986.00000  1.31381e-08      498986.
       986.10000  1.31381e-08      498855.
       986.20000  1.31381e-08      498855.
       986.30000  1.28792e-08      489023.
       986.40000  1.28792e-08      488894.
       986.50000  1.33978e-08      508448.
       986.60000  1.33978e-08      508448.
       986.70000  1.33978e-08      508314.
       986.80000  1.33978e-08      508314.
       986.90000  1.33978e-08      508180.
       987.00000  1.33978e-08      508046.
       987.10000  1.33978e-08      507912.
       987.20000  1.33978e-08      507912.
       987.30000  1.33978e-08      507778.
       987.40000  1.33978e-08      507644.
       987.50000  1.36058e-08      515387.
       987.60000  1.36058e-08      515251.
       987.70000  1.36058e-08      515115.
       987.80000  1.36058e-08      514979.
       987.90000  1.36058e-08      514843.
       988.00000  1.36058e-08      514707.
       988.10000  1.36058e-08      514298.
       988.20000  1.36058e-08      514026.
       988.30000  1.36058e-08      513618.
       988.40000  1.36058e-08      513346.
       988.50000  1.31304e-08      495147.
       988.60000  1.31304e-08      494885.
       988.70000  1.31304e-08      494622.
       988.80000  1.28746e-08      484727.
       988.90000  1.28746e-08      484470.
       989.00000  1.28746e-08      484341.
       989.10000  1.28746e-08      484212.
       989.20000  1.28746e-08      483955.
       989.30000  1.28746e-08      483826.
       989.40000  1.28746e-08      483697.
       989.50000  1.31488e-08      493867.
       989.60000  1.31488e-08      493736.
       989.70000  1.31488e-08      493736.
       989.80000  1.31488e-08      493604.
       989.90000  1.31488e-08      493604.
       990.00000  1.31488e-08      493604.
       990.10000  1.31488e-08      493473.
       990.20000  1.31488e-08      493473.
       990.30000  1.31488e-08      493604.
       990.40000  1.31488e-08      493604.
       990.50000  1.19758e-08      449571.
       990.60000  1.19758e-08      449690.
       990.70000  1.19758e-08      449690.
       990.80000  1.19758e-08      449810.
       990.90000  1.19758e-08      449930.
       991.00000  1.19758e-08      450050.
       991.10000  1.19758e-08      450169.
       991.20000  1.19758e-08      450289.
       991.30000  1.17539e-08      442062.
       991.40000  1.17539e-08      442297.
       991.50000  1.13141e-08      425864.
       991.60000  1.13141e-08      426090.
       991.70000  1.13141e-08      426317.
       991.80000  1.13141e-08      426543.
       991.90000  1.13141e-08      426769.
       992.00000  1.13141e-08      426996.
       992.10000  1.13141e-08      427109.
       992.20000  1.13141e-08      427109.
       992.30000  1.13141e-08      427109.
       992.40000  1.13141e-08      427109.
       992.50000  1.19204e-08      450114.
       992.60000  1.19204e-08      450114.
       992.70000  1.19204e-08      450114.
       992.80000  1.19204e-08      450114.
       992.90000  1.19204e-08      450114.
       993.00000  1.19204e-08      450233.
       993.10000  1.19204e-08      450233.
       993.20000  1.19204e-08      450233.
       993.30000  1.19204e-08      450233.
       993.40000  1.19204e-08      450233.
       993.50000  1.10321e-08      416682.
       993.60000  1.10321e-08      416682.
       993.70000  1.10321e-08      416682.
       993.80000  1.08417e-08      409491.
       993.90000  1.08417e-08      409383.
       994.00000  1.08417e-08      409383.
       994.10000  1.08417e-08      409383.
       994.20000  1.08417e-08      409274.
       994.30000  1.08417e-08      409274.
       994.40000  1.08417e-08      409166.
       994.50000  1.00490e-08      379250.
       994.60000  1.00490e-08      379150.
       994.70000  1.00490e-08      379150.
       994.80000  1.00490e-08      379049.
       994.90000  1.00490e-08      379049.
       995.00000  1.00490e-08      378949.
       995.10000  1.00490e-08      378949.
       995.20000  1.00490e-08      378949.
       995.30000  1.00490e-08      378848.
       995.40000  1.00490e-08      378848.
       995.50000  9.99681e-09      376880.
       995.60000  9.99681e-09      376780.
       995.70000  9.99681e-09      376780.
       995.80000  9.99681e-09      376780.
       995.90000  9.99681e-09      376780.
       996.00000  9.99681e-09      376680.
       996.10000  9.99681e-09      376780.
       996.20000  9.99681e-09      376780.
       996.30000  9.82926e-09      370465.
       996.40000  9.82926e-09      370465.
       996.50000  9.00708e-09      339477.
       996.60000  9.00708e-09      339477.
       996.70000  9.00708e-09      339477.
       996.80000  9.00708e-09      339477.
       996.90000  9.00708e-09      339477.
       997.00000  9.00708e-09      339477.
       997.10000  9.00708e-09      339477.
       997.20000  9.00708e-09      339477.
       997.30000  9.00708e-09      339477.
       997.40000  9.00708e-09      339477.
       997.50000  8.27912e-09      312040.
       997.60000  8.27912e-09      312040.
       997.70000  8.27912e-09      312040.
       997.80000  8.27912e-09      312040.
       997.90000  8.27912e-09      312040.
       998.00000  8.27912e-09      311957.
       998.10000  8.27912e-09      311957.
       998.20000  8.27912e-09      311874.
       998.30000  8.27912e-09      311874.
       998.40000  8.27912e-09      311792.
       998.50000  9.29699e-09      350032.
       998.60000  9.29699e-09      350032.
       998.70000  9.29699e-09      349939.
       998.80000  9.15529e-09      344605.
       998.90000  9.15529e-09      344605.
       999.00000  9.15529e-09      344513.
       999.10000  9.15529e-09      344513.
       999.20000  9.15529e-09      344422.
       999.30000  9.15529e-09      344422.
       999.40000  9.15529e-09      344422.
       999.50000  7.99997e-09      300879.
       999.60000  7.99997e-09      300879.
       999.70000  7.99997e-09      300879.
       999.80000  7.99997e-09      300879.
       999.90000  7.99997e-09      300879.
       1000.0000  7.99997e-09      300799.
       1000.1000  7.99997e-09      300799.
       1000.2000  7.99997e-09      300799.
       1000.3000  7.99997e-09      300799.
       1000.4000  7.99997e-09      300799.
       1000.5000  7.89466e-09      296839.
       1000.6000  7.89466e-09      296839.
       1000.7000  7.89466e-09      296839.
       1000.8000  7.89466e-09      296839.
       1000.9000  7.89466e-09      296839.
       1001.0000  7.89466e-09      296839.
       1001.1000  7.89466e-09      296839.
       1001.2000  7.89466e-09      296918.
       1001.3000  7.77814e-09      292536.
       1001.4000  7.77814e-09      292536.
       1001.5000  8.09115e-09      304308.
       1001.6000  8.09115e-09      304308.
       1001.7000  8.09115e-09      304389.
       1001.8000  8.09115e-09      304389.
       1001.9000  8.09115e-09      304389.
       1002.0000  8.09115e-09      304470.
       1002.1000  8.09115e-09      303984.
       1002.2000  8.09115e-09      303499.
       1002.3000  8.09115e-09      303094.
       1002.4000  8.09115e-09      302609.
       1002.5000  6.87842e-09      256909.
       1002.6000  6.87842e-09      256496.
       1002.7000  6.87842e-09      256153.
       1002.8000  6.87842e-09      255809.
       1002.9000  6.87842e-09      255465.
       1003.0000  6.87842e-09      255121.
       1003.1000  6.87842e-09      254777.
       1003.2000  6.87842e-09      254433.
       1003.3000  6.87842e-09      254158.
       1003.4000  6.87842e-09      253814.
       1003.5000  7.55292e-09      278401.
       1003.6000  7.55292e-09      278099.
       1003.7000  7.55292e-09      277721.
       1003.8000  7.45005e-09      273640.
       1003.9000  7.45005e-09      273342.
       1004.0000  7.45005e-09      273044.
       1004.1000  7.45005e-09      272597.
       1004.2000  7.45005e-09      272076.
       1004.3000  7.45005e-09      271703.
       1004.4000  7.45005e-09      271256.
       1004.5000  7.04293e-09      256081.
       1004.6000  7.04293e-09      255729.
       1004.7000  7.04293e-09      255447.
       1004.8000  7.04293e-09      255165.
       1004.9000  7.04293e-09      254954.
       1005.0000  7.04293e-09      254743.
       1005.1000  7.04293e-09      254531.
       1005.2000  7.04293e-09      254391.
       1005.3000  7.04293e-09      254250.
       1005.4000  7.04293e-09      254179.
       1005.5000  6.76277e-09      244001.
       1005.6000  6.76277e-09      243933.
       1005.7000  6.76277e-09      243933.
       1005.8000  6.76277e-09      244001.
       1005.9000  6.76277e-09      244001.
       1006.0000  6.76277e-09      244068.
       1006.1000  6.76277e-09      244204.
       1006.2000  6.76277e-09      244339.
       1006.3000  6.67674e-09      241364.
       1006.4000  6.67674e-09      241564.
       1006.5000  6.63811e-09      240366.
       1006.6000  6.63811e-09      240631.
       1006.7000  6.63811e-09      240897.
       1006.8000  6.63811e-09      241162.
       1006.9000  6.63811e-09      241494.
       1007.0000  6.63811e-09      241826.
       1007.1000  6.63811e-09      242224.
       1007.2000  6.63811e-09      242623.
       1007.3000  6.63811e-09      243021.
       1007.4000  6.63811e-09      243486.
       1007.5000  6.25837e-09      229995.
       1007.6000  6.25837e-09      230496.
       1007.7000  6.25837e-09      230997.
       1007.8000  6.25837e-09      231497.
       1007.9000  6.25837e-09      232060.
       1008.0000  6.25837e-09      232624.
       1008.1000  6.25837e-09      232686.
       1008.2000  6.25837e-09      232686.
       1008.3000  6.25837e-09      232686.
       1008.4000  6.25837e-09      232686.
       1008.5000  6.27866e-09      233441.
       1008.6000  6.27866e-09      233441.
       1008.7000  6.27866e-09      233441.
       1008.8000  6.20518e-09      230708.
       1008.9000  6.20518e-09      230708.
       1009.0000  6.20518e-09      230646.
       1009.1000  6.20518e-09      230646.
       1009.2000  6.20518e-09      230646.
       1009.3000  6.20518e-09      230646.
       1009.4000  6.20518e-09      230584.
       1009.5000  5.63833e-09      209520.
       1009.6000  5.63833e-09      209520.
       1009.7000  5.63833e-09      209464.
       1009.8000  5.63833e-09      209464.
       1009.9000  5.63833e-09      209407.
       1010.0000  5.63833e-09      209407.
       1010.1000  5.63833e-09      209351.
       1010.2000  5.63833e-09      209295.
       1010.3000  5.63833e-09      209238.
       1010.4000  5.63833e-09      209182.
       1010.5000  5.21475e-09      193415.
       1010.6000  5.21475e-09      193363.
       1010.7000  5.21475e-09      193311.
       1010.8000  5.21475e-09      193259.
       1010.9000  5.21475e-09      193206.
       1011.0000  5.21475e-09      193154.
       1011.1000  5.21475e-09      193154.
       1011.2000  5.21475e-09      193102.
       1011.3000  5.15723e-09      190920.
       1011.4000  5.15723e-09      190869.
       1011.5000  5.22175e-09      193205.
       1011.6000  5.22175e-09      193153.
       1011.7000  5.22175e-09      193100.
       1011.8000  5.22175e-09      193048.
       1011.9000  5.22175e-09      192996.
       1012.0000  5.22175e-09      192944.
       1012.1000  5.22175e-09      192892.
       1012.2000  5.22175e-09      192839.
       1012.3000  5.22175e-09      192787.
       1012.4000  5.22175e-09      192735.
       1012.5000  5.13660e-09      189540.
       1012.6000  5.13660e-09      189489.
       1012.7000  5.13660e-09      189438.
       1012.8000  5.13660e-09      189386.
       1012.9000  5.13660e-09      189386.
       1013.0000  5.13660e-09      189335.
       1013.1000  5.13660e-09      189284.
       1013.2000  5.13660e-09      189232.
       1013.3000  5.13660e-09      189181.
       1013.4000  5.13660e-09      189130.
       1013.5000  5.15188e-09      189641.
       1013.6000  5.15188e-09      189589.
       1013.7000  5.15188e-09      189538.
       1013.8000  5.09890e-09      187538.
       1013.9000  5.09890e-09      187487.
       1014.0000  5.09890e-09      187436.
       1014.1000  5.09890e-09      187334.
       1014.2000  5.09890e-09      187232.
       1014.3000  5.09890e-09      187130.
       1014.4000  5.09890e-09      187028.
       1014.5000  4.36102e-09      159919.
       1014.6000  4.36102e-09      159832.
       1014.7000  4.36102e-09      159744.
       1014.8000  4.36102e-09      159701.
       1014.9000  4.36102e-09      159613.
       1015.0000  4.36102e-09      159570.
       1015.1000  4.36102e-09      159483.
       1015.2000  4.36102e-09      159439.
       1015.3000  4.36102e-09      159395.
       1015.4000  4.36102e-09      159308.
       1015.5000  4.01891e-09      146771.
       1015.6000  4.01891e-09      146730.
       1015.7000  4.01891e-09      146690.
       1015.8000  4.01891e-09      146650.
       1015.9000  4.01891e-09      146610.
       1016.0000  4.01891e-09      146570.
       1016.1000  4.01891e-09      146570.
       1016.2000  4.01891e-09      146570.
       1016.3000  3.98072e-09      145177.
       1016.4000  3.98072e-09      145137.
       1016.5000  3.58604e-09      130747.
       1016.6000  3.58604e-09      130747.
       1016.7000  3.58604e-09      130747.
       1016.8000  3.58604e-09      130711.
       1016.9000  3.58604e-09      130711.
       1017.0000  3.58604e-09      130675.
       1017.1000  3.58604e-09      130675.
       1017.2000  3.58604e-09      130640.
       1017.3000  3.58604e-09      130640.
       1017.4000  3.58604e-09      130604.
       1017.5000  3.02638e-09      110221.
       1017.6000  3.02638e-09      110190.
       1017.7000  3.02638e-09      110160.
       1017.8000  3.02638e-09      110130.
       1017.9000  3.02638e-09      110100.
       1018.0000  3.02638e-09      110100.
       1018.1000  3.02638e-09      110039.
       1018.2000  3.02638e-09      109979.
       1018.3000  3.02638e-09      109918.
       1018.4000  3.02638e-09      109858.
       1018.5000  2.80840e-09      101917.
       1018.6000  2.80840e-09      101861.
       1018.7000  2.80840e-09      101833.
       1018.8000  2.78268e-09      100844.
       1018.9000  2.78268e-09      100817.
       1019.0000  2.78268e-09      100761.
       1019.1000  2.78268e-09      100733.
       1019.2000  2.78268e-09      100705.
       1019.3000  2.78268e-09      100677.
       1019.4000  2.78268e-09      100622.
       1019.5000  2.34483e-09      84765.8
       1019.6000  2.34483e-09      84742.3
       1019.7000  2.34483e-09      84718.9
       1019.8000  2.34483e-09      84718.9
       1019.9000  2.34483e-09      84695.4
       1020.0000  2.34483e-09      84672.0
       1020.1000  2.34483e-09      84648.5
       1020.2000  2.34483e-09      84625.1
       1020.3000  2.34483e-09      84625.1
       1020.4000  2.34483e-09      84601.6
       1020.5000  1.81543e-09      65500.7
       1020.6000  1.81543e-09      65482.5
       1020.7000  1.81543e-09      65482.5
       1020.8000  1.81543e-09      65464.4
       1020.9000  1.81543e-09      65464.4
       1021.0000  1.81543e-09      65464.4
       1021.1000  1.81543e-09      65464.4
       1021.2000  1.81543e-09      65464.4
       1021.3000  1.80194e-09      64977.9
       1021.4000  1.80194e-09      64977.9
       1021.5000  1.66712e-09      60116.5
       1021.6000  1.66712e-09      60116.5
       1021.7000  1.66712e-09      60116.5
       1021.8000  1.66712e-09      60133.2
       1021.9000  1.66712e-09      60133.2
       1022.0000  1.66712e-09      60149.8
       1022.1000  1.66712e-09      60149.8
       1022.2000  1.66712e-09      60166.5
       1022.3000  1.66712e-09      60183.2
       1022.4000  1.66712e-09      60183.2
       1022.5000  1.29056e-09      46602.2
       1022.6000  1.29056e-09      46615.1
       1022.7000  1.29056e-09      46628.0
       1022.8000  1.29056e-09      46640.9
       1022.9000  1.29056e-09      46653.8
       1023.0000  1.29056e-09      46666.7
       1023.1000  1.29056e-09      46692.5
       1023.2000  1.29056e-09      46705.4
       1023.3000  1.29056e-09      46718.3
       1023.4000  1.29056e-09      46744.1
       1023.5000  9.72260e-10      35225.0
       1023.6000  9.72260e-10      35244.4
       1023.7000  9.72260e-10      35254.2
       1023.8000  9.66160e-10      35052.3
       1023.9000  9.66160e-10      35071.6
       1024.0000  9.66160e-10      35090.9
       1024.1000  9.66160e-10      35090.9
       1024.2000  9.66160e-10      35081.3
       1024.3000  9.66160e-10      35081.3
       1024.4000  9.66160e-10      35081.3
       1024.5000  8.83963e-10      32096.7
       1024.6000  8.83963e-10      32087.8
       1024.7000  8.83963e-10      32087.8
       1024.8000  8.83963e-10      32087.8
       1024.9000  8.83963e-10      32079.0
       1025.0000  8.83963e-10      32079.0
       1025.1000  8.83963e-10      32079.0
       1025.2000  8.83963e-10      32070.2
       1025.3000  8.83963e-10      32070.2
       1025.4000  8.83963e-10      32070.2
       1025.5000  6.38101e-10      23143.9
       1025.6000  6.38101e-10      23143.9
       1025.7000  6.38101e-10      23137.5
       1025.8000  6.38101e-10      23137.5
       1025.9000  6.38101e-10      23131.2
       1026.0000  6.38101e-10      23131.2
       1026.1000  6.38101e-10      23131.2
       1026.2000  6.38101e-10      23124.8
       1026.3000  6.34122e-10      22980.6
       1026.4000  6.34122e-10      22974.2
       1026.5000  4.72601e-10      17122.3
       1026.6000  4.72601e-10      17117.6
       1026.7000  4.72601e-10      17112.9
       1026.8000  4.72601e-10      17112.9
       1026.9000  4.72601e-10      17108.2
       1027.0000  4.72601e-10      17108.2
       1027.1000  4.72601e-10      17103.4
       1027.2000  4.72601e-10      17098.7
       1027.3000  4.72601e-10      17098.7
       1027.4000  4.72601e-10      17094.0
       1027.5000  4.37145e-10      15807.1
       1027.6000  4.37145e-10      15807.1
       1027.7000  4.37145e-10      15802.8
       1027.8000  4.37145e-10      15798.4
       1027.9000  4.37145e-10      15794.0
       1028.0000  4.37145e-10      15789.7
       1028.1000  4.37145e-10      15789.7
       1028.2000  4.37145e-10      15785.3
       1028.3000  4.37145e-10      15780.9
       1028.4000  4.37145e-10      15776.5
       1028.5000  3.28329e-10      11846.1
       1028.6000  3.28329e-10      11842.8
       1028.7000  3.28329e-10      11839.5
       1028.8000  3.25513e-10      11734.8
       1028.9000  3.25513e-10      11731.5
       1029.0000  3.25513e-10      11728.2
       1029.1000  3.25513e-10      11725.0
       1029.2000  3.25513e-10      11721.7
       1029.3000  3.25513e-10      11718.5
       1029.4000  3.25513e-10      11715.2
       1029.5000  2.82812e-10      10175.6
       1029.6000  2.82812e-10      10172.7
       1029.7000  2.82812e-10      10169.9
       1029.8000  2.82812e-10      10167.1
       1029.9000  2.82812e-10      10164.3
       1030.0000  2.82812e-10      10158.6
       1030.1000  2.82812e-10      10161.4
       1030.2000  2.82812e-10      10161.4
       1030.3000  2.82812e-10      10161.4
       1030.4000  2.82812e-10      10161.4
       1030.5000  2.28507e-10      8210.24
       1030.6000  2.28507e-10      8210.24
       1030.7000  2.28507e-10      8207.96
       1030.8000  2.28507e-10      8207.96
       1030.9000  2.28507e-10      8207.96
       1031.0000  2.28507e-10      8205.67
       1031.1000  2.28507e-10      8205.67
       1031.2000  2.28507e-10      8203.39
       1031.3000  2.25398e-10      8091.77
       1031.4000  2.25398e-10      8089.52
       1031.5000  1.78835e-10      6416.58
       1031.6000  1.78835e-10      6414.79
       1031.7000  1.78835e-10      6413.01
       1031.8000  1.78835e-10      6411.22
       1031.9000  1.78835e-10      6409.43
       1032.0000  1.78835e-10      6407.64
       1032.1000  1.78835e-10      6402.28
       1032.2000  1.78835e-10      6395.12
       1032.3000  1.78835e-10      6389.76
       1032.4000  1.78835e-10      6386.18
       1032.5000  1.42852e-10      5096.96
       1032.6000  1.42852e-10      5092.67
       1032.7000  1.42852e-10      5089.81
       1032.8000  1.42852e-10      5085.53
       1032.9000  1.42852e-10      5082.67
       1033.0000  1.42852e-10      5079.81
       1033.1000  1.42852e-10      5076.96
       1033.2000  1.42852e-10      5075.53
       1033.3000  1.42852e-10      5072.67
       1033.4000  1.42852e-10      5071.24
       1033.5000  1.21694e-10      4317.69
       1033.6000  1.21694e-10      4316.48
       1033.7000  1.21694e-10      4315.26
       1033.8000  1.19377e-10      4231.92
       1033.9000  1.19377e-10      4231.92
       1034.0000  1.19377e-10      4230.73
       1034.1000  1.19377e-10      4230.73
       1034.2000  1.19377e-10      4229.53
       1034.3000  1.19377e-10      4229.53
       1034.4000  1.19377e-10      4229.53
       1034.5000  8.99068e-11      3185.40
       1034.6000  8.99068e-11      3186.30
       1034.7000  8.99068e-11      3186.30
       1034.8000  8.99068e-11      3187.20
       1034.9000  8.99068e-11      3187.20
       1035.0000  8.99068e-11      3188.10
       1035.1000  8.99068e-11      3189.00
       1035.2000  8.99068e-11      3189.89
       1035.3000  8.99068e-11      3191.69
       1035.4000  8.99068e-11      3192.59
       1035.5000  8.44778e-11      3001.50
       1035.6000  8.44778e-11      3003.19
       1035.7000  8.44778e-11      3004.03
       1035.8000  8.44778e-11      3005.72
       1035.9000  8.44778e-11      3008.25
       1036.0000  8.44778e-11      3009.94
       1036.1000  8.44778e-11      3008.25
       1036.2000  8.44778e-11      3006.56
       1036.3000  8.25052e-11      2934.71
       1036.4000  8.25052e-11      2933.06
       1036.5000  5.97006e-11      2121.16
       1036.6000  5.97006e-11      2119.97
       1036.7000  5.97006e-11      2119.37
       1036.8000  5.97006e-11      2118.18
       1036.9000  5.97006e-11      2116.98
       1037.0000  5.97006e-11      2116.39
       1037.1000  5.97006e-11      2115.79
       1037.2000  5.97006e-11      2114.59
       1037.3000  5.97006e-11      2114.00
       1037.4000  5.97006e-11      2113.40
       1037.5000  5.24885e-11      1857.57
       1037.6000  5.24885e-11      1857.04
       1037.7000  5.24885e-11      1856.52
       1037.8000  5.24885e-11      1855.99
       1037.9000  5.24885e-11      1855.47
       1038.0000  5.24885e-11      1854.94
       1038.1000  5.24885e-11      1854.94
       1038.2000  5.24885e-11      1854.94
       1038.3000  5.24885e-11      1855.47
       1038.4000  5.24885e-11      1855.47
       1038.5000  4.34093e-11      1534.52
       1038.6000  4.34093e-11      1534.52
       1038.7000  4.34093e-11      1534.52
       1038.8000  4.22798e-11      1494.59
       1038.9000  4.22798e-11      1494.59
       1039.0000  4.22798e-11      1494.59
       1039.1000  4.22798e-11      1494.59
       1039.2000  4.22798e-11      1494.59
       1039.3000  4.22798e-11      1494.59
       1039.4000  4.22798e-11      1494.59
       1039.5000  3.21222e-11      1135.52
       1039.6000  3.21222e-11      1135.52
       1039.7000  3.21222e-11      1135.52
       1039.8000  3.21222e-11      1135.52
       1039.9000  3.21222e-11      1135.52
       1040.0000  3.21222e-11      1135.52
       1040.1000  3.21222e-11      1135.52
       1040.2000  3.21222e-11      1135.52
       1040.3000  3.21222e-11      1135.52
       1040.4000  3.21222e-11      1135.52
       1040.5000  2.66258e-11      941.222
       1040.6000  2.66258e-11      941.222
       1040.7000  2.66258e-11      941.222
       1040.8000  2.66258e-11      941.222
       1040.9000  2.66258e-11      941.222
       1041.0000  2.66258e-11      941.222
       1041.1000  2.66258e-11      941.222
       1041.2000  2.66258e-11      941.222
       1041.3000  2.58632e-11      914.264
       1041.4000  2.58632e-11      914.264
       1041.5000  2.29489e-11      811.244
       1041.6000  2.29489e-11      811.244
       1041.7000  2.29489e-11      811.244
       1041.8000  2.29489e-11      811.014
       1041.9000  2.29489e-11      811.014
       1042.0000  2.29489e-11      811.014
       1042.1000  2.29489e-11      811.244
       1042.2000  2.29489e-11      811.244
       1042.3000  2.29489e-11      811.473
       1042.4000  2.29489e-11      811.473
       1042.5000  2.01064e-11      710.964
       1042.6000  2.01064e-11      710.964
       1042.7000  2.01064e-11      710.964
       1042.8000  2.01064e-11      710.763
       1042.9000  2.01064e-11      710.763
       1043.0000  2.01064e-11      710.763
       1043.1000  2.01064e-11      710.562
       1043.2000  2.01064e-11      710.361
       1043.3000  2.01064e-11      710.361
       1043.4000  2.01064e-11      710.160
       1043.5000  1.66265e-11      587.081
       1043.6000  1.66265e-11      586.915
       1043.7000  1.66265e-11      586.749
       1043.8000  1.61509e-11      569.641
       1043.9000  1.61509e-11      569.480
       1044.0000  1.61509e-11      569.157
       1044.1000  1.61509e-11      568.511
       1044.2000  1.61509e-11      567.703
       1044.3000  1.61509e-11      567.057
       1044.4000  1.61509e-11      566.411
       1044.5000  1.21344e-11      425.067
       1044.6000  1.21344e-11      424.703
       1044.7000  1.21344e-11      424.218
       1044.8000  1.21344e-11      423.854
       1044.9000  1.21344e-11      423.490
       1045.0000  1.21344e-11      423.126
       1045.1000  1.21344e-11      422.883
       1045.2000  1.21344e-11      422.519
       1045.3000  1.21344e-11      422.277
       1045.4000  1.21344e-11      422.034
       1045.5000  1.05798e-11      367.859
       1045.6000  1.05798e-11      367.648
       1045.7000  1.05798e-11      367.542
       1045.8000  1.05798e-11      367.436
       1045.9000  1.05798e-11      367.330
       1046.0000  1.05798e-11      367.224
       1046.1000  1.05798e-11      367.224
       1046.2000  1.05798e-11      367.119
       1046.3000  1.02795e-11      356.697
       1046.4000  1.02795e-11      356.697
       1046.5000  8.69770e-12      301.897
       1046.6000  8.69770e-12      301.897
       1046.7000  8.69770e-12      301.984
       1046.8000  8.69770e-12      302.071
       1046.9000  8.69770e-12      302.158
       1047.0000  8.69770e-12      302.332
       1047.1000  8.69770e-12      302.419
       1047.2000  8.69770e-12      302.593
       1047.3000  8.69770e-12      302.767
       1047.4000  8.69770e-12      302.941
       1047.5000  6.68637e-12      233.087
       1047.6000  6.68637e-12      233.221
       1047.7000  6.68637e-12      233.421
       1047.8000  6.68637e-12      233.622
       1047.9000  6.68637e-12      233.822
       1048.0000  6.68637e-12      234.090
       1048.1000  6.68637e-12      234.090
       1048.2000  6.68637e-12      234.090
       1048.3000  6.68637e-12      234.090
       1048.4000  6.68637e-12      234.023
       1048.5000  5.49685e-12      192.390
       1048.6000  5.49685e-12      192.390
       1048.7000  5.49685e-12      192.390
       1048.8000  5.35309e-12      187.358
       1048.9000  5.35309e-12      187.358
       1049.0000  5.35309e-12      187.305
       1049.1000  5.35309e-12      187.305
       1049.2000  5.35309e-12      187.305
       1049.3000  5.35309e-12      187.251
       1049.4000  5.35309e-12      187.251
       1049.5000  4.98660e-12      174.431
       1049.6000  4.98660e-12      174.381
       1049.7000  4.98660e-12      174.381
       1049.8000  4.98660e-12      174.381
       1049.9000  4.98660e-12      174.331
       1050.0000  4.98660e-12      174.331
       1050.1000  4.98660e-12      174.282
       1050.2000  4.98660e-12      174.282
       1050.3000  4.98660e-12      174.232
       1050.4000  4.98660e-12      174.182
       1050.5000  3.74226e-12      130.717
       1050.6000  3.74226e-12      130.680
       1050.7000  3.74226e-12      130.680
       1050.8000  3.74226e-12      130.642
       1050.9000  3.74226e-12      130.605
       1051.0000  3.74226e-12      130.605
       1051.1000  3.74226e-12      130.568
       1051.2000  3.74226e-12      130.568
       1051.3000  3.65852e-12      127.609
       1051.4000  3.65852e-12      127.573
       1051.5000  3.01669e-12      105.192
       1051.6000  3.01669e-12      105.162
       1051.7000  3.01669e-12      105.132
       1051.8000  3.01669e-12      105.132
       1051.9000  3.01669e-12      105.102
       1052.0000  3.01669e-12      105.102
       1052.1000  3.01669e-12      105.071
       1052.2000  3.01669e-12      105.041
       1052.3000  3.01669e-12      105.041
       1052.4000  3.01669e-12      105.011
       1052.5000  2.27983e-12      79.3381
       1052.6000  2.27983e-12      79.3381
       1052.7000  2.27983e-12      79.3153
       1052.8000  2.27983e-12      79.2925
       1052.9000  2.27983e-12      79.2925
       1053.0000  2.27983e-12      79.2697
       1053.1000  2.27983e-12      79.2697
       1053.2000  2.27983e-12      79.2469
       1053.3000  2.27983e-12      79.2241
       1053.4000  2.27983e-12      79.2241
       1053.5000  1.79481e-12      62.3517
       1053.6000  1.79481e-12      62.3337
       1053.7000  1.79481e-12      62.3337
       1053.8000  1.76129e-12      61.1518
       1053.9000  1.76129e-12      61.1342
       1054.0000  1.76129e-12      61.1342
       1054.1000  1.76129e-12      61.1694
       1054.2000  1.76129e-12      61.1870
       1054.3000  1.76129e-12      61.2223
       1054.4000  1.76129e-12      61.2575
       1054.5000  1.24549e-12      43.3306
       1054.6000  1.24549e-12      43.3431
       1054.7000  1.24549e-12      43.3555
       1054.8000  1.24549e-12      43.3680
       1054.9000  1.24549e-12      43.3804
       1055.0000  1.24549e-12      43.3929
       1055.1000  1.24549e-12      43.3929
       1055.2000  1.24549e-12      43.3929
       1055.3000  1.24549e-12      43.4053
       1055.4000  1.24549e-12      43.4053
       1055.5000  8.83509e-13      30.7814
       1055.6000  8.83509e-13      30.7814
       1055.7000  8.83509e-13      30.7814
       1055.8000  8.83509e-13      30.7726
       1055.9000  8.83509e-13      30.7638
       1056.0000  8.83509e-13      30.7549
       1056.1000  8.83509e-13      30.7284
       1056.2000  8.83509e-13      30.7019
       1056.3000  8.67396e-13      30.1160
       1056.4000  8.67396e-13      30.0813
       1056.5000  4.78492e-13      16.5797
       1056.6000  4.78492e-13      16.5702
       1056.7000  4.78492e-13      16.5558
       1056.8000  4.78492e-13      16.5415
       1056.9000  4.78492e-13      16.5271
       1057.0000  4.78492e-13      16.5175
