PDS_VERSION_ID         = PDS3
RECORD_TYPE            = STREAM
OBJECT                 = TEXT
  PUBLICATION_DATE     = 2014-04-25
  INTERCHANGE_FORMAT   = ASCII
  NOTE                 = "System transmission vs. wavelength."
END_OBJECT             = TEXT
END
    
The systrans directory contains the non-wavelength-integrated system 
transmission values (QE*optics*filter1*filter2) for each filter combination. 
The naming convention for these files is as follows:

<camera><filter 1><filter 2>_systrans.tab

where <camera> is "issna" or "isswa," and <filter 1> and <filter 2> represent
the filter names. For polarized filter combinations, values are given for the
parallel orientation of the filter (full transmission), with values for the 
perpendicular (blocking) orientation provided in files with subscript 
"_b_systrans.tab". 

Columns in systrans files are as follows:

 1st column: Wavelength (nm)  
 2nd column: Transmitted Flux
 3rd column: Transmitted Flux * Solar Flux (phot per cm^2-s-angstrom at 1 AU)

The solar spectrum used for this calculation is provided in solarflux.tab.

\begindata
       659.00000  5.62026e-12      288.432
       659.10000  5.62026e-12      289.331
       659.20000  5.62026e-12      290.174
       659.30000  5.62026e-12      290.905
       659.40000  5.62026e-12      291.579
       659.50000  9.88893e-13      51.4125
       659.60000  9.88893e-13      51.5114
       659.70000  9.88893e-13      51.5905
       659.80000  9.88893e-13      51.6696
       659.90000  9.88893e-13      51.7290
       660.00000  9.88893e-13      51.7784
       660.10000  9.88893e-13      51.8180
       660.20000  9.88893e-13      51.8378
       660.30000  9.88893e-13      51.8575
       660.40000  9.88893e-13      51.8575
       660.50000  4.66232e-12      244.446
       660.60000  4.66232e-12      244.352
       660.70000  4.66232e-12      244.212
       660.80000  4.66232e-12      243.979
       660.90000  4.66232e-12      243.746
       661.00000  4.66232e-12      243.420
       661.10000  4.66232e-12      243.280
       661.20000  4.66232e-12      243.093
       661.30000  4.62819e-12      241.175
       661.40000  4.62819e-12      241.036
       661.50000  3.74221e-12      194.782
       661.60000  3.74221e-12      194.707
       661.70000  3.74221e-12      194.595
       661.80000  3.74221e-12      194.520
       661.90000  3.74221e-12      194.445
       662.00000  3.74221e-12      194.370
       662.10000  3.74221e-12      194.296
       662.20000  3.74221e-12      194.221
       662.30000  3.74221e-12      194.183
       662.40000  3.74221e-12      194.146
       662.50000  4.89122e-13      25.3659
       662.60000  4.89122e-13      25.3659
       662.70000  4.89122e-13      25.3610
       662.80000  4.89122e-13      25.3561
       662.90000  4.89122e-13      25.3561
       663.00000  4.89122e-13      25.3561
       663.10000  4.89122e-13      25.3756
       663.20000  4.89122e-13      25.3903
       663.30000  4.89122e-13      25.4099
       663.40000  4.89122e-13      25.4246
       663.50000  3.18394e-12      165.597
       663.60000  3.18394e-12      165.692
       663.70000  3.18394e-12      165.756
       663.80000  3.15776e-12      164.488
       663.90000  3.15776e-12      164.551
       664.00000  3.15776e-12      164.582
       664.10000  3.15776e-12      164.646
       664.20000  3.15776e-12      164.677
       664.30000  3.15776e-12      164.709
       664.40000  3.15776e-12      164.740
       664.50000  1.80991e-12      94.4228
       664.60000  1.80991e-12      94.4228
       664.70000  1.80991e-12      94.4228
       664.80000  1.80991e-12      94.4228
       664.90000  1.80991e-12      94.4228
       665.00000  1.80991e-12      94.4047
       665.10000  1.80991e-12      94.3866
       665.20000  1.80991e-12      94.3685
       665.30000  1.80991e-12      94.3323
       665.40000  1.80991e-12      94.2961
       665.50000  7.64418e-13      39.8109
       665.60000  7.64418e-13      39.7956
       665.70000  7.64418e-13      39.7727
       665.80000  7.64418e-13      39.7574
       665.90000  7.64418e-13      39.7345
       666.00000  7.64418e-13      39.7039
       666.10000  7.64418e-13      39.6809
       666.20000  7.64418e-13      39.6504
       666.30000  7.59477e-13      39.3637
       666.40000  7.59477e-13      39.3333
       666.50000  3.89959e-12      201.765
       666.60000  3.89959e-12      201.570
       666.70000  3.89959e-12      201.375
       666.80000  3.89959e-12      201.180
       666.90000  3.89959e-12      200.985
       667.00000  3.89959e-12      200.751
       667.10000  3.89959e-12      200.985
       667.20000  3.89959e-12      201.180
       667.30000  3.89959e-12      201.375
       667.40000  3.89959e-12      201.570
       667.50000  7.59426e-12      392.927
       667.60000  7.59426e-12      393.231
       667.70000  7.59426e-12      393.535
       667.80000  7.59426e-12      393.762
       667.90000  7.59426e-12      393.990
       668.00000  7.59426e-12      394.218
       668.10000  7.59426e-12      394.446
       668.20000  7.59426e-12      394.598
       668.30000  7.59426e-12      394.750
       668.40000  7.59426e-12      394.826
       668.50000  4.02508e-12      209.304
       668.60000  4.02508e-12      209.344
       668.70000  4.02508e-12      209.344
       668.80000  4.00199e-12      208.143
       668.90000  4.00199e-12      208.143
       669.00000  4.00199e-12      208.103
       669.10000  4.00199e-12      207.823
       669.20000  4.00199e-12      207.543
       669.30000  4.00199e-12      207.303
       669.40000  4.00199e-12      207.063
       669.50000  5.45264e-12      281.792
       669.60000  5.45264e-12      281.465
       669.70000  5.45264e-12      281.193
       669.80000  5.45264e-12      280.920
       669.90000  5.45264e-12      280.647
       670.00000  5.45264e-12      280.429
       670.10000  5.45264e-12      280.211
       670.20000  5.45264e-12      279.993
       670.30000  5.45264e-12      279.775
       670.40000  5.45264e-12      279.611
       670.50000  2.92905e-13      15.0114
       670.60000  2.92905e-13      15.0026
       670.70000  2.92905e-13      14.9967
       670.80000  2.92905e-13      14.9909
       670.90000  2.92905e-13      14.9850
       671.00000  2.92905e-13      14.9821
       671.10000  2.92905e-13      14.9762
       671.20000  2.92905e-13      14.9762
       671.30000  2.91246e-13      14.8885
       671.40000  2.91246e-13      14.8885
       671.50000  8.16459e-13      41.7374
       671.60000  8.16459e-13      41.7374
       671.70000  8.16459e-13      41.7374
       671.80000  8.16459e-13      41.7456
       671.90000  8.16459e-13      41.7537
       672.00000  8.16459e-13      41.7701
       672.10000  8.16459e-13      41.7864
       672.20000  8.16459e-13      41.8027
       672.30000  8.16459e-13      41.8190
       672.40000  8.16459e-13      41.8435
       672.50000  3.33256e-13      17.0893
       672.60000  3.33256e-13      17.0993
       672.70000  3.33256e-13      17.1093
       672.80000  3.33256e-13      17.1227
       672.90000  3.33256e-13      17.1360
       673.00000  3.33256e-13      17.1527
       673.10000  3.33256e-13      17.1460
       673.20000  3.33256e-13      17.1393
       673.30000  3.33256e-13      17.1327
       673.40000  3.33256e-13      17.1293
       673.50000  1.15802e-11      594.991
       673.60000  1.15802e-11      594.875
       673.70000  1.15802e-11      594.759
       673.80000  1.15082e-11      590.829
       673.90000  1.15082e-11      590.714
       674.00000  1.15082e-11      590.599
       674.10000  1.15082e-11      590.483
       674.20000  1.15082e-11      590.368
       674.30000  1.15082e-11      590.253
       674.40000  1.15082e-11      590.138
       674.50000  2.54030e-12      130.241
       674.60000  2.54030e-12      130.241
       674.70000  2.54030e-12      130.216
       674.80000  2.54030e-12      130.216
       674.90000  2.54030e-12      130.191
       675.00000  2.54030e-12      130.191
       675.10000  2.54030e-12      130.216
       675.20000  2.54030e-12      130.241
       675.30000  2.54030e-12      130.267
       675.40000  2.54030e-12      130.292
       675.50000  7.45882e-13      38.2563
       675.60000  7.45882e-13      38.2638
       675.70000  7.45882e-13      38.2712
       675.80000  7.45882e-13      38.2712
       675.90000  7.45882e-13      38.2787
       676.00000  7.45882e-13      38.2787
       676.10000  7.45882e-13      38.2861
       676.20000  7.45882e-13      38.2861
       676.30000  7.40244e-13      37.9967
       676.40000  7.40244e-13      37.9967
       676.50000  6.90470e-12      354.487
       676.60000  6.90470e-12      354.487
       676.70000  6.90470e-12      354.487
       676.80000  6.90470e-12      354.418
       676.90000  6.90470e-12      354.418
       677.00000  6.90470e-12      354.418
       677.10000  6.90470e-12      354.418
       677.20000  6.90470e-12      354.349
       677.30000  6.90470e-12      354.349
       677.40000  6.90470e-12      354.280
       677.50000  1.74589e-12      89.5816
       677.60000  1.74589e-12      89.5642
       677.70000  1.74589e-12      89.5642
       677.80000  1.74589e-12      89.5467
       677.90000  1.74589e-12      89.5293
       678.00000  1.74589e-12      89.5118
       678.10000  1.74589e-12      89.4944
       678.20000  1.74589e-12      89.4769
       678.30000  1.74589e-12      89.4594
       678.40000  1.74589e-12      89.4420
       678.50000  1.14248e-12      58.5066
       678.60000  1.14248e-12      58.4952
       678.70000  1.14248e-12      58.4838
       678.80000  1.13387e-12      58.0203
       678.90000  1.13387e-12      58.0090
       679.00000  1.13387e-12      57.9863
       679.10000  1.13387e-12      57.9863
       679.20000  1.13387e-12      57.9977
       679.30000  1.13387e-12      57.9977
       679.40000  1.13387e-12      57.9977
       679.50000  1.30269e-12      66.6324
       679.60000  1.30269e-12      66.6324
       679.70000  1.30269e-12      66.6324
       679.80000  1.30269e-12      66.6324
       679.90000  1.30269e-12      66.6324
       680.00000  1.30269e-12      66.6194
       680.10000  1.30269e-12      66.6194
       680.20000  1.30269e-12      66.6194
       680.30000  1.30269e-12      66.6063
       680.40000  1.30269e-12      66.6063
       680.50000  6.97809e-13      35.6720
       680.60000  6.97809e-13      35.6720
       680.70000  6.97809e-13      35.6650
       680.80000  6.97809e-13      35.6580
       680.90000  6.97809e-13      35.6510
       681.00000  6.97809e-13      35.6510
       681.10000  6.97809e-13      35.6441
       681.20000  6.97809e-13      35.6371
       681.30000  6.91917e-13      35.3362
       681.40000  6.91917e-13      35.3293
       681.50000  9.29949e-12      474.739
       681.60000  9.29949e-12      474.646
       681.70000  9.29949e-12      474.553
       681.80000  9.29949e-12      474.367
       681.90000  9.29949e-12      474.274
       682.00000  9.29949e-12      474.181
       682.10000  9.29949e-12      473.995
       682.20000  9.29949e-12      473.809
       682.30000  9.29949e-12      473.716
       682.40000  9.29949e-12      473.530
       682.50000  9.77723e-13      49.7661
       682.60000  9.77723e-13      49.7466
       682.70000  9.77723e-13      49.7270
       682.80000  9.77723e-13      49.7075
       682.90000  9.77723e-13      49.6781
       683.00000  9.77723e-13      49.6586
       683.10000  9.77723e-13      49.6390
       683.20000  9.77723e-13      49.6097
       683.30000  9.77723e-13      49.5803
       683.40000  9.77723e-13      49.5510
       683.50000  6.81202e-12      345.097
       683.60000  6.81202e-12      344.893
       683.70000  6.81202e-12      344.688
       683.80000  6.74734e-12      341.146
       683.90000  6.74734e-12      340.943
       684.00000  6.74734e-12      340.741
       684.10000  6.74734e-12      340.471
       684.20000  6.74734e-12      340.268
       684.30000  6.74734e-12      339.999
       684.40000  6.74734e-12      339.796
       684.50000  4.81221e-13      24.2151
       684.60000  4.81221e-13      24.1958
       684.70000  4.81221e-13      24.1766
       684.80000  4.81221e-13      24.1573
       684.90000  4.81221e-13      24.1332
       685.00000  4.81221e-13      24.1140
       685.10000  4.81221e-13      24.1332
       685.20000  4.81221e-13      24.1573
       685.30000  4.81221e-13      24.1766
       685.40000  4.81221e-13      24.1910
       685.50000  1.60117e-12      80.5547
       685.60000  1.60117e-12      80.6188
       685.70000  1.60117e-12      80.6668
       685.80000  1.60117e-12      80.7149
       685.90000  1.60117e-12      80.7629
       686.00000  1.60117e-12      80.8109
       686.10000  1.60117e-12      80.8590
       686.20000  1.60117e-12      80.8910
       686.30000  1.58605e-12      80.1746
       686.40000  1.58605e-12      80.2063
       686.50000  7.51399e-12      380.133
       686.60000  7.51399e-12      380.283
       686.70000  7.51399e-12      380.433
       686.80000  7.51399e-12      380.509
       686.90000  7.51399e-12      380.659
       687.00000  7.51399e-12      380.734
       687.10000  7.51399e-12      380.809
       687.20000  7.51399e-12      380.809
       687.30000  7.51399e-12      380.809
       687.40000  7.51399e-12      380.809
       687.50000  2.19672e-12      111.330
       687.60000  2.19672e-12      111.330
       687.70000  2.19672e-12      111.330
       687.80000  2.19672e-12      111.330
       687.90000  2.19672e-12      111.330
       688.00000  2.19672e-12      111.308
       688.10000  2.19672e-12      111.308
       688.20000  2.19672e-12      111.308
       688.30000  2.19672e-12      111.286
       688.40000  2.19672e-12      111.286
       688.50000  9.08856e-13      46.0336
       688.60000  9.08856e-13      46.0245
       688.70000  9.08856e-13      46.0245
       688.80000  9.01395e-13      45.6376
       688.90000  9.01395e-13      45.6286
       689.00000  9.01395e-13      45.6196
       689.10000  9.01395e-13      45.6106
       689.20000  9.01395e-13      45.6016
       689.30000  9.01395e-13      45.5925
       689.40000  9.01395e-13      45.5835
       689.50000  2.82733e-12      142.950
       689.60000  2.82733e-12      142.921
       689.70000  2.82733e-12      142.865
       689.80000  2.82733e-12      142.837
       689.90000  2.82733e-12      142.808
       690.00000  2.82733e-12      142.752
       690.10000  2.82733e-12      142.695
       690.20000  2.82733e-12      142.667
       690.30000  2.82733e-12      142.610
       690.40000  2.82733e-12      142.554
       690.50000  4.50874e-12      227.286
       690.60000  4.50874e-12      227.195
       690.70000  4.50874e-12      227.105
       690.80000  4.50874e-12      227.015
       690.90000  4.50874e-12      226.925
       691.00000  4.50874e-12      226.835
       691.10000  4.50874e-12      226.925
       691.20000  4.50874e-12      226.970
       691.30000  4.47459e-12      225.340
       691.40000  4.47459e-12      225.385
       691.50000  4.55726e-12      229.595
       691.60000  4.55726e-12      229.686
       691.70000  4.55726e-12      229.732
       691.80000  4.55726e-12      229.777
       691.90000  4.55726e-12      229.823
       692.00000  4.55726e-12      229.823
       692.10000  4.55726e-12      229.868
       692.20000  4.55726e-12      229.914
       692.30000  4.55726e-12      229.914
       692.40000  4.55726e-12      229.914
       692.50000  1.33313e-12      67.2700
       692.60000  1.33313e-12      67.2700
       692.70000  1.33313e-12      67.2700
       692.80000  1.33313e-12      67.2700
       692.90000  1.33313e-12      67.2700
       693.00000  1.33313e-12      67.2566
       693.10000  1.33313e-12      67.2566
       693.20000  1.33313e-12      67.2433
       693.30000  1.33313e-12      67.2300
       693.40000  1.33313e-12      67.2167
       693.50000  3.05784e-12      154.146
       693.60000  3.05784e-12      154.115
       693.70000  3.05784e-12      154.085
       693.80000  3.03675e-12      152.991
       693.90000  3.03675e-12      152.931
       694.00000  3.03675e-12      152.900
       694.10000  3.03675e-12      152.870
       694.20000  3.03675e-12      152.809
       694.30000  3.03675e-12      152.779
       694.40000  3.03675e-12      152.718
       694.50000  1.78296e-12      89.6295
       694.60000  1.78296e-12      89.6117
       694.70000  1.78296e-12      89.5760
       694.80000  1.78296e-12      89.5404
       694.90000  1.78296e-12      89.5047
       695.00000  1.78296e-12      89.4690
       695.10000  1.78296e-12      89.4334
       695.20000  1.78296e-12      89.3977
       695.30000  1.78296e-12      89.3442
       695.40000  1.78296e-12      89.3086
       695.50000  1.11164e-12      55.6598
       695.60000  1.11164e-12      55.6265
       695.70000  1.11164e-12      55.6042
       695.80000  1.11164e-12      55.5709
       695.90000  1.11164e-12      55.5375
       696.00000  1.11164e-12      55.5153
       696.10000  1.11164e-12      55.4819
       696.20000  1.11164e-12      55.4486
       696.30000  1.10514e-12      55.0910
       696.40000  1.10514e-12      55.0578
       696.50000  2.23411e-13      11.1236
       696.60000  2.23411e-13      11.1169
       696.70000  2.23411e-13      11.1080
       696.80000  2.23411e-13      11.1013
       696.90000  2.23411e-13      11.0946
       697.00000  2.23411e-13      11.0856
       697.10000  2.23411e-13      11.1013
       697.20000  2.23411e-13      11.1125
       697.30000  2.23411e-13      11.1259
       697.40000  2.23411e-13      11.1370
       697.50000  8.34482e-13      41.6407
       697.60000  8.34482e-13      41.6740
       697.70000  8.34482e-13      41.7074
       697.80000  8.34482e-13      41.7324
       697.90000  8.34482e-13      41.7575
       698.00000  8.34482e-13      41.7742
       698.10000  8.34482e-13      41.7909
       698.20000  8.34482e-13      41.8076
       698.30000  8.34482e-13      41.8159
       698.40000  8.34482e-13      41.8242
       698.50000  8.74414e-13      43.8344
       698.60000  8.74414e-13      43.8344
       698.70000  8.74414e-13      43.8256
       698.80000  8.69053e-13      43.5482
       698.90000  8.69053e-13      43.5396
       699.00000  8.69053e-13      43.5222
       699.10000  8.69053e-13      43.4440
       699.20000  8.69053e-13      43.3571
       699.30000  8.69053e-13      43.2875
       699.40000  8.69053e-13      43.2093
       699.50000  4.04666e-13      20.0876
       699.60000  4.04666e-13      20.0552
       699.70000  4.04666e-13      20.0269
       699.80000  4.04666e-13      19.9986
       699.90000  4.04666e-13      19.9702
       700.00000  4.04666e-13      19.9460
       700.10000  4.04666e-13      19.9217
       700.20000  4.04666e-13      19.8974
       700.30000  4.04666e-13      19.8772
       700.40000  4.04666e-13      19.8569
       700.50000  3.98046e-13      19.5122
       700.60000  3.98046e-13      19.4963
       700.70000  3.98046e-13      19.4804
       700.80000  3.98046e-13      19.4684
       700.90000  3.98046e-13      19.4565
       701.00000  3.98046e-13      19.4446
       701.10000  3.98046e-13      19.4406
       701.20000  3.98046e-13      19.4366
       701.30000  3.95097e-13      19.2886
       701.40000  3.95097e-13      19.2886
       701.50000  2.54436e-13      12.4216
       701.60000  2.54436e-13      12.4216
       701.70000  2.54436e-13      12.4216
       701.80000  2.54436e-13      12.4241
       701.90000  2.54436e-13      12.4241
       702.00000  2.54436e-13      12.4266
       702.10000  2.54436e-13      12.4317
       702.20000  2.54436e-13      12.4343
       702.30000  2.54436e-13      12.4394
       702.40000  2.54436e-13      12.4419
       702.50000  9.90561e-13      48.4582
       702.60000  9.90561e-13      48.4879
       702.70000  9.90561e-13      48.5078
       702.80000  9.90561e-13      48.5375
       702.90000  9.90561e-13      48.5672
       703.00000  9.90561e-13      48.5969
       703.10000  9.90561e-13      48.6861
       703.20000  9.90561e-13      48.7752
       703.30000  9.90561e-13      48.8545
       703.40000  9.90561e-13      48.9337
       703.50000  6.03404e-12      298.504
       703.60000  6.03404e-12      298.987
       703.70000  6.03404e-12      299.349
       703.80000  5.97804e-12      296.989
       703.90000  5.97804e-12      297.348
       704.00000  5.97804e-12      297.646
       704.10000  5.97804e-12      298.005
       704.20000  5.97804e-12      298.304
       704.30000  5.97804e-12      298.543
       704.40000  5.97804e-12      298.782
       704.50000  2.47626e-12      123.862
       704.60000  2.47626e-12      123.961
       704.70000  2.47626e-12      124.036
       704.80000  2.47626e-12      124.085
       704.90000  2.47626e-12      124.160
       705.00000  2.47626e-12      124.209
       705.10000  2.47626e-12      124.234
       705.20000  2.47626e-12      124.259
       705.30000  2.47626e-12      124.283
       705.40000  2.47626e-12      124.308
       705.50000  2.53696e-12      127.355
       705.60000  2.53696e-12      127.355
       705.70000  2.53696e-12      127.330
       705.80000  2.53696e-12      127.305
       705.90000  2.53696e-12      127.279
       706.00000  2.53696e-12      127.228
       706.10000  2.53696e-12      127.178
       706.20000  2.53696e-12      127.102
       706.30000  2.51193e-12      125.773
       706.40000  2.51193e-12      125.697
       706.50000  1.12942e-13      5.64712
       706.60000  1.12942e-13      5.64261
       706.70000  1.12942e-13      5.63809
       706.80000  1.12942e-13      5.63244
       706.90000  1.12942e-13      5.62679
       707.00000  1.12942e-13      5.62115
       707.10000  1.12942e-13      5.61663
       707.20000  1.12942e-13      5.61324
       707.30000  1.12942e-13      5.60872
       707.40000  1.12942e-13      5.60534
       707.50000  2.41735e-12      119.900
       707.60000  2.41735e-12      119.828
       707.70000  2.41735e-12      119.780
       707.80000  2.41735e-12      119.707
       707.90000  2.41735e-12      119.659
       708.00000  2.41735e-12      119.610
       708.10000  2.41735e-12      119.562
       708.20000  2.41735e-12      119.514
       708.30000  2.41735e-12      119.465
       708.40000  2.41735e-12      119.417
       708.50000  3.75364e-12      185.392
       708.60000  3.75364e-12      185.317
       708.70000  3.75364e-12      185.280
       708.80000  3.71064e-12      183.120
       708.90000  3.71064e-12      183.083
       709.00000  3.71064e-12      183.083
       709.10000  3.71064e-12      183.157
       709.20000  3.71064e-12      183.231
       709.30000  3.71064e-12      183.269
       709.40000  3.71064e-12      183.343
       709.50000  7.28352e-12      359.952
       709.60000  7.28352e-12      360.097
       709.70000  7.28352e-12      360.170
       709.80000  7.28352e-12      360.243
       709.90000  7.28352e-12      360.316
       710.00000  7.28352e-12      360.389
       710.10000  7.28352e-12      360.461
       710.20000  7.28352e-12      360.534
       710.30000  7.28352e-12      360.534
       710.40000  7.28352e-12      360.607
       710.50000  4.72677e-12      234.022
       710.60000  4.72677e-12      234.022
       710.70000  4.72677e-12      234.022
       710.80000  4.72677e-12      234.022
       710.90000  4.72677e-12      234.022
       711.00000  4.72677e-12      234.022
       711.10000  4.72677e-12      234.022
       711.20000  4.72677e-12      233.975
       711.30000  4.65772e-12      230.557
       711.40000  4.65772e-12      230.510
       711.50000  3.98592e-12      197.223
       711.60000  3.98592e-12      197.183
       711.70000  3.98592e-12      197.144
       711.80000  3.98592e-12      197.104
       711.90000  3.98592e-12      197.064
       712.00000  3.98592e-12      196.984
       712.10000  3.98592e-12      196.944
       712.20000  3.98592e-12      196.864
       712.30000  3.98592e-12      196.825
       712.40000  3.98592e-12      196.745
       712.50000  5.63794e-13      27.8176
       712.60000  5.63794e-13      27.8063
       712.70000  5.63794e-13      27.7894
       712.80000  5.63794e-13      27.7781
       712.90000  5.63794e-13      27.7669
       713.00000  5.63794e-13      27.7499
       713.10000  5.63794e-13      27.7499
       713.20000  5.63794e-13      27.7499
       713.30000  5.63794e-13      27.7499
       713.40000  5.63794e-13      27.7443
       713.50000  8.56803e-12      421.633
       713.60000  8.56803e-12      421.633
       713.70000  8.56803e-12      421.547
       713.80000  8.45125e-12      415.801
       713.90000  8.45125e-12      415.717
       714.00000  8.45125e-12      415.717
       714.10000  8.45125e-12      415.632
       714.20000  8.45125e-12      415.548
       714.30000  8.45125e-12      415.548
       714.40000  8.45125e-12      415.463
       714.50000  3.40927e-13      16.7566
       714.60000  3.40927e-13      16.7532
       714.70000  3.40927e-13      16.7532
       714.80000  3.40927e-13      16.7497
       714.90000  3.40927e-13      16.7463
       715.00000  3.40927e-13      16.7429
       715.10000  3.40927e-13      16.7395
       715.20000  3.40927e-13      16.7395
       715.30000  3.40927e-13      16.7395
       715.40000  3.40927e-13      16.7361
       715.50000  2.61932e-13      12.8556
       715.60000  2.61932e-13      12.8530
       715.70000  2.61932e-13      12.8504
       715.80000  2.61932e-13      12.8478
       715.90000  2.61932e-13      12.8451
       716.00000  2.61932e-13      12.8399
       716.10000  2.61932e-13      12.8373
       716.20000  2.61932e-13      12.8320
       716.30000  2.58432e-13      12.6554
       716.40000  2.58432e-13      12.6502
       716.50000  2.67455e-12      130.866
       716.60000  2.67455e-12      130.812
       716.70000  2.67455e-12      130.759
       716.80000  2.67455e-12      130.679
       716.90000  2.67455e-12      130.625
       717.00000  2.67455e-12      130.545
       717.10000  2.67455e-12      130.465
       717.20000  2.67455e-12      130.385
       717.30000  2.67455e-12      130.304
       717.40000  2.67455e-12      130.224
       717.50000  5.84121e-12      284.233
       717.60000  5.84121e-12      284.000
       717.70000  5.84121e-12      283.824
       717.80000  5.84121e-12      283.591
       717.90000  5.84121e-12      283.357
       718.00000  5.84121e-12      283.123
       718.10000  5.84121e-12      282.890
       718.20000  5.84121e-12      282.656
       718.30000  5.84121e-12      282.422
       718.40000  5.84121e-12      282.130
       718.50000  9.22252e-13      44.5079
       718.60000  9.22252e-13      44.4618
       718.70000  9.22252e-13      44.4156
       718.80000  9.11177e-13      43.8367
       718.90000  9.11177e-13      43.7912
       719.00000  9.11177e-13      43.7456
       719.10000  9.11177e-13      43.7456
       719.20000  9.11177e-13      43.7456
       719.30000  9.11177e-13      43.7456
       719.40000  9.11177e-13      43.7547
       719.50000  1.75834e-12      84.4353
       719.60000  1.75834e-12      84.4529
       719.70000  1.75834e-12      84.4529
       719.80000  1.75834e-12      84.4705
       719.90000  1.75834e-12      84.4881
       720.00000  1.75834e-12      84.5233
       720.10000  1.75834e-12      84.5408
       720.20000  1.75834e-12      84.5584
       720.30000  1.75834e-12      84.5936
       720.40000  1.75834e-12      84.6112
       720.50000  3.24859e-12      156.387
       720.60000  3.24859e-12      156.452
       720.70000  3.24859e-12      156.517
       720.80000  3.24859e-12      156.582
       720.90000  3.24859e-12      156.679
       721.00000  3.24859e-12      156.744
       721.10000  3.24859e-12      156.907
       721.20000  3.24859e-12      157.069
       721.30000  3.21195e-12      155.458
       721.40000  3.21195e-12      155.587
       721.50000  3.45119e-12      167.348
       721.60000  3.45119e-12      167.486
       721.70000  3.45119e-12      167.625
       721.80000  3.45119e-12      167.797
       721.90000  3.45119e-12      167.935
       722.00000  3.45119e-12      168.039
       722.10000  3.45119e-12      168.177
       722.20000  3.45119e-12      168.315
       722.30000  3.45119e-12      168.418
       722.40000  3.45119e-12      168.522
       722.50000  3.36483e-12      164.405
       722.60000  3.36483e-12      164.540
       722.70000  3.36483e-12      164.607
       722.80000  3.36483e-12      164.708
       722.90000  3.36483e-12      164.809
       723.00000  3.36483e-12      164.876
       723.10000  3.36483e-12      164.977
       723.20000  3.36483e-12      165.045
       723.30000  3.36483e-12      165.112
       723.40000  3.36483e-12      165.179
       723.50000  2.20184e-12      108.133
       723.60000  2.20184e-12      108.155
       723.70000  2.20184e-12      108.199
       723.80000  2.17699e-12      106.999
       723.90000  2.17699e-12      107.021
       724.00000  2.17699e-12      107.043
       724.10000  2.17699e-12      107.064
       724.20000  2.17699e-12      107.086
       724.30000  2.17699e-12      107.108
       724.40000  2.17699e-12      107.130
       724.50000  1.32778e-12      65.3403
       724.60000  1.32778e-12      65.3403
       724.70000  1.32778e-12      65.3403
       724.80000  1.32778e-12      65.3403
       724.90000  1.32778e-12      65.3403
       725.00000  1.32778e-12      65.3403
       727.00000  8.49783e-13      41.8093
       727.10000  8.49783e-13      41.7499
       727.20000  8.49783e-13      41.6904
       727.30000  8.49783e-13      41.6309
       727.40000  8.49783e-13      41.5799
       727.50000  5.55158e-13      27.1306
       727.60000  5.55158e-13      27.0973
       727.70000  5.55158e-13      27.0695
       727.80000  5.55158e-13      27.0418
       727.90000  5.55158e-13      27.0140
       728.00000  5.55158e-13      26.9918
       728.10000  5.55158e-13      26.9696
       728.20000  5.55158e-13      26.9474
       728.30000  5.55158e-13      26.9252
       728.40000  5.55158e-13      26.9085
       728.50000  3.50827e-13      16.9941
       728.60000  3.50827e-13      16.9871
       728.70000  3.50827e-13      16.9765
       728.80000  3.46915e-13      16.7837
       728.90000  3.46915e-13      16.7768
       729.00000  3.46915e-13      16.7733
       729.10000  3.46915e-13      16.7699
       729.20000  3.46915e-13      16.7664
       729.30000  3.46915e-13      16.7664
       729.40000  3.46915e-13      16.7629
       729.50000  2.17141e-13      10.4944
       729.60000  2.17141e-13      10.4944
       729.70000  2.17141e-13      10.4966
       729.80000  2.17141e-13      10.4988
       729.90000  2.17141e-13      10.5031
       730.00000  2.17141e-13      10.5075
       730.10000  2.17141e-13      10.5118
       730.20000  2.17141e-13      10.5162
       730.30000  2.17141e-13      10.5227
       730.40000  2.17141e-13      10.5292
       730.50000  8.32012e-16    0.0403692
       730.60000  8.32012e-16    0.0404025
       730.70000  8.32012e-16    0.0404358
       730.80000  8.32012e-16    0.0404691
       730.90000  8.32012e-16    0.0405107
       731.00000  8.32012e-16    0.0405523
       731.10000  8.32012e-16    0.0405440
       731.20000  8.32012e-16    0.0405356
       731.30000  8.21699e-16    0.0400250
       731.40000  8.21699e-16    0.0400250
       731.50000  4.70253e-13      22.9013
       731.60000  4.70253e-13      22.8966
       731.70000  4.70253e-13      22.8919
       731.80000  4.70253e-13      22.8919
       731.90000  4.70253e-13      22.8872
       732.00000  4.70253e-13      22.8825
       732.10000  4.70253e-13      22.8778
       732.20000  4.70253e-13      22.8731
       732.30000  4.70253e-13      22.8731
       732.40000  4.70253e-13      22.8684
       732.50000  1.99007e-13      9.67573
       732.60000  1.99007e-13      9.67374
       732.70000  1.99007e-13      9.67175
       732.80000  1.99007e-13      9.66976
       732.90000  1.99007e-13      9.66777
       733.00000  1.99007e-13      9.66578
       733.10000  1.99007e-13      9.66379
       733.20000  1.99007e-13      9.65981
       733.30000  1.99007e-13      9.65782
       733.40000  1.99007e-13      9.65384
       733.50000  4.87585e-13      23.6479
       733.60000  4.87585e-13      23.6430
       733.70000  4.87585e-13      23.6332
       733.80000  4.80895e-13      23.3041
       733.90000  4.80895e-13      23.2993
       734.00000  4.80895e-13      23.2945
       734.10000  4.80895e-13      23.2897
       734.20000  4.80895e-13      23.2849
       734.30000  4.80895e-13      23.2801
       734.40000  4.80895e-13      23.2801
       734.50000  1.41374e-13      6.84249
       734.60000  1.41374e-13      6.84107
       734.70000  1.41374e-13      6.84107
       734.80000  1.41374e-13      6.83966
       734.90000  1.41374e-13      6.83966
       735.00000  1.41374e-13      6.83825
       735.10000  1.41374e-13      6.83825
       735.20000  1.41374e-13      6.83825
       735.30000  1.41374e-13      6.83825
       735.40000  1.41374e-13      6.83683
       735.50000  1.02941e-12      49.7821
       735.60000  1.02941e-12      49.7821
       735.70000  1.02941e-12      49.7821
       735.80000  1.02941e-12      49.7924
       735.90000  1.02941e-12      49.7924
       736.00000  1.02941e-12      49.7924
       736.10000  1.02941e-12      49.7924
       736.20000  1.02941e-12      49.8027
       736.30000  1.01320e-12      49.0187
       736.40000  1.01320e-12      49.0288
       736.50000  2.08055e-13      10.0678
       736.60000  2.08055e-13      10.0699
       736.70000  2.08055e-13      10.0720
       736.80000  2.08055e-13      10.0720
       736.90000  2.08055e-13      10.0740
       737.00000  2.08055e-13      10.0761
       737.10000  2.08055e-13      10.0657
       737.20000  2.08055e-13      10.0532
       737.30000  2.08055e-13      10.0428
       737.40000  2.08055e-13      10.0324
       737.50000  3.66505e-13      17.6509
       737.60000  3.66505e-13      17.6325
       737.70000  3.66505e-13      17.6142
       737.80000  3.66505e-13      17.5959
       737.90000  3.66505e-13      17.5812
       738.00000  3.66505e-13      17.5629
       738.10000  3.66505e-13      17.5446
       738.20000  3.66505e-13      17.5263
       738.30000  3.66505e-13      17.5116
       738.40000  3.66505e-13      17.4969
       738.50000  1.08839e-14     0.519055
       738.60000  1.08839e-14     0.518620
       738.70000  1.08839e-14     0.518185
       738.80000  1.06967e-14     0.508841
       738.90000  1.06967e-14     0.508413
       739.00000  1.06967e-14     0.507985
       739.10000  1.06967e-14     0.507129
       739.20000  1.06967e-14     0.506380
       739.30000  1.06967e-14     0.505739
       739.40000  1.06967e-14     0.505097
       739.50000  3.12891e-13      14.7559
       739.60000  3.12891e-13      14.7403
       739.70000  3.12891e-13      14.7278
       739.80000  3.12891e-13      14.7121
       739.90000  3.12891e-13      14.7028
       740.00000  3.12891e-13      14.6902
       740.10000  3.12891e-13      14.6840
       740.20000  3.12891e-13      14.6746
       740.30000  3.12891e-13      14.6683
       740.40000  3.12891e-13      14.6652
       740.50000  6.79639e-13      31.8479
       740.60000  6.79639e-13      31.8411
       740.70000  6.79639e-13      31.8411
       740.80000  6.79639e-13      31.8411
       740.90000  6.79639e-13      31.8479
       741.00000  6.79639e-13      31.8547
       741.10000  6.79639e-13      31.8683
       741.20000  6.79639e-13      31.8818
       741.30000  6.67890e-13      31.3441
       741.40000  6.67890e-13      31.3641
       741.50000  6.21043e-13      29.1828
       741.60000  6.21043e-13      29.2076
       741.70000  6.21043e-13      29.2387
       741.80000  6.21043e-13      29.2635
       741.90000  6.21043e-13      29.3008
       742.00000  6.21043e-13      29.3318
       742.10000  6.21043e-13      29.3691
       742.20000  6.21043e-13      29.4126
       742.30000  6.21043e-13      29.4561
       742.40000  6.21043e-13      29.4995
       742.50000  1.17372e-12      55.8456
       742.60000  1.17372e-12      55.9395
       742.70000  1.17372e-12      56.0452
       742.80000  1.17372e-12      56.1508
       742.90000  1.17372e-12      56.2682
       743.00000  1.17372e-12      56.3855
       743.10000  1.17372e-12      56.3621
       743.20000  1.17372e-12      56.3503
       743.30000  1.17372e-12      56.3386
       743.40000  1.17372e-12      56.3151
       743.50000  1.18191e-12      56.6961
       743.60000  1.18191e-12      56.6843
       743.70000  1.18191e-12      56.6725
       743.80000  1.16367e-12      55.7861
       743.90000  1.16367e-12      55.7745
       744.00000  1.16367e-12      55.7629
       744.10000  1.16367e-12      55.7629
       744.20000  1.16367e-12      55.7512
       744.30000  1.16367e-12      55.7512
       744.40000  1.16367e-12      55.7512
       744.50000  4.26243e-13      20.4170
       744.60000  4.26243e-13      20.4170
       744.70000  4.26243e-13      20.4170
       744.80000  4.26243e-13      20.4170
       744.90000  4.26243e-13      20.4213
       745.00000  4.26243e-13      20.4213
       745.10000  4.26243e-13      20.4341
       745.20000  4.26243e-13      20.4469
       745.30000  4.26243e-13      20.4554
       745.40000  4.26243e-13      20.4682
       745.50000  2.56474e-12      123.210
       745.60000  2.56474e-12      123.261
       745.70000  2.56474e-12      123.312
       745.80000  2.56474e-12      123.364
       745.90000  2.56474e-12      123.389
       746.00000  2.56474e-12      123.441
       746.10000  2.56474e-12      123.466
       746.20000  2.56474e-12      123.492
       746.30000  2.53529e-12      122.099
       746.40000  2.53529e-12      122.125
       746.50000  1.29573e-12      62.4282
       746.60000  1.29573e-12      62.4282
       746.70000  1.29573e-12      62.4411
       746.80000  1.29573e-12      62.4411
       746.90000  1.29573e-12      62.4411
       747.00000  1.29573e-12      62.4411
       747.10000  1.29573e-12      62.4023
       747.20000  1.29573e-12      62.3764
       747.30000  1.29573e-12      62.3504
       747.40000  1.29573e-12      62.3245
       747.50000  5.50081e-12      264.479
       747.60000  5.50081e-12      264.369
       747.70000  5.50081e-12      264.259
       747.80000  5.50081e-12      264.149
       747.90000  5.50081e-12      264.039
       748.00000  5.50081e-12      263.929
       748.10000  5.50081e-12      263.874
       748.20000  5.50081e-12      263.764
       748.30000  5.50081e-12      263.654
       748.40000  5.50081e-12      263.599
       748.50000  1.93162e-12      92.5246
       748.60000  1.93162e-12      92.4860
       748.70000  1.93162e-12      92.4667
       748.80000  1.90956e-12      91.3726
       748.90000  1.90956e-12      91.3535
       749.00000  1.90956e-12      91.3344
       749.10000  1.90956e-12      91.2963
       749.20000  1.90956e-12      91.2772
       749.30000  1.90956e-12      91.2581
       749.40000  1.90956e-12      91.2390
       749.50000  1.33846e-12      63.9380
       749.60000  1.33846e-12      63.9246
       749.70000  1.33846e-12      63.8979
       749.80000  1.33846e-12      63.8845
       749.90000  1.33846e-12      63.8845
       750.00000  1.33846e-12      63.8711
       750.10000  1.33846e-12      63.8577
       750.20000  1.33846e-12      63.8443
       750.30000  1.33846e-12      63.8309
       750.40000  1.33846e-12      63.8309
       750.50000  2.75350e-12      131.287
       750.60000  2.75350e-12      131.259
       750.70000  2.75350e-12      131.259
       750.80000  2.75350e-12      131.232
       750.90000  2.75350e-12      131.232
       751.00000  2.75350e-12      131.204
       751.10000  2.75350e-12      131.204
       751.20000  2.75350e-12      131.204
       751.30000  2.71818e-12      129.494
       751.40000  2.71818e-12      129.494
       751.50000  3.93096e-12      187.271
       751.60000  3.93096e-12      187.271
       751.70000  3.93096e-12      187.271
       751.80000  3.93096e-12      187.271
       751.90000  3.93096e-12      187.271
       752.00000  3.93096e-12      187.271
       752.10000  3.93096e-12      187.271
       752.20000  3.93096e-12      187.271
       752.30000  3.93096e-12      187.271
       752.40000  3.93096e-12      187.271
       752.50000  3.79101e-12      180.642
       752.60000  3.79101e-12      180.642
       752.70000  3.79101e-12      180.642
       752.80000  3.79101e-12      180.679
       752.90000  3.79101e-12      180.679
       753.00000  3.79101e-12      180.717
       753.10000  3.79101e-12      180.717
       753.20000  3.79101e-12      180.717
       753.30000  3.79101e-12      180.717
       753.40000  3.79101e-12      180.717
       753.50000  1.06074e-12      50.5653
       753.60000  1.06074e-12      50.5653
       753.70000  1.06074e-12      50.5653
       753.80000  1.04581e-12      49.8536
       753.90000  1.04581e-12      49.8536
       754.00000  1.04581e-12      49.8536
       754.10000  1.04581e-12      49.8536
       754.20000  1.04581e-12      49.8431
       754.30000  1.04581e-12      49.8431
       754.40000  1.04581e-12      49.8431
       754.50000  2.74185e-12      130.676
       754.60000  2.74185e-12      130.676
       754.70000  2.74185e-12      130.649
       754.80000  2.74185e-12      130.649
       754.90000  2.74185e-12      130.622
       755.00000  2.74185e-12      130.622
       755.10000  2.74185e-12      130.594
       755.20000  2.74185e-12      130.594
       755.30000  2.74185e-12      130.567
       755.40000  2.74185e-12      130.567
       755.50000  2.50485e-12      119.256
       755.60000  2.50485e-12      119.231
       755.70000  2.50485e-12      119.231
       755.80000  2.50485e-12      119.206
       755.90000  2.50485e-12      119.181
       756.00000  2.50485e-12      119.181
       756.10000  2.50485e-12      119.156
       756.20000  2.50485e-12      119.131
       756.30000  2.46882e-12      117.392
       756.40000  2.46882e-12      117.392
       756.50000  4.10118e-13      19.4970
       756.60000  4.10118e-13      19.4929
       756.70000  4.10118e-13      19.4888
       756.80000  4.10118e-13      19.4888
       756.90000  4.10118e-13      19.4847
       757.00000  4.10118e-13      19.4806
       757.10000  4.10118e-13      19.4765
       757.20000  4.10118e-13      19.4724
       757.30000  4.10118e-13      19.4724
       757.40000  4.10118e-13      19.4683
       757.50000  3.16828e-13      15.0367
       757.60000  3.16828e-13      15.0335
       757.70000  3.16828e-13      15.0303
       757.80000  3.16828e-13      15.0271
       757.90000  3.16828e-13      15.0240
       758.00000  3.16828e-13      15.0240
       758.10000  3.16828e-13      15.0208
       758.20000  3.16828e-13      15.0176
       758.30000  3.16828e-13      15.0145
       758.40000  3.16828e-13      15.0113
       758.50000  3.49019e-12      165.330
       758.60000  3.49019e-12      165.296
       758.70000  3.49019e-12      165.261
       758.80000  3.42843e-12      162.302
       758.90000  3.42843e-12      162.268
       759.00000  3.42843e-12      162.233
       759.10000  3.42843e-12      162.233
       759.20000  3.42843e-12      162.199
       759.30000  3.42843e-12      162.199
       759.40000  3.42843e-12      162.165
       759.50000  8.38204e-13      39.6471
       759.60000  8.38204e-13      39.6471
       759.70000  8.38204e-13      39.6387
       759.80000  8.38204e-13      39.6387
       759.90000  8.38204e-13      39.6387
       760.00000  8.38204e-13      39.6387
       760.10000  8.38204e-13      39.6387
       760.20000  8.38204e-13      39.6387
       760.30000  8.38204e-13      39.6471
       760.40000  8.38204e-13      39.6471
       760.50000  3.43364e-12      162.411
       760.60000  3.43364e-12      162.446
       760.70000  3.43364e-12      162.446
       760.80000  3.43364e-12      162.480
       760.90000  3.43364e-12      162.480
       761.00000  3.43364e-12      162.514
       761.10000  3.43364e-12      162.652
       761.20000  3.43364e-12      162.755
       761.30000  3.36288e-12      159.501
       761.40000  3.36288e-12      159.602
       761.50000  2.52511e-12      119.918
       761.60000  2.52511e-12      119.968
       761.70000  2.52511e-12      120.019
       761.80000  2.52511e-12      120.069
       761.90000  2.52511e-12      120.120
       762.00000  2.52511e-12      120.145
       762.10000  2.52511e-12      120.195
       762.20000  2.52511e-12      120.221
       762.30000  2.52511e-12      120.246
       762.40000  2.52511e-12      120.246
       762.50000  3.85697e-13      18.3669
       762.60000  3.85697e-13      18.3707
       762.70000  3.85697e-13      18.3707
       762.80000  3.85697e-13      18.3669
       762.90000  3.85697e-13      18.3669
       763.00000  3.85697e-13      18.3630
       763.10000  3.85697e-13      18.3592
       763.20000  3.85697e-13      18.3553
       763.30000  3.85697e-13      18.3476
       763.40000  3.85697e-13      18.3399
       763.50000  1.85392e-13      8.81170
       763.60000  1.85392e-13      8.80799
       763.70000  1.85392e-13      8.80428
       763.80000  1.80757e-13      8.57873
       763.90000  1.80757e-13      8.57331
       764.00000  1.80757e-13      8.56788
       764.10000  1.80757e-13      8.56246
       764.20000  1.80757e-13      8.55523
       764.30000  1.80757e-13      8.54800
       764.40000  1.80757e-13      8.54077
       764.50000  8.11845e-13      38.3272
       764.60000  8.11845e-13      38.2947
       764.70000  8.11845e-13      38.2541
       764.80000  8.11845e-13      38.2135
       764.90000  8.11845e-13      38.1729
       765.00000  8.11845e-13      38.1242
       765.10000  8.11845e-13      38.0349
       765.20000  8.11845e-13      37.9456
       765.30000  8.11845e-13      37.8644
       765.40000  8.11845e-13      37.7833
       765.50000  4.20187e-13      19.5177
       765.60000  4.20187e-13      19.4841
       765.70000  4.20187e-13      19.4462
       765.80000  4.20187e-13      19.4168
       765.90000  4.20187e-13      19.3874
       766.00000  4.20187e-13      19.3580
       766.10000  4.20187e-13      19.3328
       766.20000  4.20187e-13      19.3076
       766.30000  4.09814e-13      18.8104
       766.40000  4.09814e-13      18.7941
       766.50000  4.18360e-14      1.91693
       766.60000  4.18360e-14      1.91525
       766.70000  4.18360e-14      1.91442
       766.80000  4.18360e-14      1.91316
       766.90000  4.18360e-14      1.91232
       767.00000  4.18360e-14      1.91191
       767.10000  4.18360e-14      1.91400
       767.20000  4.18360e-14      1.91651
       767.30000  4.18360e-14      1.91860
       767.40000  4.18360e-14      1.92069
       767.50000  1.16940e-12      53.7455
       767.60000  1.16940e-12      53.8039
       767.70000  1.16940e-12      53.8624
       767.80000  1.16940e-12      53.9092
       767.90000  1.16940e-12      53.9677
       768.00000  1.16940e-12      54.0144
       768.10000  1.16940e-12      54.0612
       768.20000  1.16940e-12      54.1080
       768.30000  1.16940e-12      54.1431
       768.40000  1.16940e-12      54.1898
       768.50000  1.40889e-12      65.3300
       768.60000  1.40889e-12      65.3723
       768.70000  1.40889e-12      65.4145
       768.80000  1.37684e-12      63.9682
       768.90000  1.37684e-12      64.0095
       769.00000  1.37684e-12      64.0370
       769.10000  1.37684e-12      64.0784
       769.20000  1.37684e-12      64.1059
       769.30000  1.37684e-12      64.1334
       769.40000  1.37684e-12      64.1610
       769.50000  6.27627e-14      2.92537
       769.60000  6.27627e-14      2.92663
       769.70000  6.27627e-14      2.92725
       769.80000  6.27627e-14      2.92851
       769.90000  6.27627e-14      2.92914
       770.00000  6.27627e-14      2.92914
       770.10000  6.27627e-14      2.92976
       770.20000  6.27627e-14      2.93039
       770.30000  6.27627e-14      2.93039
       770.40000  6.27627e-14      2.93039
       770.50000  1.06952e-12      49.9359
       770.60000  1.06952e-12      49.9359
       770.70000  1.06952e-12      49.9359
       770.80000  1.06952e-12      49.9359
       770.90000  1.06952e-12      49.9252
       771.00000  1.06952e-12      49.9145
       771.10000  1.06952e-12      49.9573
       771.20000  1.06952e-12      49.9894
       771.30000  1.04936e-12      49.0785
       771.40000  1.04936e-12      49.1100
       771.50000  2.46959e-12      115.651
       771.60000  2.46959e-12      115.700
       771.70000  2.46959e-12      115.774
       771.80000  2.46959e-12      115.824
       771.90000  2.46959e-12      115.848
       772.00000  2.46959e-12      115.898
       774.00000  6.34456e-13      29.4895
       774.10000  6.34456e-13      29.4705
       774.20000  6.34456e-13      29.4515
       774.30000  6.34456e-13      29.4388
       774.40000  6.34456e-13      29.4197
       774.50000  1.30725e-12      60.5908
       774.60000  1.30725e-12      60.5778
       774.70000  1.30725e-12      60.5516
       774.80000  1.30725e-12      60.5385
       774.90000  1.30725e-12      60.5255
       775.00000  1.30725e-12      60.5124
       775.10000  1.30725e-12      60.5124
       775.20000  1.30725e-12      60.5124
       775.30000  1.30725e-12      60.5124
       775.40000  1.30725e-12      60.5124
       775.50000  2.50027e-13      11.5762
       775.60000  2.50027e-13      11.5787
       775.70000  2.50027e-13      11.5812
       775.80000  2.50027e-13      11.5837
       775.90000  2.50027e-13      11.5887
       776.00000  2.50027e-13      11.5937
       778.00000  1.28713e-12      59.9286
       778.10000  1.28713e-12      59.9157
       778.20000  1.28713e-12      59.9028
       778.30000  1.28713e-12      59.8899
       778.40000  1.28713e-12      59.8771
       778.50000  2.08116e-13      9.68157
       778.60000  2.08116e-13      9.67949
       778.70000  2.08116e-13      9.67741
       778.80000  2.05769e-13      9.56828
       778.90000  2.05769e-13      9.56828
       779.00000  2.05769e-13      9.56622
       779.10000  2.05769e-13      9.57034
       779.20000  2.05769e-13      9.57240
       779.30000  2.05769e-13      9.57651
       779.40000  2.05769e-13      9.57857
       779.50000  2.64634e-12      123.214
       779.60000  2.64634e-12      123.240
       779.70000  2.64634e-12      123.267
       779.80000  2.64634e-12      123.293
       779.90000  2.64634e-12      123.319
       780.00000  2.64634e-12      123.346
       780.10000  2.64634e-12      123.346
       780.20000  2.64634e-12      123.372
       780.30000  2.64634e-12      123.372
       780.40000  2.64634e-12      123.372
       780.50000  5.85824e-13      27.3111
       780.60000  5.85824e-13      27.3111
       780.70000  5.85824e-13      27.3111
       780.80000  5.85824e-13      27.3111
       780.90000  5.85824e-13      27.3111
       781.00000  5.85824e-13      27.3053
       781.10000  5.85824e-13      27.3053
       781.20000  5.85824e-13      27.2994
       781.30000  5.80540e-13      27.0473
       781.40000  5.80540e-13      27.0415
       781.50000  1.46831e-12      68.3790
       781.60000  1.46831e-12      68.3644
       781.70000  1.46831e-12      68.3497
       781.80000  1.46831e-12      68.3350
       781.90000  1.46831e-12      68.3056
       782.00000  1.46831e-12      68.2909
       782.10000  1.46831e-12      68.2616
       782.20000  1.46831e-12      68.2322
       782.30000  1.46831e-12      68.2175
       782.40000  1.46831e-12      68.1882
       782.50000  4.29777e-13      19.9503
       782.60000  4.29777e-13      19.9374
       782.70000  4.29777e-13      19.9288
       782.80000  4.29777e-13      19.9202
       782.90000  4.29777e-13      19.9073
       783.00000  4.29777e-13      19.8987
       783.10000  4.29777e-13      19.9073
       783.20000  4.29777e-13      19.9159
       783.30000  4.29777e-13      19.9245
       783.40000  4.29777e-13      19.9288
       783.50000  4.74106e-14      2.19938
       783.60000  4.74106e-14      2.20032
       783.70000  4.74106e-14      2.20080
       783.80000  4.69782e-14      2.18167
       783.90000  4.69782e-14      2.18261
       784.00000  4.69782e-14      2.18308
       784.10000  4.69782e-14      2.18355
       784.20000  4.69782e-14      2.18448
       784.30000  4.69782e-14      2.18495
       784.40000  4.69782e-14      2.18542
       784.50000  1.38998e-12      64.6759
       784.60000  1.38998e-12      64.6899
       784.70000  1.38998e-12      64.7038
       784.80000  1.38998e-12      64.7177
       784.90000  1.38998e-12      64.7316
       785.00000  1.38998e-12      64.7316
       785.10000  1.38998e-12      64.7316
       785.20000  1.38998e-12      64.7316
       785.30000  1.38998e-12      64.7316
       785.40000  1.38998e-12      64.7316
       785.50000  1.62940e-12      75.8813
       785.60000  1.62940e-12      75.8813
       785.70000  1.62940e-12      75.8813
       785.80000  1.62940e-12      75.8813
       785.90000  1.62940e-12      75.8813
       786.00000  1.62940e-12      75.8813
       786.10000  1.62940e-12      75.8813
       786.20000  1.62940e-12      75.8813
       786.30000  1.61021e-12      74.9875
       786.40000  1.61021e-12      74.9875
       786.50000  2.02296e-13      9.42094
       786.60000  2.02296e-13      9.42094
       786.70000  2.02296e-13      9.42094
       786.80000  2.02296e-13      9.42094
       786.90000  2.02296e-13      9.42094
       787.00000  2.02296e-13      9.42094
       787.10000  2.02296e-13      9.42094
       787.20000  2.02296e-13      9.42094
       787.30000  2.02296e-13      9.42094
       787.40000  2.02296e-13      9.42094
       787.50000  8.45195e-13      39.3607
       787.60000  8.45195e-13      39.3607
       787.70000  8.45195e-13      39.3607
       787.80000  8.45195e-13      39.3607
       787.90000  8.45195e-13      39.3607
       788.00000  8.45195e-13      39.3607
       790.00000  1.53594e-14     0.711295
       790.10000  1.53594e-14     0.710834
       790.20000  1.53594e-14     0.710527
       790.30000  1.53594e-14     0.710066
       790.40000  1.53594e-14     0.709759
       790.50000  1.43516e-12      66.2759
       790.60000  1.43516e-12      66.2328
       790.70000  1.43516e-12      66.2041
       790.80000  1.43516e-12      66.1610
       790.90000  1.43516e-12      66.1323
       791.00000  1.43516e-12      66.0893
       791.10000  1.43516e-12      66.0462
       791.20000  1.43516e-12      66.0175
       791.30000  1.41344e-12      64.9759
       791.40000  1.41344e-12      64.9335
       791.50000  5.99245e-13      27.5114
       791.60000  5.99245e-13      27.4934
       791.70000  5.99245e-13      27.4814
       791.80000  5.99245e-13      27.4634
       791.90000  5.99245e-13      27.4514
       792.00000  5.99245e-13      27.4335
       792.10000  5.99245e-13      27.4215
       792.20000  5.99245e-13      27.4095
       792.30000  5.99245e-13      27.3915
       792.40000  5.99245e-13      27.3795
       792.50000  1.46566e-13      6.69369
       792.60000  1.46566e-13      6.69076
       792.70000  1.46566e-13      6.68783
       792.80000  1.46566e-13      6.68489
       792.90000  1.46566e-13      6.68196
       793.00000  1.46566e-13      6.67903
       793.10000  1.46566e-13      6.67463
       793.20000  1.46566e-13      6.66877
       793.30000  1.46566e-13      6.66437
       793.40000  1.46566e-13      6.65998
       793.50000  2.38746e-13      10.8415
       793.60000  2.38746e-13      10.8367
       793.70000  2.38746e-13      10.8295
       793.80000  2.34616e-13      10.6398
       793.90000  2.34616e-13      10.6352
       794.00000  2.34616e-13      10.6328
       794.10000  2.34616e-13      10.6281
       794.20000  2.34616e-13      10.6281
       794.30000  2.34616e-13      10.6258
       794.40000  2.34616e-13      10.6258
       794.50000  2.47912e-12      112.279
       794.60000  2.47912e-12      112.279
       794.70000  2.47912e-12      112.304
       794.80000  2.47912e-12      112.304
       794.90000  2.47912e-12      112.329
       795.00000  2.47912e-12      112.378
       795.10000  2.47912e-12      112.552
       795.20000  2.47912e-12      112.726
       795.30000  2.47912e-12      112.899
       795.40000  2.47912e-12      113.073
       795.50000  1.17533e-13      5.36772
       795.60000  1.17533e-13      5.37477
       795.70000  1.17533e-13      5.38065
       795.80000  1.17533e-13      5.38653
       795.90000  1.17533e-13      5.39240
       796.00000  1.17533e-13      5.39710
       796.10000  1.17533e-13      5.40180
       796.20000  1.17533e-13      5.40651
       796.30000  1.15073e-13      5.29682
       796.40000  1.15073e-13      5.30027
       796.50000  1.74326e-14     0.803467
       796.60000  1.74326e-14     0.803815
       796.70000  1.74326e-14     0.804164
       796.80000  1.74326e-14     0.804338
       796.90000  1.74326e-14     0.804513
       797.00000  1.74326e-14     0.804687
       797.10000  1.74326e-14     0.804861
       797.20000  1.74326e-14     0.804861
       797.30000  1.74326e-14     0.804861
       797.40000  1.74326e-14     0.804687
       797.50000  8.27337e-14      3.81816
       797.60000  8.27337e-14      3.81733
       797.70000  8.27337e-14      3.81568
       797.80000  8.27337e-14      3.81402
       797.90000  8.27337e-14      3.81237
       798.00000  8.27337e-14      3.80989
       800.00000  4.96929e-13      22.8041
       800.10000  4.96929e-13      22.8140
       800.20000  4.96929e-13      22.8240
       800.30000  4.96929e-13      22.8339
       800.40000  4.96929e-13      22.8389
       800.50000  3.51533e-13      16.1600
       800.60000  3.51533e-13      16.1635
       800.70000  3.51533e-13      16.1635
       800.80000  3.51533e-13      16.1670
       800.90000  3.51533e-13      16.1670
       801.00000  3.51533e-13      16.1670
       801.10000  3.51533e-13      16.1600
       801.20000  3.51533e-13      16.1529
       801.30000  3.43430e-13      15.7737
       801.40000  3.43430e-13      15.7669
       801.50000  1.33402e-12      61.2184
       801.60000  1.33402e-12      61.1917
       801.70000  1.33402e-12      61.1650
       801.80000  1.33402e-12      61.1383
       801.90000  1.33402e-12      61.1117
       802.00000  1.33402e-12      61.0850
       802.10000  1.33402e-12      61.0583
       802.20000  1.33402e-12      61.0316
       802.30000  1.33402e-12      61.0049
       802.40000  1.33402e-12      60.9783
       802.50000  4.88969e-13      22.3410
       802.60000  4.88969e-13      22.3312
       802.70000  4.88969e-13      22.3214
       802.80000  4.88969e-13      22.3068
       802.90000  4.88969e-13      22.2970
       803.00000  4.88969e-13      22.2872
       803.10000  4.88969e-13      22.2774
       803.20000  4.88969e-13      22.2676
       803.30000  4.88969e-13      22.2579
       803.40000  4.88969e-13      22.2432
       803.50000  9.57412e-13      43.5335
       803.60000  9.57412e-13      43.5144
       803.70000  9.57412e-13      43.4952
       803.80000  9.34974e-13      42.4572
       803.90000  9.34974e-13      42.4291
       804.00000  9.34974e-13      42.4104
       804.10000  9.34974e-13      42.3917
       804.20000  9.34974e-13      42.3730
       804.30000  9.34974e-13      42.3450
       804.40000  9.34974e-13      42.3263
       804.50000  1.20902e-12      54.7082
       804.60000  1.20902e-12      54.6719
       804.70000  1.20902e-12      54.6478
       804.80000  1.20902e-12      54.6236
       804.90000  1.20902e-12      54.5873
       805.00000  1.20902e-12      54.5631
       805.10000  1.20902e-12      54.6115
       805.20000  1.20902e-12      54.6719
       805.30000  1.20902e-12      54.7082
       805.40000  1.20902e-12      54.7566
       805.50000  1.30413e-12      59.1033
       805.60000  1.30413e-12      59.1424
       805.70000  1.30413e-12      59.1816
       805.80000  1.30413e-12      59.2076
       805.90000  1.30413e-12      59.2337
       806.00000  1.30413e-12      59.2598
       806.10000  1.30413e-12      59.2728
       806.20000  1.30413e-12      59.2859
       806.30000  1.27149e-12      57.8145
       806.40000  1.27149e-12      57.8272
       806.50000  2.26849e-13      10.3171
       806.60000  2.26849e-13      10.3171
       806.70000  2.26849e-13      10.3148
       806.80000  2.26849e-13      10.3148
       806.90000  2.26849e-13      10.3125
       807.00000  2.26849e-13      10.3080
       807.10000  2.26849e-13      10.2898
       807.20000  2.26849e-13      10.2694
       807.30000  2.26849e-13      10.2513
       807.40000  2.26849e-13      10.2354
       807.50000  4.69168e-13      21.1360
       807.60000  4.69168e-13      21.1032
       807.70000  4.69168e-13      21.0750
       807.80000  4.69168e-13      21.0516
       807.90000  4.69168e-13      21.0281
       808.00000  4.69168e-13      21.0046
       808.10000  4.69168e-13      20.9859
       808.20000  4.69168e-13      20.9671
       808.30000  4.69168e-13      20.9483
       808.40000  4.69168e-13      20.9343
       808.50000  1.87268e-12      83.5215
       808.60000  1.87268e-12      83.4840
       808.70000  1.87268e-12      83.4466
       808.80000  1.82598e-12      81.3476
       808.90000  1.82598e-12      81.3293
       809.00000  1.82598e-12      81.3293
       809.10000  1.82598e-12      81.3293
       809.20000  1.82598e-12      81.3476
       809.30000  1.82598e-12      81.3659
       809.40000  1.82598e-12      81.3841
       809.50000  4.69873e-13      20.9516
       809.60000  4.69873e-13      20.9657
       809.70000  4.69873e-13      20.9798
       809.80000  4.69873e-13      20.9939
       809.90000  4.69873e-13      21.0127
       810.00000  4.69873e-13      21.0315
       810.10000  4.69873e-13      21.0550
       810.20000  4.69873e-13      21.0785
       810.30000  4.69873e-13      21.1020
       810.40000  4.69873e-13      21.1302
       810.50000  6.69558e-13      30.1569
       810.60000  6.69558e-13      30.1971
       810.70000  6.69558e-13      30.2506
       810.80000  6.69558e-13      30.3042
       810.90000  6.69558e-13      30.3578
       811.00000  6.69558e-13      30.4180
       811.10000  6.69558e-13      30.4247
       811.20000  6.69558e-13      30.4381
       811.30000  6.52628e-13      29.6750
       811.40000  6.52628e-13      29.6881
       811.50000  6.21424e-14      2.82748
       811.60000  6.21424e-14      2.82810
       811.70000  6.21424e-14      2.82872
       811.80000  6.21424e-14      2.82934
       811.90000  6.21424e-14      2.82997
       812.00000  6.21424e-14      2.83059
       812.10000  6.21424e-14      2.83059
       812.20000  6.21424e-14      2.83121
       812.30000  6.21424e-14      2.83183
       812.40000  6.21424e-14      2.83183
       812.50000  1.84576e-13      8.41112
       812.60000  1.84576e-13      8.41297
       812.70000  1.84576e-13      8.41297
       812.80000  1.84576e-13      8.41297
       812.90000  1.84576e-13      8.41297
       813.00000  1.84576e-13      8.41297
       813.10000  1.84576e-13      8.40928
       813.20000  1.84576e-13      8.40743
       813.30000  1.84576e-13      8.40374
       813.40000  1.84576e-13      8.40190
       813.50000  2.27049e-13      10.3307
       813.60000  2.27049e-13      10.3284
       813.70000  2.27049e-13      10.3262
       813.80000  2.21525e-13      10.0727
       813.90000  2.21525e-13      10.0705
       814.00000  2.21525e-13      10.0661
       814.10000  2.21525e-13      10.0639
       814.20000  2.21525e-13      10.0617
       814.30000  2.21525e-13      10.0595
       814.40000  2.21525e-13      10.0595
       814.50000  7.79956e-13      35.4100
       814.60000  7.79956e-13      35.4022
       814.70000  7.79956e-13      35.3944
       814.80000  7.79956e-13      35.3866
       814.90000  7.79956e-13      35.3866
       815.00000  7.79956e-13      35.3788
       815.10000  7.79956e-13      35.4100
       815.20000  7.79956e-13      35.4334
       815.30000  7.79956e-13      35.4568
       815.40000  7.79956e-13      35.4724
       815.50000  9.59256e-13      43.6557
       815.60000  9.59256e-13      43.6653
       815.70000  9.59256e-13      43.6845
       815.80000  9.59256e-13      43.6845
       815.90000  9.59256e-13      43.6941
       816.00000  9.59256e-13      43.6941
       816.10000  9.59256e-13      43.6941
       816.20000  9.59256e-13      43.6845
       816.30000  9.35145e-13      42.5772
       816.40000  9.35145e-13      42.5678
       816.50000  2.79664e-13      12.7247
       816.60000  2.79664e-13      12.7191
       816.70000  2.79664e-13      12.7107
       816.80000  2.79664e-13      12.7023
       816.90000  2.79664e-13      12.6939
       817.00000  2.79664e-13      12.6827
       817.10000  2.79664e-13      12.6436
       817.20000  2.79664e-13      12.6072
       817.30000  2.79664e-13      12.5737
       817.40000  2.79664e-13      12.5401
       817.50000  1.59301e-13      7.12555
       817.60000  1.59301e-13      7.10962
       817.70000  1.59301e-13      7.09369
       817.80000  1.59301e-13      7.07776
       817.90000  1.59301e-13      7.06502
       818.00000  1.59301e-13      7.05068
       818.10000  1.59301e-13      7.03953
       818.20000  1.59301e-13      7.02838
       818.30000  1.59301e-13      7.01723
       818.40000  1.59301e-13      7.00926
       818.50000  3.17185e-13      13.9371
       818.60000  3.17185e-13      13.9244
       818.70000  3.17185e-13      13.9117
       818.80000  3.09149e-13      13.5469
       818.90000  3.09149e-13      13.5407
       819.00000  3.09149e-13      13.5315
       819.10000  3.09149e-13      13.5284
       819.20000  3.09149e-13      13.5253
       819.30000  3.09149e-13      13.5222
       819.40000  3.09149e-13      13.5222
       819.50000  3.97379e-13      17.3853
       819.60000  3.97379e-13      17.3893
       819.70000  3.97379e-13      17.3973
       819.80000  3.97379e-13      17.4092
       819.90000  3.97379e-13      17.4211
       820.00000  3.97379e-13      17.4370
       820.10000  3.97379e-13      17.4529
       820.20000  3.97379e-13      17.4728
       820.30000  3.97379e-13      17.4966
       820.40000  3.97379e-13      17.5204
       820.50000  6.59860e-13      29.1394
       820.60000  6.59860e-13      29.1856
       820.70000  6.59860e-13      29.2384
       820.80000  6.59860e-13      29.2912
       820.90000  6.59860e-13      29.3506
       821.00000  6.59860e-13      29.4166
       821.10000  6.59860e-13      29.4034
       821.20000  6.59860e-13      29.3968
       821.30000  6.44642e-13      28.7059
       821.40000  6.44642e-13      28.6995
       821.50000  2.94428e-13      13.1021
       821.60000  2.94428e-13      13.0991
       821.70000  2.94428e-13      13.0962
       821.80000  2.94428e-13      13.0903
       821.90000  2.94428e-13      13.0873
       822.00000  2.94428e-13      13.0844
       822.10000  2.94428e-13      13.0844
       822.20000  2.94428e-13      13.0814
       822.30000  2.94428e-13      13.0785
       822.40000  2.94428e-13      13.0785
       822.50000  2.35819e-13      10.4727
       822.60000  2.35819e-13      10.4727
       822.70000  2.35819e-13      10.4704
       822.80000  2.35819e-13      10.4704
       822.90000  2.35819e-13      10.4704
       823.00000  2.35819e-13      10.4704
       823.10000  2.35819e-13      10.4704
       823.20000  2.35819e-13      10.4704
       823.30000  2.35819e-13      10.4704
       823.40000  2.35819e-13      10.4704
       823.50000  9.89125e-13      43.9270
       823.60000  9.89125e-13      43.9270
       823.70000  9.89125e-13      43.9369
       823.80000  9.67138e-13      42.9603
       823.90000  9.67138e-13      42.9699
       824.00000  9.67138e-13      42.9796
       824.10000  9.67138e-13      42.9893
       824.20000  9.67138e-13      42.9989
       824.30000  9.67138e-13      43.0086
       824.40000  9.67138e-13      43.0280
       824.50000  7.66473e-13      34.1080
       824.60000  7.66473e-13      34.1234
       824.70000  7.66473e-13      34.1310
       824.80000  7.66473e-13      34.1464
       824.90000  7.66473e-13      34.1617
       825.00000  7.66473e-13      34.1770
       825.10000  7.66473e-13      34.1923
       825.20000  7.66473e-13      34.2077
       825.30000  7.66473e-13      34.2307
       825.40000  7.66473e-13      34.2460
       825.50000  2.16766e-12      96.9162
       825.60000  2.16766e-12      96.9596
       825.70000  2.16766e-12      97.0246
       825.80000  2.16766e-12      97.0896
       825.90000  2.16766e-12      97.1547
       826.00000  2.16766e-12      97.2197
       826.10000  2.16766e-12      97.2847
       826.20000  2.16766e-12      97.3281
       826.30000  2.12354e-12      95.4107
       826.40000  2.12354e-12      95.4531
       826.50000  1.61376e-13      7.25545
       826.60000  1.61376e-13      7.25868
       826.70000  1.61376e-13      7.26191
       826.80000  1.61376e-13      7.26352
       826.90000  1.61376e-13      7.26513
       827.00000  1.61376e-13      7.26675
       827.10000  1.61376e-13      7.26675
       827.20000  1.61376e-13      7.26836
       827.30000  1.61376e-13      7.26836
       827.40000  1.61376e-13      7.26836
       827.50000  3.30695e-13      14.8945
       827.60000  3.30695e-13      14.8945
       827.70000  3.30695e-13      14.8912
       827.80000  3.30695e-13      14.8879
       827.90000  3.30695e-13      14.8846
       828.00000  3.30695e-13      14.8813
       828.10000  3.30695e-13      14.8713
       828.20000  3.30695e-13      14.8581
       828.30000  3.30695e-13      14.8449
       828.40000  3.30695e-13      14.8317
       828.50000  1.27626e-12      57.2022
       828.60000  1.27626e-12      57.1511
       828.70000  1.27626e-12      57.1129
       828.80000  1.25120e-12      55.9539
       828.90000  1.25120e-12      55.9038
       829.00000  1.25120e-12      55.8663
       829.10000  1.25120e-12      55.8288
       829.20000  1.25120e-12      55.7912
       829.30000  1.25120e-12      55.7537
       829.40000  1.25120e-12      55.7161
       829.50000  1.48089e-12      65.8995
       829.60000  1.48089e-12      65.8551
       829.70000  1.48089e-12      65.8107
       829.80000  1.48089e-12      65.7663
       829.90000  1.48089e-12      65.7366
       830.00000  1.48089e-12      65.6922
       830.10000  1.48089e-12      65.6626
       830.20000  1.48089e-12      65.6182
       830.30000  1.48089e-12      65.5885
       830.40000  1.48089e-12      65.5441
       830.50000  1.87884e-13      8.31200
       830.60000  1.87884e-13      8.30824
       830.70000  1.87884e-13      8.30260
       830.80000  1.87884e-13      8.29885
       830.90000  1.87884e-13      8.29509
       831.00000  1.87884e-13      8.29133
       831.10000  1.87884e-13      8.28757
       831.20000  1.87884e-13      8.28381
       831.30000  1.84140e-13      8.11690
       831.40000  1.84140e-13      8.11322
       831.50000  1.15142e-12      50.7084
       831.60000  1.15142e-12      50.6969
       831.70000  1.15142e-12      50.6739
       831.80000  1.15142e-12      50.6509
       831.90000  1.15142e-12      50.6393
       832.00000  1.15142e-12      50.6278
       832.10000  1.15142e-12      50.5818
       832.20000  1.15142e-12      50.5357
       832.30000  1.15142e-12      50.5012
       832.40000  1.15142e-12      50.4666
       832.50000  5.77760e-13      25.3059
       832.60000  5.77760e-13      25.2944
       832.70000  5.77760e-13      25.2828
       832.80000  5.77760e-13      25.2655
       832.90000  5.77760e-13      25.2597
       833.00000  5.77760e-13      25.2481
       833.10000  5.77760e-13      25.2366
       833.20000  5.77760e-13      25.2308
       833.30000  5.77760e-13      25.2250
       833.40000  5.77760e-13      25.2192
       833.50000  4.70585e-14      2.05411
       833.60000  4.70585e-14      2.05363
       833.70000  4.70585e-14      2.05363
       833.80000  4.61803e-14      2.01531
       833.90000  4.61803e-14      2.01577
       834.00000  4.61803e-14      2.01577
       834.10000  4.61803e-14      2.01808
       834.20000  4.61803e-14      2.01993
       834.30000  4.61803e-14      2.02224
       834.40000  4.61803e-14      2.02408
       834.50000  2.72441e-12      119.520
       834.60000  2.72441e-12      119.629
       834.70000  2.72441e-12      119.711
       834.80000  2.72441e-12      119.792
       834.90000  2.72441e-12      119.901
       835.00000  2.72441e-12      119.983
       835.10000  2.72441e-12      120.038
       835.20000  2.72441e-12      120.119
       835.30000  2.72441e-12      120.174
       835.40000  2.72441e-12      120.228
       835.50000  1.67535e-12      73.9668
       835.60000  1.67535e-12      74.0003
       835.70000  1.67535e-12      74.0171
       835.80000  1.67535e-12      74.0506
       835.90000  1.67535e-12      74.0673
       836.00000  1.67535e-12      74.0841
       836.10000  1.67535e-12      74.0506
       836.20000  1.67535e-12      74.0338
       836.30000  1.64827e-12      72.8043
       836.40000  1.64827e-12      72.7878
       836.50000  2.04807e-12      90.4222
       836.60000  2.04807e-12      90.3813
       836.70000  2.04807e-12      90.3608
       836.80000  2.04807e-12      90.3403
       836.90000  2.04807e-12      90.2993
       837.00000  2.04807e-12      90.2789
       837.10000  2.04807e-12      90.2584
       837.20000  2.04807e-12      90.2379
       837.30000  2.04807e-12      90.2174
       837.40000  2.04807e-12      90.1969
       837.50000  2.17411e-12      95.7259
       837.60000  2.17411e-12      95.7042
       837.70000  2.17411e-12      95.6824
       837.80000  2.17411e-12      95.6607
       837.90000  2.17411e-12      95.6607
       838.00000  2.17411e-12      95.6389
       838.10000  2.17411e-12      95.6172
       838.20000  2.17411e-12      95.6172
       838.30000  2.17411e-12      95.6172
       838.40000  2.17411e-12      95.6172
       838.50000  6.20967e-13      27.3039
       838.60000  6.20967e-13      27.3039
       838.70000  6.20967e-13      27.3039
       838.80000  6.11838e-13      26.8964
       838.90000  6.11838e-13      26.8964
       839.00000  6.11838e-13      26.8964
       839.10000  6.11838e-13      26.8903
       839.20000  6.11838e-13      26.8903
       839.30000  6.11838e-13      26.8903
       839.40000  6.11838e-13      26.8842
       839.50000  2.24675e-12      98.7220
       839.60000  2.24675e-12      98.7220
       839.70000  2.24675e-12      98.6995
       839.80000  2.24675e-12      98.6995
       839.90000  2.24675e-12      98.6995
       840.00000  2.24675e-12      98.6771
       840.10000  2.24675e-12      98.6771
       840.20000  2.24675e-12      98.6771
       840.30000  2.24675e-12      98.6546
       840.40000  2.24675e-12      98.6546
       840.50000  2.45051e-12      107.602
       840.60000  2.45051e-12      107.577
       840.70000  2.45051e-12      107.577
       840.80000  2.45051e-12      107.577
       840.90000  2.45051e-12      107.553
       841.00000  2.45051e-12      107.553
       841.10000  2.45051e-12      107.553
       841.20000  2.45051e-12      107.553
       841.30000  2.41083e-12      105.787
       841.40000  2.41083e-12      105.787
       841.50000  9.88787e-13      43.3880
       841.60000  9.88787e-13      43.3781
       841.70000  9.88787e-13      43.3781
       841.80000  9.88787e-13      43.3781
       841.90000  9.88787e-13      43.3682
       842.00000  9.88787e-13      43.3682
       842.10000  9.88787e-13      43.3286
       842.20000  9.88787e-13      43.2990
       842.30000  9.88787e-13      43.2693
       842.40000  9.88787e-13      43.2298
       842.50000  3.68145e-12      160.842
       842.60000  3.68145e-12      160.769
       842.70000  3.68145e-12      160.658
       842.80000  3.68145e-12      160.585
       842.90000  3.68145e-12      160.474
       843.00000  3.68145e-12      160.401
       843.10000  3.68145e-12      160.327
       843.20000  3.68145e-12      160.253
       843.30000  3.68145e-12      160.217
       843.40000  3.68145e-12      160.143
       843.50000  3.82191e-12      166.215
       843.60000  3.82191e-12      166.177
       843.70000  3.82191e-12      166.138
       843.80000  3.75525e-12      163.203
       843.90000  3.75525e-12      163.203
       844.00000  3.75525e-12      163.166
       844.10000  3.75525e-12      163.278
       844.20000  3.75525e-12      163.353
       844.30000  3.75525e-12      163.429
       844.40000  3.75525e-12      163.504
       844.50000  7.93036e-13      34.5447
       844.60000  7.93036e-13      34.5605
       844.70000  7.93036e-13      34.5685
       844.80000  7.93036e-13      34.5843
       844.90000  7.93036e-13      34.5922
       845.00000  7.93036e-13      34.6081
       845.10000  7.93036e-13      34.6160
       845.20000  7.93036e-13      34.6240
       845.30000  7.93036e-13      34.6398
       845.40000  7.93036e-13      34.6478
       845.50000  6.33170e-14      2.76632
       845.60000  6.33170e-14      2.76695
       845.70000  6.33170e-14      2.76759
       845.80000  6.33170e-14      2.76822
       845.90000  6.33170e-14      2.76822
       846.00000  6.33170e-14      2.76885
       846.10000  6.33170e-14      2.76885
       846.20000  6.33170e-14      2.76885
       846.30000  6.21316e-14      2.71702
       846.40000  6.21316e-14      2.71764
       846.50000  5.76450e-12      252.139
       846.60000  5.76450e-12      252.081
       846.70000  5.76450e-12      252.081
       846.80000  5.76450e-12      252.081
       846.90000  5.76450e-12      252.024
       847.00000  5.76450e-12      252.024
       847.10000  5.76450e-12      251.966
       847.20000  5.76450e-12      251.966
       847.30000  5.76450e-12      251.909
       847.40000  5.76450e-12      251.851
       847.50000  2.13209e-12      93.1298
       847.60000  2.13209e-12      93.1085
       847.70000  2.13209e-12      93.0872
       847.80000  2.13209e-12      93.0658
       847.90000  2.13209e-12      93.0232
       848.00000  2.13209e-12      93.0019
       848.10000  2.13209e-12      92.5541
       848.20000  2.13209e-12      92.1490
       848.30000  2.13209e-12      91.7439
       848.40000  2.13209e-12      91.3602
       848.50000  5.18155e-12      221.148
       848.60000  5.18155e-12      220.371
       848.70000  5.18155e-12      219.594
       848.80000  5.08678e-12      214.866
       848.90000  5.08678e-12      214.204
       849.00000  5.08678e-12      213.594
       849.10000  5.08678e-12      212.983
       849.20000  5.08678e-12      212.475
       849.30000  5.08678e-12      212.017
       849.40000  5.08678e-12      211.559
       849.50000  1.04509e-09      43392.1
       849.60000  1.04509e-09      43318.9
       849.70000  1.04509e-09      43266.7
       849.80000  1.04509e-09      43214.4
       849.90000  1.04509e-09      43172.6
       850.00000  1.04509e-09      43141.3
       850.10000  1.04509e-09      43371.2
       850.20000  1.04509e-09      43590.6
       850.30000  1.04509e-09      43789.2
       850.40000  1.04509e-09      43966.9
       850.50000  1.01909e-09      43036.0
       850.60000  1.01909e-09      43178.7
       850.70000  1.01909e-09      43301.0
       850.80000  1.01909e-09      43413.1
       850.90000  1.01909e-09      43504.8
       851.00000  1.01909e-09      43586.3
       851.10000  1.01909e-09      43647.5
       851.20000  1.01909e-09      43698.4
       851.30000  1.00153e-09      42975.5
       851.40000  1.00153e-09      42985.5
       851.50000  5.26029e-10      22577.2
       851.60000  5.26029e-10      22566.6
       851.70000  5.26029e-10      22550.9
       851.80000  5.26029e-10      22524.6
       851.90000  5.26029e-10      22487.7
       852.00000  5.26029e-10      22445.7
       852.10000  5.26029e-10      22393.1
       852.20000  5.26029e-10      22335.2
       852.30000  5.26029e-10      22266.8
       852.40000  5.26029e-10      22193.2
       852.50000  1.16052e-09      48764.9
       852.60000  1.16052e-09      48567.6
       852.70000  1.16052e-09      48335.5
       852.80000  1.16052e-09      48103.4
       852.90000  1.16052e-09      47836.5
       853.00000  1.16052e-09      47558.0
       853.10000  1.16052e-09      47256.2
       853.20000  1.16052e-09      46942.9
       853.30000  1.16052e-09      46606.3
       853.40000  1.16052e-09      46258.2
       853.50000  6.12840e-10      24231.7
       853.60000  6.12840e-10      24023.3
       853.70000  6.12840e-10      23808.8
       853.80000  6.02352e-10      23178.5
       853.90000  6.02352e-10      22949.6
       854.00000  6.02352e-10      22708.7
       854.10000  6.02352e-10      22877.3
       854.20000  6.02352e-10      23046.0
       854.30000  6.02352e-10      23208.6
       854.40000  6.02352e-10      23365.2
       854.50000  4.33974e-10      16942.4
       854.60000  4.33974e-10      17050.8
       854.70000  4.33974e-10      17155.0
       854.80000  4.33974e-10      17254.8
       854.90000  4.33974e-10      17354.6
       855.00000  4.33974e-10      17450.1
       855.10000  4.33974e-10      17541.2
       855.20000  4.33974e-10      17628.0
       855.30000  4.33974e-10      17714.8
       855.40000  4.33974e-10      17792.9
       855.50000  7.76713e-10      31992.8
       855.60000  7.76713e-10      32124.8
       855.70000  7.76713e-10      32256.9
       855.80000  7.76713e-10      32381.2
       855.90000  7.76713e-10      32497.7
       856.00000  7.76713e-10      32606.4
       856.10000  7.76713e-10      32691.9
       856.20000  7.76713e-10      32769.5
       856.30000  7.61024e-10      32183.7
       856.40000  7.61024e-10      32259.8
       856.50000  7.42778e-10      31553.2
       856.60000  7.42778e-10      31620.1
       856.70000  7.42778e-10      31679.5
       856.80000  7.42778e-10      31738.9
       856.90000  7.42778e-10      31790.9
       857.00000  7.42778e-10      31842.9
       857.10000  7.42778e-10      31894.9
       857.20000  7.42778e-10      31939.5
       857.30000  7.42778e-10      31984.0
       857.40000  7.42778e-10      32021.2
       857.50000  8.98884e-10      38795.8
       857.60000  8.98884e-10      38840.8
       857.70000  8.98884e-10      38876.7
       857.80000  8.98884e-10      38912.7
       857.90000  8.98884e-10      38939.7
       858.00000  8.98884e-10      38975.6
       858.10000  8.98884e-10      38993.6
       858.20000  8.98884e-10      39011.6
       858.30000  8.98884e-10      39029.6
       858.40000  8.98884e-10      39038.5
       858.50000  1.98921e-09      86411.3
       858.60000  1.98921e-09      86431.2
       858.70000  1.98921e-09      86431.2
       858.80000  1.94667e-09      84582.7
       858.90000  1.94667e-09      84563.2
       859.00000  1.94667e-09      84543.8
       859.10000  1.94667e-09      84524.3
       859.20000  1.94667e-09      84485.4
       859.30000  1.94667e-09      84446.4
       859.40000  1.94667e-09      84388.0
       859.50000  1.29535e-09      56114.6
       859.60000  1.29535e-09      56075.7
       859.70000  1.29535e-09      56023.9
       859.80000  1.29535e-09      55959.2
       859.90000  1.29535e-09      55907.4
       860.00000  1.29535e-09      55842.6
       860.10000  1.29535e-09      55829.6
       860.20000  1.29535e-09      55816.7
       860.30000  1.29535e-09      55816.7
       860.40000  1.29535e-09      55816.7
       860.50000  1.40938e-09      60716.0
       860.60000  1.40938e-09      60716.0
       860.70000  1.40938e-09      60716.0
       860.80000  1.40938e-09      60716.0
       860.90000  1.40938e-09      60716.0
       861.00000  1.40938e-09      60716.0
       861.10000  1.40938e-09      60716.0
       861.20000  1.40938e-09      60716.0
       861.30000  1.37942e-09      59425.2
       861.40000  1.37942e-09      59439.0
       861.50000  3.38485e-09      145853.
       861.60000  3.38485e-09      145853.
       861.70000  3.38485e-09      145887.
       861.80000  3.38485e-09      145921.
       861.90000  3.38485e-09      145921.
       862.00000  3.38485e-09      145955.
       862.10000  3.38485e-09      146428.
       862.20000  3.38485e-09      146835.
       862.30000  3.38485e-09      147207.
       862.40000  3.38485e-09      147545.
       862.50000  1.23285e-09      53838.6
       862.60000  1.23285e-09      53924.9
       862.70000  1.23285e-09      53998.9
       862.80000  1.23285e-09      54060.5
       862.90000  1.23285e-09      54097.5
       863.00000  1.23285e-09      54122.2
       863.10000  1.23285e-09      54134.5
       863.20000  1.23285e-09      54134.5
       863.30000  1.23285e-09      54109.8
       863.40000  1.23285e-09      54072.8
       863.50000  9.00900e-10      39477.4
       863.60000  9.00900e-10      39423.4
       863.70000  9.00900e-10      39360.3
       863.80000  8.81638e-10      38448.2
       863.90000  8.81638e-10      38368.9
       864.00000  8.81638e-10      38271.9
       864.10000  8.81638e-10      38166.1
       864.20000  8.81638e-10      38051.5
       864.30000  8.81638e-10      37919.2
       864.40000  8.81638e-10      37787.0
       864.50000  2.97071e-09      126790.
       864.60000  2.97071e-09      126255.
       864.70000  2.97071e-09      125661.
       864.80000  2.97071e-09      125067.
       864.90000  2.97071e-09      124384.
       865.00000  2.97071e-09      123701.
       865.10000  2.97071e-09      122958.
       865.20000  2.97071e-09      122185.
       865.30000  2.97071e-09      121383.
       865.40000  2.97071e-09      120522.
       865.50000  2.20118e-09      88641.6
       865.60000  2.20118e-09      87959.2
       865.70000  2.20118e-09      87254.8
       865.80000  2.20118e-09      86506.4
       865.90000  2.20118e-09      85736.0
       866.00000  2.20118e-09      84943.6
       866.10000  2.20118e-09      85251.7
       866.20000  2.20118e-09      85537.9
       866.30000  2.15436e-09      84020.1
       866.40000  2.15436e-09      84300.2
       866.50000  1.84953e-09      72612.7
       866.60000  1.84953e-09      72853.1
       866.70000  1.84953e-09      73093.6
       866.80000  1.84953e-09      73334.0
       866.90000  1.84953e-09      73556.0
       867.00000  1.84953e-09      73777.9
       867.10000  1.84953e-09      73999.9
       867.20000  1.84953e-09      74221.8
       867.30000  1.84953e-09      74443.8
       867.40000  1.84953e-09      74647.2
       867.50000  5.91186e-09      239253.
       867.60000  5.91186e-09      239903.
       867.70000  5.91186e-09      240554.
       867.80000  5.91186e-09      241204.
       867.90000  5.91186e-09      241795.
       868.00000  5.91186e-09      242386.
       868.10000  5.91186e-09      243037.
       868.20000  5.91186e-09      243687.
       868.30000  5.91186e-09      244278.
       868.40000  5.91186e-09      244869.
       868.50000  1.55173e-08      644280.
       868.60000  1.55173e-08      645676.
       868.70000  1.55173e-08      647228.
       868.80000  1.51776e-08      634273.
       868.90000  1.51776e-08      635639.
       869.00000  1.51776e-08      636853.
       869.10000  1.51776e-08      638067.
       869.20000  1.51776e-08      639281.
       869.30000  1.51776e-08      640495.
       869.40000  1.51776e-08      641558.
       869.50000  9.80570e-09      415173.
       869.60000  9.80570e-09      415762.
       869.70000  9.80570e-09      416350.
       869.80000  9.80570e-09      416938.
       869.90000  9.80570e-09      417527.
       870.00000  9.80570e-09      418115.
       870.10000  9.80570e-09      418605.
       870.20000  9.80570e-09      419096.
       870.30000  9.80570e-09      419488.
       870.40000  9.80570e-09      419880.
       870.50000  6.91053e-09      296185.
       870.60000  6.91053e-09      296462.
       870.70000  6.91053e-09      296669.
       870.80000  6.91053e-09      296945.
       870.90000  6.91053e-09      297084.
       871.00000  6.91053e-09      297291.
       871.10000  6.91053e-09      297429.
       871.20000  6.91053e-09      297567.
       871.30000  6.76565e-09      291464.
       871.40000  6.76565e-09      291532.
       871.50000  1.18890e-08      512414.
       871.60000  1.18890e-08      512533.
       871.70000  1.18890e-08      512533.
       871.80000  1.18890e-08      512652.
       871.90000  1.18890e-08      512533.
       872.00000  1.18890e-08      512533.
       872.10000  1.18890e-08      512176.
       872.20000  1.18890e-08      511938.
       872.30000  1.18890e-08      511582.
       872.40000  1.18890e-08      511344.
       872.50000  2.31027e-08      992955.
       872.60000  2.31027e-08      992493.
       872.70000  2.31027e-08      992031.
       872.80000  2.31027e-08      991569.
       872.90000  2.31027e-08      990876.
       873.00000  2.31027e-08      990414.
       873.10000  2.31027e-08      989952.
       873.20000  2.31027e-08      989490.
       873.30000  2.31027e-08      989028.
       873.40000  2.31027e-08      988565.
       873.50000  3.11892e-08  1.33396e+06
       873.60000  3.11892e-08  1.33334e+06
       873.70000  3.11892e-08  1.33271e+06
       873.80000  3.04814e-08  1.30216e+06
       873.90000  3.04814e-08  1.30155e+06
       874.00000  3.04814e-08  1.30094e+06
       874.10000  3.04814e-08  1.30003e+06
       874.20000  3.04814e-08  1.29912e+06
       874.30000  3.04814e-08  1.29851e+06
       874.40000  3.04814e-08  1.29759e+06
       874.50000  3.68820e-08  1.56933e+06
       874.60000  3.68820e-08  1.56859e+06
       874.70000  3.68820e-08  1.56785e+06
       874.80000  3.68820e-08  1.56749e+06
       874.90000  3.68820e-08  1.56675e+06
       875.00000  3.68820e-08  1.56638e+06
       875.10000  3.68820e-08  1.56601e+06
       875.20000  3.68820e-08  1.56564e+06
       875.30000  3.68820e-08  1.56564e+06
       875.40000  3.68820e-08  1.56527e+06
       875.50000  5.69724e-08  2.41791e+06
       875.60000  5.69724e-08  2.41791e+06
       875.70000  5.69724e-08  2.41791e+06
       875.80000  5.69724e-08  2.41848e+06
       875.90000  5.69724e-08  2.41848e+06
       876.00000  5.69724e-08  2.41905e+06
       876.10000  5.69724e-08  2.41962e+06
       876.20000  5.69724e-08  2.42019e+06
       876.30000  5.56119e-08  2.36295e+06
       876.40000  5.56119e-08  2.36406e+06
       876.50000  7.49102e-08  3.18593e+06
       876.60000  7.49102e-08  3.18743e+06
       876.70000  7.49102e-08  3.18893e+06
       876.80000  7.49102e-08  3.19042e+06
       876.90000  7.49102e-08  3.19267e+06
       877.00000  7.49102e-08  3.19492e+06
       877.10000  7.49102e-08  3.19717e+06
       877.20000  7.49102e-08  3.19941e+06
       877.30000  7.49102e-08  3.20166e+06
       877.40000  7.49102e-08  3.20466e+06
       877.50000  5.03034e-08  2.15399e+06
       877.60000  5.03034e-08  2.15600e+06
       877.70000  5.03034e-08  2.15802e+06
       877.80000  5.03034e-08  2.16003e+06
       877.90000  5.03034e-08  2.16254e+06
       878.00000  5.03034e-08  2.16506e+06
       878.10000  5.03034e-08  2.16204e+06
       878.20000  5.03034e-08  2.15953e+06
       878.30000  5.03034e-08  2.15701e+06
       878.40000  5.03034e-08  2.15450e+06
       878.50000  1.20857e-07  5.17028e+06
       878.60000  1.20857e-07  5.16545e+06
       878.70000  1.20857e-07  5.15940e+06
       878.80000  1.17909e-07  5.02881e+06
       878.90000  1.17909e-07  5.02409e+06
       879.00000  1.17909e-07  5.01938e+06
       879.10000  1.17909e-07  5.01466e+06
       879.20000  1.17909e-07  5.01112e+06
       879.30000  1.17909e-07  5.00641e+06
       879.40000  1.17909e-07  5.00287e+06
       879.50000  1.24622e-07  5.28398e+06
       879.60000  1.24622e-07  5.28024e+06
       879.70000  1.24622e-07  5.27651e+06
       879.80000  1.24622e-07  5.27401e+06
       879.90000  1.24622e-07  5.27028e+06
       880.00000  1.24622e-07  5.26778e+06
       880.10000  1.24622e-07  5.26654e+06
       880.20000  1.24622e-07  5.26404e+06
       880.30000  1.24622e-07  5.26280e+06
       880.40000  1.24622e-07  5.26030e+06
       880.50000  1.84021e-07  7.76568e+06
       880.60000  1.84021e-07  7.76384e+06
       880.70000  1.84021e-07  7.76200e+06
       880.80000  1.84021e-07  7.76200e+06
       880.90000  1.84021e-07  7.76016e+06
       881.00000  1.84021e-07  7.75832e+06
       881.10000  1.84021e-07  7.75832e+06
       881.20000  1.84021e-07  7.75832e+06
       881.30000  1.79631e-07  7.57323e+06
       881.40000  1.79631e-07  7.57143e+06
       881.50000  1.22785e-07  5.17663e+06
       881.60000  1.22785e-07  5.17663e+06
       881.70000  1.22785e-07  5.17663e+06
       881.80000  1.22785e-07  5.17785e+06
       881.90000  1.22785e-07  5.17785e+06
       882.00000  1.22785e-07  5.17908e+06
       882.10000  1.22785e-07  5.18522e+06
       882.20000  1.22785e-07  5.19013e+06
       882.30000  1.22785e-07  5.19504e+06
       882.40000  1.22785e-07  5.19996e+06
       882.50000  9.48956e-08  4.02262e+06
       882.60000  9.48956e-08  4.02547e+06
       882.70000  9.48956e-08  4.02832e+06
       882.80000  9.48956e-08  4.03116e+06
       882.90000  9.48956e-08  4.03306e+06
       883.00000  9.48956e-08  4.03496e+06
       883.10000  9.48956e-08  4.03686e+06
       883.20000  9.48956e-08  4.03876e+06
       883.30000  9.48956e-08  4.03970e+06
       883.40000  9.48956e-08  4.04065e+06
       883.50000  1.61503e-07  6.87842e+06
       883.60000  1.61503e-07  6.87842e+06
       883.70000  1.61503e-07  6.87842e+06
       883.80000  1.57752e-07  6.71866e+06
       883.90000  1.57752e-07  6.71708e+06
       884.00000  1.57752e-07  6.71550e+06
       884.10000  1.57752e-07  6.70604e+06
       884.20000  1.57752e-07  6.69657e+06
       884.30000  1.57752e-07  6.68711e+06
       884.40000  1.57752e-07  6.67764e+06
       884.50000  2.11618e-07  8.94508e+06
       884.60000  2.11618e-07  8.93450e+06
       884.70000  2.11618e-07  8.92392e+06
       884.80000  2.11618e-07  8.91545e+06
       884.90000  2.11618e-07  8.90487e+06
       885.00000  2.11618e-07  8.89640e+06
       885.10000  2.11618e-07  8.89006e+06
       885.20000  2.11618e-07  8.88159e+06
       885.30000  2.11618e-07  8.87524e+06
       885.40000  2.11618e-07  8.86890e+06
       885.50000  2.15605e-07  9.03171e+06
       885.60000  2.15605e-07  9.02524e+06
       885.70000  2.15605e-07  9.02093e+06
       885.80000  2.15605e-07  9.01877e+06
       885.90000  2.15605e-07  9.01446e+06
       886.00000  2.15605e-07  9.01230e+06
       886.10000  2.15605e-07  9.01015e+06
       886.20000  2.15605e-07  9.00799e+06
       886.30000  2.10797e-07  8.80710e+06
       886.40000  2.10797e-07  8.80710e+06
       886.50000  1.76467e-07  7.37280e+06
       886.60000  1.76467e-07  7.37456e+06
       886.70000  1.76467e-07  7.37633e+06
       886.80000  1.76467e-07  7.37809e+06
       886.90000  1.76467e-07  7.37986e+06
       887.00000  1.76467e-07  7.38339e+06
       887.10000  1.76467e-07  7.38692e+06
       887.20000  1.76467e-07  7.39045e+06
       887.30000  1.76467e-07  7.39398e+06
       887.40000  1.76467e-07  7.39927e+06
       887.50000  1.85284e-07  7.77450e+06
       887.60000  1.85284e-07  7.78191e+06
       887.70000  1.85284e-07  7.78747e+06
       887.80000  1.85284e-07  7.79488e+06
       887.90000  1.85284e-07  7.80415e+06
       888.00000  1.85284e-07  7.81156e+06
       888.10000  1.85284e-07  7.82082e+06
       888.20000  1.85284e-07  7.82823e+06
       888.30000  1.85284e-07  7.83750e+06
       888.40000  1.85284e-07  7.84491e+06
       888.50000  1.48049e-07  6.27431e+06
       888.60000  1.48049e-07  6.27876e+06
       888.70000  1.48049e-07  6.28320e+06
       888.80000  1.45096e-07  6.16224e+06
       888.90000  1.45096e-07  6.16659e+06
       889.00000  1.45096e-07  6.17094e+06
       889.10000  1.45096e-07  6.17385e+06
       889.20000  1.45096e-07  6.17675e+06
       889.30000  1.45096e-07  6.17965e+06
       889.40000  1.45096e-07  6.18110e+06
       889.50000  1.26239e-07  5.38033e+06
       889.60000  1.26239e-07  5.38159e+06
       889.70000  1.26239e-07  5.38285e+06
       889.80000  1.26239e-07  5.38285e+06
       889.90000  1.26239e-07  5.38285e+06
       890.00000  1.26239e-07  5.38285e+06
       890.10000  1.26239e-07  5.37906e+06
       890.20000  1.26239e-07  5.37528e+06
       890.30000  1.26239e-07  5.37149e+06
       890.40000  1.26239e-07  5.36770e+06
       890.50000  9.97627e-08  4.23892e+06
       890.60000  9.97627e-08  4.23592e+06
       890.70000  9.97627e-08  4.23293e+06
       890.80000  9.97627e-08  4.22994e+06
       890.90000  9.97627e-08  4.22695e+06
       891.00000  9.97627e-08  4.22495e+06
       891.10000  9.97627e-08  4.22196e+06
       891.20000  9.97627e-08  4.21996e+06
       891.30000  9.79882e-08  4.14196e+06
       891.40000  9.79882e-08  4.14000e+06
       891.50000  1.75114e-07  7.39506e+06
       891.60000  1.75114e-07  7.39155e+06
       891.70000  1.75114e-07  7.38805e+06
       891.80000  1.75114e-07  7.38455e+06
       891.90000  1.75114e-07  7.38105e+06
       892.00000  1.75114e-07  7.37755e+06
       892.10000  1.75114e-07  7.37404e+06
       892.20000  1.75114e-07  7.37229e+06
       892.30000  1.75114e-07  7.36879e+06
       892.40000  1.75114e-07  7.36704e+06
       892.50000  1.08901e-07  4.57928e+06
       892.60000  1.08901e-07  4.57819e+06
       892.70000  1.08901e-07  4.57710e+06
       892.80000  1.08901e-07  4.57601e+06
       892.90000  1.08901e-07  4.57492e+06
       893.00000  1.08901e-07  4.57384e+06
       893.10000  1.08901e-07  4.57275e+06
       893.20000  1.08901e-07  4.57166e+06
       893.30000  1.08901e-07  4.57057e+06
       893.40000  1.08901e-07  4.57057e+06
       893.50000  1.22456e-07  5.13824e+06
       893.60000  1.22456e-07  5.13824e+06
       893.70000  1.22456e-07  5.13702e+06
       893.80000  1.20343e-07  5.04839e+06
       893.90000  1.20343e-07  5.04839e+06
       894.00000  1.20343e-07  5.04839e+06
       894.10000  1.20343e-07  5.05200e+06
       894.20000  1.20343e-07  5.05441e+06
       894.30000  1.20343e-07  5.05802e+06
       894.40000  1.20343e-07  5.06043e+06
       894.50000  1.00914e-07  4.24645e+06
       894.60000  1.00914e-07  4.24847e+06
       894.70000  1.00914e-07  4.25049e+06
       894.80000  1.00914e-07  4.25251e+06
       894.90000  1.00914e-07  4.25453e+06
       895.00000  1.00914e-07  4.25654e+06
       895.10000  1.00914e-07  4.25755e+06
       895.20000  1.00914e-07  4.25957e+06
       895.30000  1.00914e-07  4.26058e+06
       895.40000  1.00914e-07  4.26159e+06
       895.50000  1.46851e-07  6.20445e+06
       895.60000  1.46851e-07  6.20592e+06
       895.70000  1.46851e-07  6.20739e+06
       895.80000  1.46851e-07  6.20739e+06
       895.90000  1.46851e-07  6.20886e+06
       896.00000  1.46851e-07  6.21033e+06
       896.10000  1.46851e-07  6.21180e+06
       896.20000  1.46851e-07  6.21180e+06
       896.30000  1.44691e-07  6.12187e+06
       896.40000  1.44691e-07  6.12187e+06
       896.50000  1.63937e-07  6.93616e+06
       896.60000  1.63937e-07  6.93616e+06
       896.70000  1.63937e-07  6.93616e+06
       896.80000  1.63937e-07  6.93616e+06
       896.90000  1.63937e-07  6.93616e+06
       897.00000  1.63937e-07  6.93452e+06
       897.10000  1.63937e-07  6.93452e+06
       897.20000  1.63937e-07  6.93288e+06
       897.30000  1.63937e-07  6.93125e+06
       897.40000  1.63937e-07  6.92961e+06
       897.50000  1.00871e-07  4.26182e+06
       897.60000  1.00871e-07  4.26081e+06
       897.70000  1.00871e-07  4.25879e+06
       897.80000  1.00871e-07  4.25778e+06
       897.90000  1.00871e-07  4.25576e+06
       898.00000  1.00871e-07  4.25375e+06
       898.10000  1.00871e-07  4.25072e+06
       898.20000  1.00871e-07  4.24870e+06
       898.30000  1.00871e-07  4.24668e+06
       898.40000  1.00871e-07  4.24366e+06
       898.50000  1.01238e-07  4.25606e+06
       898.60000  1.01238e-07  4.25302e+06
       898.70000  1.01238e-07  4.24998e+06
       898.80000  9.97425e-08  4.18420e+06
       898.90000  9.97425e-08  4.18021e+06
       899.00000  9.97425e-08  4.17722e+06
       899.10000  9.97425e-08  4.17323e+06
       899.20000  9.97425e-08  4.16924e+06
       899.30000  9.97425e-08  4.16525e+06
       899.40000  9.97425e-08  4.16126e+06
       899.50000  1.13572e-07  4.73370e+06
       899.60000  1.13572e-07  4.72802e+06
       899.70000  1.13572e-07  4.72348e+06
       899.80000  1.13572e-07  4.71780e+06
       899.90000  1.13572e-07  4.71212e+06
       900.00000  1.13572e-07  4.70644e+06
       900.10000  1.13572e-07  4.69281e+06
       900.20000  1.13572e-07  4.68145e+06
       900.30000  1.13572e-07  4.66896e+06
       900.40000  1.13572e-07  4.65874e+06
       900.50000  1.09482e-07  4.48109e+06
       900.60000  1.09482e-07  4.47233e+06
       900.70000  1.09482e-07  4.46357e+06
       900.80000  1.09482e-07  4.45700e+06
       900.90000  1.09482e-07  4.45043e+06
       901.00000  1.09482e-07  4.44386e+06
       901.10000  1.09482e-07  4.43948e+06
       901.20000  1.09482e-07  4.43510e+06
       901.30000  1.07927e-07  4.36780e+06
       901.40000  1.07927e-07  4.36564e+06
       901.50000  9.27380e-08  3.74940e+06
       901.60000  9.27380e-08  3.74847e+06
       901.70000  9.27380e-08  3.74754e+06
       901.80000  9.27380e-08  3.74754e+06
       901.90000  9.27380e-08  3.74847e+06
       902.00000  9.27380e-08  3.75032e+06
       902.10000  9.27380e-08  3.76331e+06
       902.20000  9.27380e-08  3.77536e+06
       902.30000  9.27380e-08  3.78742e+06
       902.40000  9.27380e-08  3.79855e+06
       902.50000  8.93392e-08  3.67005e+06
       902.60000  8.93392e-08  3.67988e+06
       902.70000  8.93392e-08  3.68971e+06
       902.80000  8.93392e-08  3.69864e+06
       902.90000  8.93392e-08  3.70757e+06
       903.00000  8.93392e-08  3.71562e+06
       903.10000  8.93392e-08  3.72366e+06
       903.20000  8.93392e-08  3.73080e+06
       903.30000  8.93392e-08  3.73706e+06
       903.40000  8.93392e-08  3.74331e+06
       903.50000  1.18212e-07  4.96016e+06
       903.60000  1.18212e-07  4.96726e+06
       903.70000  1.18212e-07  4.97435e+06
       903.80000  1.16564e-07  4.90969e+06
       903.90000  1.16564e-07  4.91552e+06
       904.00000  1.16564e-07  4.91902e+06
       904.10000  1.16564e-07  4.92252e+06
       904.20000  1.16564e-07  4.92601e+06
       904.30000  1.16564e-07  4.92834e+06
       904.40000  1.16564e-07  4.92951e+06
       904.50000  8.69655e-08  3.67864e+06
       904.60000  8.69655e-08  3.67951e+06
       904.70000  8.69655e-08  3.67951e+06
       904.80000  8.69655e-08  3.67864e+06
       904.90000  8.69655e-08  3.67777e+06
       905.00000  8.69655e-08  3.67603e+06
       905.10000  8.69655e-08  3.67429e+06
       905.20000  8.69655e-08  3.67168e+06
       905.30000  8.69655e-08  3.66907e+06
       905.40000  8.69655e-08  3.66559e+06
       905.50000  1.06890e-07  4.50005e+06
       905.60000  1.06890e-07  4.49471e+06
       905.70000  1.06890e-07  4.48937e+06
       905.80000  1.06890e-07  4.48295e+06
       905.90000  1.06890e-07  4.47547e+06
       906.00000  1.06890e-07  4.46799e+06
       906.10000  1.06890e-07  4.46371e+06
       906.20000  1.06890e-07  4.46051e+06
       906.30000  1.05345e-07  4.39290e+06
       906.40000  1.05345e-07  4.38868e+06
       906.50000  9.91114e-08  4.12601e+06
       906.60000  9.91114e-08  4.12303e+06
       906.70000  9.91114e-08  4.12006e+06
       906.80000  9.91114e-08  4.11709e+06
       906.90000  9.91114e-08  4.11411e+06
       907.00000  9.91114e-08  4.11114e+06
       907.10000  9.91114e-08  4.10817e+06
       907.20000  9.91114e-08  4.10519e+06
       907.30000  9.91114e-08  4.10222e+06
       907.40000  9.91114e-08  4.09925e+06
       907.50000  8.92091e-08  3.68701e+06
       907.60000  8.92091e-08  3.68523e+06
       907.70000  8.92091e-08  3.68255e+06
       907.80000  8.92091e-08  3.67988e+06
       907.90000  8.92091e-08  3.67809e+06
       908.00000  8.92091e-08  3.67542e+06
       908.10000  8.92091e-08  3.67185e+06
       908.20000  8.92091e-08  3.66917e+06
       908.30000  8.92091e-08  3.66560e+06
       908.40000  8.92091e-08  3.66293e+06
       908.50000  7.86434e-08  3.22674e+06
       908.60000  7.86434e-08  3.22438e+06
       908.70000  7.86434e-08  3.22281e+06
       908.80000  7.74565e-08  3.17184e+06
       908.90000  7.74565e-08  3.17030e+06
       909.00000  7.74565e-08  3.16875e+06
       909.10000  7.74565e-08  3.16720e+06
       909.20000  7.74565e-08  3.16565e+06
       909.30000  7.74565e-08  3.16410e+06
       909.40000  7.74565e-08  3.16332e+06
       909.50000  9.14842e-08  3.73530e+06
       909.60000  9.14842e-08  3.73439e+06
       909.70000  9.14842e-08  3.73347e+06
       909.80000  9.14842e-08  3.73256e+06
       909.90000  9.14842e-08  3.73256e+06
       910.00000  9.14842e-08  3.73164e+06
       910.10000  9.14842e-08  3.73164e+06
       910.20000  9.14842e-08  3.73164e+06
       910.30000  9.14842e-08  3.73256e+06
       910.40000  9.14842e-08  3.73256e+06
       910.50000  9.06230e-08  3.69833e+06
       910.60000  9.06230e-08  3.69833e+06
       910.70000  9.06230e-08  3.69923e+06
       910.80000  9.06230e-08  3.70104e+06
       910.90000  9.06230e-08  3.70195e+06
       911.00000  9.06230e-08  3.70286e+06
       911.10000  9.06230e-08  3.70467e+06
       911.20000  9.06230e-08  3.70648e+06
       911.30000  8.91783e-08  3.64918e+06
       911.40000  8.91783e-08  3.65096e+06
       911.50000  7.78676e-08  3.19024e+06
       911.60000  7.78676e-08  3.19179e+06
       911.70000  7.78676e-08  3.19413e+06
       911.80000  7.78676e-08  3.19647e+06
       911.90000  7.78676e-08  3.19880e+06
       912.00000  7.78676e-08  3.20192e+06
       912.10000  7.78676e-08  3.20581e+06
       912.20000  7.78676e-08  3.20893e+06
       912.30000  7.78676e-08  3.21204e+06
       912.40000  7.78676e-08  3.21515e+06
       912.50000  8.33224e-08  3.44372e+06
       912.60000  8.33224e-08  3.44705e+06
       912.70000  8.33224e-08  3.45038e+06
       912.80000  8.33224e-08  3.45288e+06
       912.90000  8.33224e-08  3.45538e+06
       913.00000  8.33224e-08  3.45788e+06
       913.10000  8.33224e-08  3.46038e+06
       913.20000  8.33224e-08  3.46205e+06
       913.30000  8.33224e-08  3.46455e+06
       913.40000  8.33224e-08  3.46621e+06
       913.50000  7.58984e-08  3.15889e+06
       913.60000  7.58984e-08  3.16041e+06
       913.70000  7.58984e-08  3.16117e+06
       913.80000  7.45976e-08  3.10773e+06
       913.90000  7.45976e-08  3.10923e+06
       914.00000  7.45976e-08  3.10997e+06
       914.10000  7.45976e-08  3.10848e+06
       914.20000  7.45976e-08  3.10773e+06
       914.30000  7.45976e-08  3.10699e+06
       914.40000  7.45976e-08  3.10624e+06
       914.50000  6.63046e-08  2.76026e+06
       914.60000  6.63046e-08  2.75894e+06
       914.70000  6.63046e-08  2.75827e+06
       914.80000  6.63046e-08  2.75761e+06
       914.90000  6.63046e-08  2.75695e+06
       915.00000  6.63046e-08  2.75628e+06
       915.10000  6.63046e-08  2.75562e+06
       915.20000  6.63046e-08  2.75496e+06
       915.30000  6.63046e-08  2.75430e+06
       915.40000  6.63046e-08  2.75363e+06
       915.50000  8.18470e-08  3.39829e+06
       915.60000  8.18470e-08  3.39747e+06
       915.70000  8.18470e-08  3.39665e+06
       915.80000  8.18470e-08  3.39583e+06
       915.90000  8.18470e-08  3.39501e+06
       916.00000  8.18470e-08  3.39419e+06
       916.10000  8.18470e-08  3.39338e+06
       916.20000  8.18470e-08  3.39256e+06
       916.30000  8.03256e-08  3.32869e+06
       916.40000  8.03256e-08  3.32789e+06
       916.50000  9.26067e-08  3.83577e+06
       916.60000  9.26067e-08  3.83577e+06
       916.70000  9.26067e-08  3.83484e+06
       916.80000  9.26067e-08  3.83392e+06
       916.90000  9.26067e-08  3.83299e+06
       917.00000  9.26067e-08  3.83206e+06
       917.10000  9.26067e-08  3.83206e+06
       917.20000  9.26067e-08  3.83114e+06
       917.30000  9.26067e-08  3.83021e+06
       917.40000  9.26067e-08  3.82929e+06
       917.50000  4.71663e-08  1.95033e+06
       917.60000  4.71663e-08  1.94986e+06
       917.70000  4.71663e-08  1.94938e+06
       917.80000  4.71663e-08  1.94938e+06
       917.90000  4.71663e-08  1.94891e+06
       918.00000  4.71663e-08  1.94844e+06
       918.10000  4.71663e-08  1.94938e+06
       918.20000  4.71663e-08  1.95033e+06
       918.30000  4.71663e-08  1.95127e+06
       918.40000  4.71663e-08  1.95174e+06
       918.50000  6.35961e-08  2.63224e+06
       918.60000  6.35961e-08  2.63288e+06
       918.70000  6.35961e-08  2.63288e+06
       918.80000  6.24065e-08  2.58363e+06
       918.90000  6.24065e-08  2.58363e+06
       919.00000  6.24065e-08  2.58363e+06
       919.10000  6.24065e-08  2.58300e+06
       919.20000  6.24065e-08  2.58238e+06
       919.30000  6.24065e-08  2.58176e+06
       919.40000  6.24065e-08  2.58051e+06
       919.50000  6.01561e-08  2.48625e+06
       919.60000  6.01561e-08  2.48505e+06
       919.70000  6.01561e-08  2.48385e+06
       919.80000  6.01561e-08  2.48204e+06
       919.90000  6.01561e-08  2.48084e+06
       920.00000  6.01561e-08  2.47904e+06
       920.10000  6.01561e-08  2.47362e+06
       920.20000  6.01561e-08  2.46881e+06
       920.30000  6.01561e-08  2.46400e+06
       920.40000  6.01561e-08  2.45918e+06
       920.50000  6.53565e-08  2.66655e+06
       920.60000  6.53565e-08  2.66197e+06
       920.70000  6.53565e-08  2.65740e+06
       920.80000  6.53565e-08  2.65348e+06
       920.90000  6.53565e-08  2.64890e+06
       921.00000  6.53565e-08  2.64498e+06
       921.10000  6.53565e-08  2.64106e+06
       921.20000  6.53565e-08  2.63779e+06
       921.30000  6.41014e-08  2.58329e+06
       921.40000  6.41014e-08  2.58008e+06
       921.50000  7.42938e-08  2.98661e+06
       921.60000  7.42938e-08  2.98364e+06
       921.70000  7.42938e-08  2.98067e+06
       921.80000  7.42938e-08  2.97770e+06
       921.90000  7.42938e-08  2.97472e+06
       922.00000  7.42938e-08  2.97250e+06
       922.10000  7.42938e-08  2.96952e+06
       922.20000  7.42938e-08  2.96804e+06
       922.30000  7.42938e-08  2.96581e+06
       922.40000  7.42938e-08  2.96432e+06
       922.50000  7.62262e-08  3.03914e+06
       922.60000  7.62262e-08  3.03838e+06
       922.70000  7.62262e-08  3.03685e+06
       922.80000  7.62262e-08  3.03609e+06
       922.90000  7.62262e-08  3.03533e+06
       923.00000  7.62262e-08  3.03457e+06
       923.10000  7.62262e-08  3.03457e+06
       923.20000  7.62262e-08  3.03380e+06
       923.30000  7.62262e-08  3.03380e+06
       923.40000  7.62262e-08  3.03457e+06
       923.50000  5.44143e-08  2.16623e+06
       923.60000  5.44143e-08  2.16678e+06
       923.70000  5.44143e-08  2.16732e+06
       923.80000  5.33555e-08  2.12622e+06
       923.90000  5.33555e-08  2.12675e+06
       924.00000  5.33555e-08  2.12782e+06
       924.10000  5.33555e-08  2.12782e+06
       924.20000  5.33555e-08  2.12782e+06
       924.30000  5.33555e-08  2.12782e+06
       924.40000  5.33555e-08  2.12782e+06
       924.50000  5.61368e-08  2.23874e+06
       924.60000  5.61368e-08  2.23874e+06
       924.70000  5.61368e-08  2.23930e+06
       924.80000  5.61368e-08  2.23986e+06
       924.90000  5.61368e-08  2.23986e+06
       925.00000  5.61368e-08  2.24042e+06
       925.10000  5.61368e-08  2.24154e+06
       925.20000  5.61368e-08  2.24211e+06
       925.30000  5.61368e-08  2.24267e+06
       925.40000  5.61368e-08  2.24379e+06
       925.50000  5.09363e-08  2.03694e+06
       925.60000  5.09363e-08  2.03796e+06
       925.70000  5.09363e-08  2.03898e+06
       925.80000  5.09363e-08  2.04000e+06
       925.90000  5.09363e-08  2.04102e+06
       926.00000  5.09363e-08  2.04254e+06
       926.10000  5.09363e-08  2.04560e+06
       926.20000  5.09363e-08  2.04917e+06
       926.30000  4.99436e-08  2.01223e+06
       926.40000  4.99436e-08  2.01523e+06
       926.50000  4.60758e-08  1.86192e+06
       926.60000  4.60758e-08  1.86423e+06
       926.70000  4.60758e-08  1.86653e+06
       926.80000  4.60758e-08  1.86883e+06
       926.90000  4.60758e-08  1.87114e+06
       927.00000  4.60758e-08  1.87298e+06
       927.10000  4.60758e-08  1.87482e+06
       927.20000  4.60758e-08  1.87667e+06
       927.30000  4.60758e-08  1.87805e+06
       927.40000  4.60758e-08  1.87943e+06
       927.50000  4.29173e-08  1.75188e+06
       927.60000  4.29173e-08  1.75274e+06
       927.70000  4.29173e-08  1.75403e+06
       927.80000  4.29173e-08  1.75489e+06
       927.90000  4.29173e-08  1.75532e+06
       928.00000  4.29173e-08  1.75574e+06
       928.10000  4.29173e-08  1.75489e+06
       928.20000  4.29173e-08  1.75403e+06
       928.30000  4.29173e-08  1.75274e+06
       928.40000  4.29173e-08  1.75188e+06
       928.50000  4.76692e-08  1.94490e+06
       928.60000  4.76692e-08  1.94395e+06
       928.70000  4.76692e-08  1.94300e+06
       928.80000  4.67471e-08  1.90448e+06
       928.90000  4.67471e-08  1.90354e+06
       929.00000  4.67471e-08  1.90307e+06
       929.10000  4.67471e-08  1.90214e+06
       929.20000  4.67471e-08  1.90120e+06
       929.30000  4.67471e-08  1.90074e+06
       929.40000  4.67471e-08  1.89980e+06
       929.50000  5.89699e-08  2.39595e+06
       929.60000  5.89699e-08  2.39536e+06
       929.70000  5.89699e-08  2.39418e+06
       929.80000  5.89699e-08  2.39359e+06
       929.90000  5.89699e-08  2.39300e+06
       930.00000  5.89699e-08  2.39241e+06
       930.10000  5.89699e-08  2.39241e+06
       930.20000  5.89699e-08  2.39241e+06
       930.30000  5.89699e-08  2.39182e+06
       930.40000  5.89699e-08  2.39182e+06
       930.50000  5.72270e-08  2.32113e+06
       930.60000  5.72270e-08  2.32113e+06
       930.70000  5.72270e-08  2.32055e+06
       930.80000  5.72270e-08  2.32055e+06
       930.90000  5.72270e-08  2.32055e+06
       931.00000  5.72270e-08  2.32055e+06
       931.10000  5.72270e-08  2.32055e+06
       931.20000  5.72270e-08  2.31998e+06
       931.30000  5.61803e-08  2.27755e+06
       931.40000  5.61803e-08  2.27755e+06
       931.50000  5.13376e-08  2.08123e+06
       931.60000  5.13376e-08  2.08123e+06
       931.70000  5.13376e-08  2.08123e+06
       931.80000  5.13376e-08  2.08123e+06
       931.90000  5.13376e-08  2.08123e+06
       932.00000  5.13376e-08  2.08123e+06
       932.10000  5.13376e-08  2.08123e+06
       932.20000  5.13376e-08  2.08123e+06
       932.30000  5.13376e-08  2.08123e+06
       932.40000  5.13376e-08  2.08123e+06
       932.50000  4.62959e-08  1.87684e+06
       932.60000  4.62959e-08  1.87684e+06
       932.70000  4.62959e-08  1.87684e+06
       932.80000  4.62959e-08  1.87730e+06
       932.90000  4.62959e-08  1.87730e+06
       933.00000  4.62959e-08  1.87730e+06
       933.10000  4.62959e-08  1.87730e+06
       933.20000  4.62959e-08  1.87730e+06
       933.30000  4.62959e-08  1.87776e+06
       933.40000  4.62959e-08  1.87776e+06
       933.50000  4.34555e-08  1.76256e+06
       933.60000  4.34555e-08  1.76299e+06
       933.70000  4.34555e-08  1.76299e+06
       933.80000  4.27187e-08  1.73310e+06
       933.90000  4.27187e-08  1.73353e+06
       934.00000  4.27187e-08  1.73353e+06
       934.10000  4.27187e-08  1.73224e+06
       934.20000  4.27187e-08  1.73096e+06
       934.30000  4.27187e-08  1.72968e+06
       934.40000  4.27187e-08  1.72840e+06
       934.50000  4.89893e-08  1.98064e+06
       934.60000  4.89893e-08  1.97966e+06
       934.70000  4.89893e-08  1.97868e+06
       934.80000  4.89893e-08  1.97721e+06
       934.90000  4.89893e-08  1.97623e+06
       935.00000  4.89893e-08  1.97574e+06
       935.10000  4.89893e-08  1.97476e+06
       935.20000  4.89893e-08  1.97378e+06
       935.30000  4.89893e-08  1.97329e+06
       935.40000  4.89893e-08  1.97280e+06
       935.50000  3.92209e-08  1.57903e+06
       935.60000  3.92209e-08  1.57864e+06
       935.70000  3.92209e-08  1.57825e+06
       935.80000  3.92209e-08  1.57786e+06
       935.90000  3.92209e-08  1.57786e+06
       936.00000  3.92209e-08  1.57746e+06
       936.10000  3.92209e-08  1.57864e+06
       936.20000  3.92209e-08  1.57982e+06
       936.30000  3.85759e-08  1.55500e+06
       936.40000  3.85759e-08  1.55615e+06
       936.50000  3.87644e-08  1.56453e+06
       936.60000  3.87644e-08  1.56531e+06
       936.70000  3.87644e-08  1.56608e+06
       936.80000  3.87644e-08  1.56686e+06
       936.90000  3.87644e-08  1.56724e+06
       937.00000  3.87644e-08  1.56802e+06
       937.10000  3.87644e-08  1.56841e+06
       937.20000  3.87644e-08  1.56880e+06
       937.30000  3.87644e-08  1.56880e+06
       937.40000  3.87644e-08  1.56918e+06
       937.50000  3.56747e-08  1.44411e+06
       937.60000  3.56747e-08  1.44411e+06
       937.70000  3.56747e-08  1.44411e+06
       937.80000  3.56747e-08  1.44411e+06
       937.90000  3.56747e-08  1.44376e+06
       938.00000  3.56747e-08  1.44376e+06
       938.10000  3.56747e-08  1.44340e+06
       938.20000  3.56747e-08  1.44269e+06
       938.30000  3.56747e-08  1.44233e+06
       938.40000  3.56747e-08  1.44162e+06
       938.50000  4.14492e-08  1.67455e+06
       938.60000  4.14492e-08  1.67372e+06
       938.70000  4.14492e-08  1.67247e+06
       938.80000  4.08030e-08  1.64559e+06
       938.90000  4.08030e-08  1.64436e+06
       939.00000  4.08030e-08  1.64355e+06
       939.10000  4.08030e-08  1.64232e+06
       939.20000  4.08030e-08  1.64069e+06
       939.30000  4.08030e-08  1.63947e+06
       939.40000  4.08030e-08  1.63783e+06
       939.50000  3.57236e-08  1.43252e+06
       939.60000  3.57236e-08  1.43109e+06
       939.70000  3.57236e-08  1.42966e+06
       939.80000  3.57236e-08  1.42823e+06
       939.90000  3.57236e-08  1.42644e+06
       940.00000  3.57236e-08  1.42466e+06
       940.10000  3.57236e-08  1.42216e+06
       940.20000  3.57236e-08  1.41966e+06
       940.30000  3.57236e-08  1.41751e+06
       940.40000  3.57236e-08  1.41537e+06
       940.50000  2.81338e-08  1.11297e+06
       940.60000  2.81338e-08  1.11157e+06
       940.70000  2.81338e-08  1.11016e+06
       940.80000  2.81338e-08  1.10875e+06
       940.90000  2.81338e-08  1.10735e+06
       941.00000  2.81338e-08  1.10622e+06
       941.10000  2.81338e-08  1.10510e+06
       941.20000  2.81338e-08  1.10425e+06
       941.30000  2.77145e-08  1.08696e+06
       941.40000  2.77145e-08  1.08613e+06
       941.50000  2.83072e-08  1.10851e+06
       941.60000  2.83072e-08  1.10794e+06
       941.70000  2.83072e-08  1.10738e+06
       941.80000  2.83072e-08  1.10681e+06
       941.90000  2.83072e-08  1.10625e+06
       942.00000  2.83072e-08  1.10596e+06
       942.10000  2.83072e-08  1.10681e+06
       942.20000  2.83072e-08  1.10738e+06
       942.30000  2.83072e-08  1.10823e+06
       942.40000  2.83072e-08  1.10879e+06
       942.50000  3.30713e-08  1.29606e+06
       942.60000  3.30713e-08  1.29706e+06
       942.70000  3.30713e-08  1.29772e+06
       942.80000  3.30713e-08  1.29838e+06
       942.90000  3.30713e-08  1.29904e+06
       943.00000  3.30713e-08  1.29970e+06
       943.10000  3.30713e-08  1.30069e+06
       943.20000  3.30713e-08  1.30136e+06
       943.30000  3.30713e-08  1.30202e+06
       943.40000  3.30713e-08  1.30268e+06
       943.50000  4.00685e-08  1.57910e+06
       943.60000  4.00685e-08  1.57990e+06
       943.70000  4.00685e-08  1.58070e+06
       943.80000  3.94574e-08  1.55738e+06
       943.90000  3.94574e-08  1.55817e+06
       944.00000  3.94574e-08  1.55896e+06
       944.10000  3.94574e-08  1.55975e+06
       944.20000  3.94574e-08  1.56054e+06
       944.30000  3.94574e-08  1.56094e+06
       944.40000  3.94574e-08  1.56172e+06
       944.50000  2.48514e-08      984114.
       944.60000  2.48514e-08      984611.
       944.70000  2.48514e-08      984859.
       944.80000  2.48514e-08      985356.
       944.90000  2.48514e-08      985853.
       945.00000  2.48514e-08      986102.
       945.10000  2.48514e-08      986599.
       945.20000  2.48514e-08      987096.
       945.30000  2.48514e-08      987344.
       945.40000  2.48514e-08      987842.
       945.50000  2.75189e-08  1.09415e+06
       945.60000  2.75189e-08  1.09470e+06
       945.70000  2.75189e-08  1.09498e+06
       945.80000  2.75189e-08  1.09553e+06
       945.90000  2.75189e-08  1.09580e+06
       946.00000  2.75189e-08  1.09608e+06
       946.10000  2.75189e-08  1.09663e+06
       946.20000  2.75189e-08  1.09718e+06
       946.30000  2.71059e-08  1.08125e+06
       946.40000  2.71059e-08  1.08180e+06
       946.50000  2.58664e-08  1.03284e+06
       946.60000  2.58664e-08  1.03310e+06
       946.70000  2.58664e-08  1.03362e+06
       946.80000  2.58664e-08  1.03388e+06
       946.90000  2.58664e-08  1.03414e+06
       947.00000  2.58664e-08  1.03465e+06
       947.10000  2.58664e-08  1.03491e+06
       947.20000  2.58664e-08  1.03517e+06
       947.30000  2.58664e-08  1.03543e+06
       947.40000  2.58664e-08  1.03569e+06
       947.50000  2.71201e-08  1.08589e+06
       947.60000  2.71201e-08  1.08616e+06
       947.70000  2.71201e-08  1.08643e+06
       947.80000  2.71201e-08  1.08643e+06
       947.90000  2.71201e-08  1.08670e+06
       948.00000  2.71201e-08  1.08670e+06
       948.10000  2.71201e-08  1.08670e+06
       948.20000  2.71201e-08  1.08670e+06
       948.30000  2.71201e-08  1.08643e+06
       948.40000  2.71201e-08  1.08643e+06
       948.50000  2.56924e-08  1.02898e+06
       948.60000  2.56924e-08  1.02898e+06
       948.70000  2.56924e-08  1.02898e+06
       948.80000  2.52799e-08  1.01221e+06
       948.90000  2.52799e-08  1.01221e+06
       949.00000  2.52799e-08  1.01195e+06
       949.10000  2.52799e-08  1.01195e+06
       949.20000  2.52799e-08  1.01170e+06
       949.30000  2.52799e-08  1.01170e+06
       949.40000  2.52799e-08  1.01145e+06
       949.50000  2.78036e-08  1.11242e+06
       949.60000  2.78036e-08  1.11214e+06
       949.70000  2.78036e-08  1.11186e+06
       949.80000  2.78036e-08  1.11186e+06
       949.90000  2.78036e-08  1.11159e+06
       950.00000  2.78036e-08  1.11131e+06
       950.10000  2.78036e-08  1.11131e+06
       950.20000  2.78036e-08  1.11103e+06
       950.30000  2.78036e-08  1.11075e+06
       950.40000  2.78036e-08  1.11075e+06
       950.50000  3.04694e-08  1.21695e+06
       950.60000  3.04694e-08  1.21664e+06
       950.70000  3.04694e-08  1.21634e+06
       950.80000  3.04694e-08  1.21634e+06
       950.90000  3.04694e-08  1.21604e+06
       951.00000  3.04694e-08  1.21573e+06
       951.10000  3.04694e-08  1.21543e+06
       951.20000  3.04694e-08  1.21512e+06
       951.30000  2.99820e-08  1.19568e+06
       951.40000  2.99820e-08  1.19538e+06
       951.50000  3.09687e-08  1.23441e+06
       951.60000  3.09687e-08  1.23410e+06
       951.70000  3.09687e-08  1.23379e+06
       951.80000  3.09687e-08  1.23348e+06
       951.90000  3.09687e-08  1.23317e+06
       952.00000  3.09687e-08  1.23286e+06
       952.10000  3.09687e-08  1.23039e+06
       952.20000  3.09687e-08  1.22791e+06
       952.30000  3.09687e-08  1.22574e+06
       952.40000  3.09687e-08  1.22357e+06
       952.50000  2.34255e-08      923901.
       952.60000  2.34255e-08      922261.
       952.70000  2.34255e-08      920856.
       952.80000  2.34255e-08      919450.
       952.90000  2.34255e-08      918045.
       953.00000  2.34255e-08      916873.
       953.10000  2.34255e-08      915702.
       953.20000  2.34255e-08      914531.
       953.30000  2.34255e-08      913594.
       953.40000  2.34255e-08      912423.
       953.50000  2.57138e-08  1.00052e+06
       953.60000  2.57138e-08      999752.
       953.70000  2.57138e-08      998723.
       953.80000  2.52868e-08      981382.
       953.90000  2.52868e-08      980623.
       954.00000  2.52868e-08      980117.
       954.10000  2.52868e-08      979864.
       954.20000  2.52868e-08      979612.
       954.30000  2.52868e-08      979612.
       954.40000  2.52868e-08      979612.
       954.50000  2.29722e-08      889714.
       954.60000  2.29722e-08      889714.
       954.70000  2.29722e-08      889714.
       954.80000  2.29722e-08      889714.
       954.90000  2.29722e-08      889944.
       955.00000  2.29722e-08      889944.
       955.10000  2.29722e-08      890173.
       955.20000  2.29722e-08      890173.
       955.30000  2.29722e-08      890403.
       955.40000  2.29722e-08      890633.
       955.50000  2.44372e-08      947673.
       955.60000  2.44372e-08      947917.
       955.70000  2.44372e-08      948162.
       955.80000  2.44372e-08      948650.
       955.90000  2.44372e-08      948895.
       956.00000  2.44372e-08      949384.
       956.10000  2.44372e-08      949872.
       956.20000  2.44372e-08      950117.
       956.30000  2.40382e-08      935087.
       956.40000  2.40382e-08      935808.
       956.50000  2.15160e-08      838050.
       956.60000  2.15160e-08      838480.
       956.70000  2.15160e-08      839125.
       956.80000  2.15160e-08      839556.
       956.90000  2.15160e-08      840201.
       957.00000  2.15160e-08      840847.
       957.10000  2.15160e-08      841492.
       957.20000  2.15160e-08      842138.
       957.30000  2.15160e-08      842998.
       957.40000  2.15160e-08      843644.
       957.50000  2.30074e-08      902809.
       957.60000  2.30074e-08      903730.
       957.70000  2.30074e-08      904650.
       957.80000  2.30074e-08      905570.
       957.90000  2.30074e-08      906490.
       958.00000  2.30074e-08      907411.
       958.10000  2.30074e-08      907411.
       958.20000  2.30074e-08      907181.
       958.30000  2.30074e-08      907181.
       958.40000  2.30074e-08      907181.
       958.50000  2.21295e-08      872568.
       958.60000  2.21295e-08      872347.
       958.70000  2.21295e-08      872347.
       958.80000  2.17395e-08      856969.
       958.90000  2.17395e-08      856752.
       959.00000  2.17395e-08      856752.
       959.10000  2.17395e-08      856534.
       959.20000  2.17395e-08      856534.
       959.30000  2.17395e-08      856317.
       959.40000  2.17395e-08      856100.
       959.50000  1.94483e-08      765875.
       959.60000  1.94483e-08      765681.
       959.70000  1.94483e-08      765681.
       959.80000  1.94483e-08      765486.
       959.90000  1.94483e-08      765292.
       960.00000  1.94483e-08      765097.
       960.10000  1.94483e-08      764903.
       960.20000  1.94483e-08      764708.
       960.30000  1.94483e-08      764514.
       960.40000  1.94483e-08      764319.
       960.50000  2.17866e-08      855997.
       960.60000  2.17866e-08      855779.
       960.70000  2.17866e-08      855561.
       960.80000  2.17866e-08      855343.
       960.90000  2.17866e-08      855125.
       961.00000  2.17866e-08      854908.
       961.10000  2.17866e-08      854690.
       961.20000  2.17866e-08      854472.
       961.30000  2.14081e-08      839412.
       961.40000  2.14081e-08      839198.
       961.50000  2.12369e-08      832274.
       961.60000  2.12369e-08      831850.
       961.70000  2.12369e-08      831637.
       961.80000  2.12369e-08      831425.
       961.90000  2.12369e-08      831213.
       962.00000  2.12369e-08      831000.
       962.10000  2.12369e-08      830576.
       962.20000  2.12369e-08      830363.
       962.30000  2.12369e-08      830151.
       962.40000  2.12369e-08      829726.
       962.50000  2.26176e-08      883443.
       962.60000  2.26176e-08      883217.
       962.70000  2.26176e-08      882764.
       962.80000  2.26176e-08      882538.
       962.90000  2.26176e-08      882086.
       963.00000  2.26176e-08      881860.
       963.10000  2.26176e-08      881633.
       963.20000  2.26176e-08      881181.
       963.30000  2.26176e-08      880955.
       963.40000  2.26176e-08      880502.
       963.50000  1.91096e-08      743745.
       963.60000  1.91096e-08      743362.
       963.70000  1.91096e-08      743171.
       963.80000  1.87625e-08      729300.
       963.90000  1.87625e-08      728925.
       964.00000  1.87625e-08      728737.
       964.10000  1.87625e-08      728362.
       964.20000  1.87625e-08      727799.
       964.30000  1.87625e-08      727424.
       964.40000  1.87625e-08      727236.
       964.50000  1.73001e-08      670204.
       964.60000  1.73001e-08      669858.
       964.70000  1.73001e-08      669685.
       964.80000  1.73001e-08      669339.
       964.90000  1.73001e-08      669166.
       965.00000  1.73001e-08      668820.
       965.10000  1.73001e-08      668647.
       965.20000  1.73001e-08      668474.
       965.30000  1.73001e-08      668301.
       965.40000  1.73001e-08      668301.
       965.50000  1.77733e-08      686404.
       965.60000  1.77733e-08      686226.
       965.70000  1.77733e-08      686226.
       965.80000  1.77733e-08      686048.
       965.90000  1.77733e-08      686048.
       966.00000  1.77733e-08      686048.
       966.10000  1.77733e-08      686226.
       966.20000  1.77733e-08      686404.
       966.30000  1.74446e-08      674059.
       966.40000  1.74446e-08      674233.
       966.50000  1.61840e-08      625675.
       966.60000  1.61840e-08      625836.
       966.70000  1.61840e-08      625998.
       966.80000  1.61840e-08      626160.
       966.90000  1.61840e-08      626322.
       967.00000  1.61840e-08      626484.
       967.10000  1.61840e-08      626646.
       967.20000  1.61840e-08      626808.
       967.30000  1.61840e-08      626969.
       967.40000  1.61840e-08      627131.
       967.50000  1.34648e-08      521762.
       967.60000  1.34648e-08      521896.
       967.70000  1.34648e-08      522031.
       967.80000  1.34648e-08      522031.
       967.90000  1.34648e-08      522166.
       968.00000  1.34648e-08      522300.
       968.10000  1.34648e-08      522300.
       968.20000  1.34648e-08      522435.
       968.30000  1.34648e-08      522435.
       968.40000  1.34648e-08      522435.
       968.50000  1.50924e-08      585737.
       968.60000  1.50924e-08      585737.
       968.70000  1.50924e-08      585737.
       968.80000  1.48128e-08      575032.
       968.90000  1.48128e-08      575032.
       969.00000  1.48128e-08      575032.
       969.10000  1.48128e-08      575032.
       969.20000  1.48128e-08      575032.
       969.30000  1.48128e-08      575032.
       969.40000  1.48128e-08      575032.
       969.50000  1.57772e-08      612472.
       969.60000  1.57772e-08      612472.
       969.70000  1.57772e-08      612472.
       969.80000  1.57772e-08      612472.
       969.90000  1.57772e-08      612472.
       970.00000  1.57772e-08      612472.
       970.10000  1.57772e-08      612630.
       970.20000  1.57772e-08      612788.
       970.30000  1.57772e-08      612788.
       970.40000  1.57772e-08      612946.
       970.50000  1.56987e-08      609893.
       970.60000  1.56987e-08      610050.
       970.70000  1.56987e-08      610050.
       970.80000  1.56987e-08      610050.
       970.90000  1.56987e-08      610050.
       971.00000  1.56987e-08      610050.
       971.10000  1.56987e-08      610050.
       971.20000  1.56987e-08      609893.
       971.30000  1.54084e-08      598618.
       971.40000  1.54084e-08      598464.
       971.50000  1.30420e-08      506553.
       971.60000  1.30420e-08      506423.
       971.70000  1.30420e-08      506292.
       971.80000  1.30420e-08      506162.
       971.90000  1.30420e-08      506031.
       972.00000  1.30420e-08      505771.
       972.10000  1.30420e-08      505249.
       972.20000  1.30420e-08      504727.
       972.30000  1.30420e-08      504336.
       972.40000  1.30420e-08      503814.
       972.50000  1.28370e-08      495509.
       972.60000  1.28370e-08      494995.
       972.70000  1.28370e-08      494610.
       972.80000  1.28370e-08      494225.
       972.90000  1.28370e-08      493840.
       973.00000  1.28370e-08      493583.
       973.10000  1.28370e-08      493198.
       973.20000  1.28370e-08      492942.
       973.30000  1.28370e-08      492685.
       973.40000  1.28370e-08      492428.
       973.50000  1.18548e-08      454515.
       973.60000  1.18548e-08      454278.
       973.70000  1.18548e-08      454159.
       973.80000  1.16239e-08      445080.
       973.90000  1.16239e-08      444964.
       974.00000  1.16239e-08      444848.
       974.10000  1.16239e-08      444964.
       974.20000  1.16239e-08      445196.
       974.30000  1.16239e-08      445313.
       974.40000  1.16239e-08      445429.
       974.50000  1.42968e-08      547996.
       974.60000  1.42968e-08      548139.
       974.70000  1.42968e-08      548282.
       974.80000  1.42968e-08      548425.
       974.90000  1.42968e-08      548425.
       975.00000  1.42968e-08      548568.
       975.10000  1.42968e-08      548711.
       975.20000  1.42968e-08      548711.
       975.30000  1.42968e-08      548854.
       975.40000  1.42968e-08      548854.
       975.50000  1.17338e-08      450459.
       975.60000  1.17338e-08      450576.
       975.70000  1.17338e-08      450576.
       975.80000  1.17338e-08      450576.
       975.90000  1.17338e-08      450576.
       976.00000  1.17338e-08      450576.
       976.10000  1.17338e-08      450459.
       976.20000  1.17338e-08      450342.
       976.30000  1.15094e-08      441615.
       976.40000  1.15094e-08      441500.
       976.50000  1.26582e-08      485569.
       976.60000  1.26582e-08      485443.
       976.70000  1.26582e-08      485316.
       976.80000  1.26582e-08      485189.
       976.90000  1.26582e-08      485189.
       977.00000  1.26582e-08      485063.
       977.10000  1.26582e-08      484936.
       977.20000  1.26582e-08      484810.
       977.30000  1.26582e-08      484810.
       977.40000  1.26582e-08      484683.
       977.50000  1.24804e-08      477750.
       977.60000  1.24804e-08      477750.
       977.70000  1.24804e-08      477625.
       977.80000  1.24804e-08      477500.
       977.90000  1.24804e-08      477500.
       978.00000  1.24804e-08      477376.
       978.10000  1.24804e-08      477376.
       978.20000  1.24804e-08      477251.
       978.30000  1.24804e-08      477251.
       978.40000  1.24804e-08      477126.
       978.50000  1.26642e-08      484025.
       978.60000  1.26642e-08      484025.
       978.70000  1.26642e-08      484025.
       978.80000  1.24177e-08      474480.
       978.90000  1.24177e-08      474480.
       979.00000  1.24177e-08      474356.
       979.10000  1.24177e-08      474356.
       979.20000  1.24177e-08      474231.
       979.30000  1.24177e-08      474231.
       979.40000  1.24177e-08      474231.
       979.50000  1.06949e-08      408332.
       979.60000  1.06949e-08      408332.
       979.70000  1.06949e-08      408332.
       979.80000  1.06949e-08      408225.
       979.90000  1.06949e-08      408225.
       980.00000  1.06949e-08      408225.
       980.10000  1.06949e-08      408439.
       980.20000  1.06949e-08      408546.
       980.30000  1.06949e-08      408760.
       980.40000  1.06949e-08      408867.
       980.50000  1.09947e-08      420549.
       980.60000  1.09947e-08      420659.
       980.70000  1.09947e-08      420769.
       980.80000  1.09947e-08      420879.
       980.90000  1.09947e-08      420989.
       981.00000  1.09947e-08      421099.
       981.10000  1.09947e-08      421209.
       981.20000  1.09947e-08      421319.
       981.30000  1.07723e-08      412793.
       981.40000  1.07723e-08      412901.
       981.50000  9.20772e-09      352932.
       981.60000  9.20772e-09      352932.
       981.70000  9.20772e-09      353024.
       981.80000  9.20772e-09      353024.
       981.90000  9.20772e-09      353024.
       982.00000  9.20772e-09      352932.
       982.10000  9.20772e-09      352840.
       982.20000  9.20772e-09      352656.
       982.30000  9.20772e-09      352564.
       982.40000  9.20772e-09      352379.
       982.50000  8.97787e-09      343493.
       982.60000  8.97787e-09      343314.
       982.70000  8.97787e-09      343224.
       982.80000  8.97787e-09      343134.
       982.90000  8.97787e-09      342955.
       983.00000  8.97787e-09      342865.
       983.10000  8.97787e-09      342775.
       983.20000  8.97787e-09      342685.
       983.30000  8.97787e-09      342596.
       983.40000  8.97787e-09      342416.
       983.50000  1.05976e-08      404085.
       983.60000  1.05976e-08      403979.
       983.70000  1.05976e-08      403873.
       983.80000  1.03885e-08      395803.
       983.90000  1.03885e-08      395699.
       984.00000  1.03885e-08      395595.
       984.10000  1.03885e-08      395595.
       984.20000  1.03885e-08      395492.
       984.30000  1.03885e-08      395388.
       984.40000  1.03885e-08      395284.
       984.50000  6.51108e-09      247747.
       984.60000  6.51108e-09      247682.
       984.70000  6.51108e-09      247616.
       984.80000  6.51108e-09      247616.
       984.90000  6.51108e-09      247551.
       985.00000  6.51108e-09      247486.
       985.10000  6.51108e-09      247486.
       985.20000  6.51108e-09      247421.
       985.30000  6.51108e-09      247421.
       985.40000  6.51108e-09      247421.
       985.50000  8.35041e-09      317232.
       985.60000  8.35041e-09      317232.
       985.70000  8.35041e-09      317232.
       985.80000  8.35041e-09      317149.
       985.90000  8.35041e-09      317149.
       986.00000  8.35041e-09      317149.
       986.10000  8.35041e-09      317065.
       986.20000  8.35041e-09      317065.
       986.30000  8.18584e-09      310816.
       986.40000  8.18584e-09      310734.
       986.50000  8.09075e-09      307044.
       986.60000  8.09075e-09      307044.
       986.70000  8.09075e-09      306963.
       986.80000  8.09075e-09      306963.
       986.90000  8.09075e-09      306882.
       987.00000  8.09075e-09      306801.
       987.10000  8.09075e-09      306720.
       987.20000  8.09075e-09      306720.
       987.30000  8.09075e-09      306640.
       987.40000  8.09075e-09      306559.
       987.50000  8.16580e-09      309320.
       987.60000  8.16580e-09      309239.
       987.70000  8.16580e-09      309157.
       987.80000  8.16580e-09      309075.
       987.90000  8.16580e-09      308994.
       988.00000  8.16580e-09      308912.
       988.10000  8.16580e-09      308667.
       988.20000  8.16580e-09      308504.
       988.30000  8.16580e-09      308259.
       988.40000  8.16580e-09      308096.
       988.50000  6.93191e-09      261402.
       988.60000  6.93191e-09      261264.
       988.70000  6.93191e-09      261125.
       988.80000  6.79684e-09      255901.
       988.90000  6.79684e-09      255765.
       989.00000  6.79684e-09      255697.
       989.10000  6.79684e-09      255629.
       989.20000  6.79684e-09      255493.
       989.30000  6.79684e-09      255425.
       989.40000  6.79684e-09      255357.
       989.50000  6.57634e-09      247007.
       989.60000  6.57634e-09      246942.
       989.70000  6.57634e-09      246942.
       989.80000  6.57634e-09      246876.
       989.90000  6.57634e-09      246876.
       990.00000  6.57634e-09      246876.
       990.10000  6.57634e-09      246810.
       990.20000  6.57634e-09      246810.
       990.30000  6.57634e-09      246876.
       990.40000  6.57634e-09      246876.
       990.50000  7.33211e-09      275247.
       990.60000  7.33211e-09      275321.
       990.70000  7.33211e-09      275321.
       990.80000  7.33211e-09      275394.
       990.90000  7.33211e-09      275467.
       991.00000  7.33211e-09      275541.
       991.10000  7.33211e-09      275614.
       991.20000  7.33211e-09      275687.
       991.30000  7.19624e-09      270650.
       991.40000  7.19624e-09      270794.
       991.50000  6.53317e-09      245909.
       991.60000  6.53317e-09      246039.
       991.70000  6.53317e-09      246170.
       991.80000  6.53317e-09      246301.
       991.90000  6.53317e-09      246431.
       992.00000  6.53317e-09      246562.
       992.10000  6.53317e-09      246627.
       992.20000  6.53317e-09      246627.
       992.30000  6.53317e-09      246627.
       992.40000  6.53317e-09      246627.
       992.50000  6.05404e-09      228601.
       992.60000  6.05404e-09      228601.
       992.70000  6.05404e-09      228601.
       992.80000  6.05404e-09      228601.
       992.90000  6.05404e-09      228601.
       993.00000  6.05404e-09      228661.
       993.10000  6.05404e-09      228661.
       993.20000  6.05404e-09      228661.
       993.30000  6.05404e-09      228661.
       993.40000  6.05404e-09      228661.
       993.50000  5.63190e-09      212717.
       993.60000  5.63190e-09      212717.
       993.70000  5.63190e-09      212717.
       993.80000  5.53471e-09      209046.
       993.90000  5.53471e-09      208991.
       994.00000  5.53471e-09      208991.
       994.10000  5.53471e-09      208991.
       994.20000  5.53471e-09      208935.
       994.30000  5.53471e-09      208935.
       994.40000  5.53471e-09      208880.
       994.50000  5.46836e-09      206376.
       994.60000  5.46836e-09      206321.
       994.70000  5.46836e-09      206321.
       994.80000  5.46836e-09      206266.
       994.90000  5.46836e-09      206266.
       995.00000  5.46836e-09      206212.
       995.10000  5.46836e-09      206212.
       995.20000  5.46836e-09      206212.
       995.30000  5.46836e-09      206157.
       995.40000  5.46836e-09      206157.
       995.50000  5.36808e-09      202376.
       995.60000  5.36808e-09      202323.
       995.70000  5.36808e-09      202323.
       995.80000  5.36808e-09      202323.
       995.90000  5.36808e-09      202323.
       996.00000  5.36808e-09      202269.
       996.10000  5.36808e-09      202323.
       996.20000  5.36808e-09      202323.
       996.30000  5.27810e-09      198932.
       996.40000  5.27810e-09      198932.
       996.50000  5.22017e-09      196748.
       996.60000  5.22017e-09      196748.
       996.70000  5.22017e-09      196748.
       996.80000  5.22017e-09      196748.
       996.90000  5.22017e-09      196748.
       997.00000  5.22017e-09      196748.
       997.10000  5.22017e-09      196748.
       997.20000  5.22017e-09      196748.
       997.30000  5.22017e-09      196748.
       997.40000  5.22017e-09      196748.
       997.50000  4.98748e-09      187978.
       997.60000  4.98748e-09      187978.
       997.70000  4.98748e-09      187978.
       997.80000  4.98748e-09      187978.
       997.90000  4.98748e-09      187978.
       998.00000  4.98748e-09      187928.
       998.10000  4.98748e-09      187928.
       998.20000  4.98748e-09      187879.
       998.30000  4.98748e-09      187879.
       998.40000  4.98748e-09      187829.
       998.50000  4.64642e-09      174938.
       998.60000  4.64642e-09      174938.
       998.70000  4.64642e-09      174891.
       998.80000  4.57560e-09      172226.
       998.90000  4.57560e-09      172226.
       999.00000  4.57560e-09      172180.
       999.10000  4.57560e-09      172180.
       999.20000  4.57560e-09      172134.
       999.30000  4.57560e-09      172134.
       999.40000  4.57560e-09      172134.
       999.50000  4.79505e-09      180342.
       999.60000  4.79505e-09      180342.
       999.70000  4.79505e-09      180342.
       999.80000  4.79505e-09      180342.
       999.90000  4.79505e-09      180342.
       1000.0000  4.79505e-09      180294.
       1000.1000  4.79505e-09      180294.
       1000.2000  4.79505e-09      180294.
       1000.3000  4.79505e-09      180294.
       1000.4000  4.79505e-09      180294.
       1000.5000  4.18700e-09      157431.
       1000.6000  4.18700e-09      157431.
       1000.7000  4.18700e-09      157431.
       1000.8000  4.18700e-09      157431.
       1000.9000  4.18700e-09      157431.
       1001.0000  4.18700e-09      157431.
       1001.1000  4.18700e-09      157431.
       1001.2000  4.18700e-09      157473.
       1001.3000  4.12520e-09      155149.
       1001.4000  4.12520e-09      155149.
       1001.5000  4.29747e-09      161628.
       1001.6000  4.29747e-09      161628.
       1001.7000  4.29747e-09      161671.
       1001.8000  4.29747e-09      161671.
       1001.9000  4.29747e-09      161671.
       1002.0000  4.29747e-09      161714.
       1002.1000  4.29747e-09      161456.
       1002.2000  4.29747e-09      161198.
       1002.3000  4.29747e-09      160983.
       1002.4000  4.29747e-09      160725.
       1002.5000  4.56246e-09      170408.
       1002.6000  4.56246e-09      170134.
       1002.7000  4.56246e-09      169906.
       1002.8000  4.56246e-09      169678.
       1002.9000  4.56246e-09      169450.
       1003.0000  4.56246e-09      169221.
       1003.1000  4.56246e-09      168993.
       1003.2000  4.56246e-09      168765.
       1003.3000  4.56246e-09      168583.
       1003.4000  4.56246e-09      168355.
       1003.5000  4.83421e-09      178189.
       1003.6000  4.83421e-09      177996.
       1003.7000  4.83421e-09      177754.
       1003.8000  4.76836e-09      175142.
       1003.9000  4.76836e-09      174951.
       1004.0000  4.76836e-09      174761.
       1004.1000  4.76836e-09      174474.
       1004.2000  4.76836e-09      174141.
       1004.3000  4.76836e-09      173902.
       1004.4000  4.76836e-09      173616.
       1004.5000  4.43636e-09      161306.
       1004.6000  4.43636e-09      161084.
       1004.7000  4.43636e-09      160907.
       1004.8000  4.43636e-09      160729.
       1004.9000  4.43636e-09      160596.
       1005.0000  4.43636e-09      160463.
       1005.1000  4.43636e-09      160330.
       1005.2000  4.43636e-09      160241.
       1005.3000  4.43636e-09      160153.
       1005.4000  4.43636e-09      160108.
       1005.5000  2.98033e-09      107530.
       1005.6000  2.98033e-09      107500.
       1005.7000  2.98033e-09      107500.
       1005.8000  2.98033e-09      107530.
       1005.9000  2.98033e-09      107530.
       1006.0000  2.98033e-09      107560.
       1006.1000  2.98033e-09      107620.
       1006.2000  2.98033e-09      107679.
       1006.3000  2.94241e-09      106368.
       1006.4000  2.94241e-09      106457.
       1006.5000  3.27971e-09      118758.
       1006.6000  3.27971e-09      118889.
       1006.7000  3.27971e-09      119021.
       1006.8000  3.27971e-09      119152.
       1006.9000  3.27971e-09      119316.
       1007.0000  3.27971e-09      119480.
       1007.1000  3.27971e-09      119677.
       1007.2000  3.27971e-09      119873.
       1007.3000  3.27971e-09      120070.
       1007.4000  3.27971e-09      120300.
       1007.5000  3.46794e-09      127447.
       1007.6000  3.46794e-09      127724.
       1007.7000  3.46794e-09      128002.
       1007.8000  3.46794e-09      128279.
       1007.9000  3.46794e-09      128591.
       1008.0000  3.46794e-09      128903.
       1008.1000  3.46794e-09      128938.
       1008.2000  3.46794e-09      128938.
       1008.3000  3.46794e-09      128938.
       1008.4000  3.46794e-09      128938.
       1008.5000  3.23531e-09      120289.
       1008.6000  3.23531e-09      120289.
       1008.7000  3.23531e-09      120289.
       1008.8000  3.19744e-09      118881.
       1008.9000  3.19744e-09      118881.
       1009.0000  3.19744e-09      118849.
       1009.1000  3.19744e-09      118849.
       1009.2000  3.19744e-09      118849.
       1009.3000  3.19744e-09      118849.
       1009.4000  3.19744e-09      118817.
       1009.5000  3.28363e-09      122020.
       1009.6000  3.28363e-09      122020.
       1009.7000  3.28363e-09      121987.
       1009.8000  3.28363e-09      121987.
       1009.9000  3.28363e-09      121954.
       1010.0000  3.28363e-09      121954.
       1010.1000  3.28363e-09      121921.
       1010.2000  3.28363e-09      121888.
       1010.3000  3.28363e-09      121855.
       1010.4000  3.28363e-09      121823.
       1010.5000  3.10503e-09      115166.
       1010.6000  3.10503e-09      115135.
       1010.7000  3.10503e-09      115104.
       1010.8000  3.10503e-09      115072.
       1010.9000  3.10503e-09      115041.
       1011.0000  3.10503e-09      115010.
       1011.1000  3.10503e-09      115010.
       1011.2000  3.10503e-09      114979.
       1011.3000  3.07078e-09      113680.
       1011.4000  3.07078e-09      113650.
       1011.5000  3.09302e-09      114442.
       1011.6000  3.09302e-09      114411.
       1011.7000  3.09302e-09      114380.
       1011.8000  3.09302e-09      114349.
       1011.9000  3.09302e-09      114318.
       1012.0000  3.09302e-09      114287.
       1012.1000  3.09302e-09      114256.
       1012.2000  3.09302e-09      114225.
       1012.3000  3.09302e-09      114194.
       1012.4000  3.09302e-09      114163.
       1012.5000  3.73061e-09      137659.
       1012.6000  3.73061e-09      137622.
       1012.7000  3.73061e-09      137585.
       1012.8000  3.73061e-09      137548.
       1012.9000  3.73061e-09      137548.
       1013.0000  3.73061e-09      137510.
       1013.1000  3.73061e-09      137473.
       1013.2000  3.73061e-09      137436.
       1013.3000  3.73061e-09      137398.
       1013.4000  3.73061e-09      137361.
       1013.5000  2.64560e-09      97384.5
       1013.6000  2.64560e-09      97358.0
       1013.7000  2.64560e-09      97331.6
       1013.8000  2.61839e-09      96304.5
       1013.9000  2.61839e-09      96278.3
       1014.0000  2.61839e-09      96252.1
       1014.1000  2.61839e-09      96199.8
       1014.2000  2.61839e-09      96147.4
       1014.3000  2.61839e-09      96095.0
       1014.4000  2.61839e-09      96042.7
       1014.5000  2.85625e-09      104739.
       1014.6000  2.85625e-09      104682.
       1014.7000  2.85625e-09      104625.
       1014.8000  2.85625e-09      104596.
       1014.9000  2.85625e-09      104539.
       1015.0000  2.85625e-09      104510.
       1015.1000  2.85625e-09      104453.
       1015.2000  2.85625e-09      104425.
       1015.3000  2.85625e-09      104396.
       1015.4000  2.85625e-09      104339.
       1015.5000  2.55339e-09      93249.8
       1015.6000  2.55339e-09      93224.2
       1015.7000  2.55339e-09      93198.7
       1015.8000  2.55339e-09      93173.2
       1015.9000  2.55339e-09      93147.6
       1016.0000  2.55339e-09      93122.1
       1016.1000  2.55339e-09      93122.1
       1016.2000  2.55339e-09      93122.1
       1016.3000  2.52913e-09      92237.2
       1016.4000  2.52913e-09      92211.9
       1016.5000  2.32219e-09      84667.1
       1016.6000  2.32219e-09      84667.1
       1016.7000  2.32219e-09      84667.1
       1016.8000  2.32219e-09      84643.9
       1016.9000  2.32219e-09      84643.9
       1017.0000  2.32219e-09      84620.6
       1017.1000  2.32219e-09      84620.6
       1017.2000  2.32219e-09      84597.4
       1017.3000  2.32219e-09      84597.4
       1017.4000  2.32219e-09      84574.2
       1017.5000  2.14219e-09      78018.6
       1017.6000  2.14219e-09      77997.2
       1017.7000  2.14219e-09      77975.8
       1017.8000  2.14219e-09      77954.3
       1017.9000  2.14219e-09      77932.9
       1018.0000  2.14219e-09      77932.9
       1018.1000  2.14219e-09      77890.1
       1018.2000  2.14219e-09      77847.2
       1018.3000  2.14219e-09      77804.4
       1018.4000  2.14219e-09      77761.5
       1018.5000  1.70127e-09      61739.0
       1018.6000  1.70127e-09      61705.0
       1018.7000  1.70127e-09      61688.0
       1018.8000  1.68569e-09      61089.4
       1018.9000  1.68569e-09      61072.5
       1019.0000  1.68569e-09      61038.8
       1019.1000  1.68569e-09      61022.0
       1019.2000  1.68569e-09      61005.1
       1019.3000  1.68569e-09      60988.2
       1019.4000  1.68569e-09      60954.5
       1019.5000  1.60163e-09      57899.0
       1019.6000  1.60163e-09      57883.0
       1019.7000  1.60163e-09      57866.9
       1019.8000  1.60163e-09      57866.9
       1019.9000  1.60163e-09      57850.9
       1020.0000  1.60163e-09      57834.9
       1020.1000  1.60163e-09      57818.9
       1020.2000  1.60163e-09      57802.9
       1020.3000  1.60163e-09      57802.9
       1020.4000  1.60163e-09      57786.9
       1020.5000  1.25522e-09      45288.2
       1020.6000  1.25522e-09      45275.7
       1020.7000  1.25522e-09      45275.7
       1020.8000  1.25522e-09      45263.1
       1020.9000  1.25522e-09      45263.1
       1021.0000  1.25522e-09      45263.1
       1021.1000  1.25522e-09      45263.1
       1021.2000  1.25522e-09      45263.1
       1021.3000  1.24589e-09      44926.8
       1021.4000  1.24589e-09      44926.8
       1021.5000  1.00697e-09      36311.4
       1021.6000  1.00697e-09      36311.4
       1021.7000  1.00697e-09      36311.4
       1021.8000  1.00697e-09      36321.5
       1021.9000  1.00697e-09      36321.5
       1022.0000  1.00697e-09      36331.5
       1022.1000  1.00697e-09      36331.5
       1022.2000  1.00697e-09      36341.6
       1022.3000  1.00697e-09      36351.7
       1022.4000  1.00697e-09      36351.7
       1022.5000  8.65916e-10      31268.2
       1022.6000  8.65916e-10      31276.9
       1022.7000  8.65916e-10      31285.6
       1022.8000  8.65916e-10      31294.2
       1022.9000  8.65916e-10      31302.9
       1023.0000  8.65916e-10      31311.5
       1023.1000  8.65916e-10      31328.8
       1023.2000  8.65916e-10      31337.5
       1023.3000  8.65916e-10      31346.2
       1023.4000  8.65916e-10      31363.5
       1023.5000  6.72387e-10      24360.6
       1023.6000  6.72387e-10      24374.0
       1023.7000  6.72387e-10      24380.8
       1023.8000  6.68168e-10      24241.1
       1023.9000  6.68168e-10      24254.5
       1024.0000  6.68168e-10      24267.9
       1024.1000  6.68168e-10      24267.9
       1024.2000  6.68168e-10      24261.2
       1024.3000  6.68168e-10      24261.2
       1024.4000  6.68168e-10      24261.2
       1024.5000  5.62119e-10      20410.5
       1024.6000  5.62119e-10      20404.9
       1024.7000  5.62119e-10      20404.9
       1024.8000  5.62119e-10      20404.9
       1024.9000  5.62119e-10      20399.3
       1025.0000  5.62119e-10      20399.3
       1025.1000  5.62119e-10      20399.3
       1025.2000  5.62119e-10      20393.7
       1025.3000  5.62119e-10      20393.7
       1025.4000  5.62119e-10      20393.7
       1025.5000  4.36328e-10      15825.6
       1025.6000  4.36328e-10      15825.6
       1025.7000  4.36328e-10      15821.3
       1025.8000  4.36328e-10      15821.3
       1025.9000  4.36328e-10      15816.9
       1026.0000  4.36328e-10      15816.9
       1026.1000  4.36328e-10      15816.9
       1026.2000  4.36328e-10      15812.5
       1026.3000  4.33607e-10      15713.9
       1026.4000  4.33607e-10      15709.6
       1026.5000  3.56551e-10      12917.8
       1026.6000  3.56551e-10      12914.3
       1026.7000  3.56551e-10      12910.7
       1026.8000  3.56551e-10      12910.7
       1026.9000  3.56551e-10      12907.1
       1027.0000  3.56551e-10      12907.1
       1027.1000  3.56551e-10      12903.6
       1027.2000  3.56551e-10      12900.0
       1027.3000  3.56551e-10      12900.0
       1027.4000  3.56551e-10      12896.4
       1027.5000  2.42074e-10      8753.38
       1027.6000  2.42074e-10      8753.38
       1027.7000  2.42074e-10      8750.96
       1027.8000  2.42074e-10      8748.54
       1027.9000  2.42074e-10      8746.12
       1028.0000  2.42074e-10      8743.70
       1028.1000  2.42074e-10      8743.70
       1028.2000  2.42074e-10      8741.28
       1028.3000  2.42074e-10      8738.86
       1028.4000  2.42074e-10      8736.44
       1028.5000  2.12968e-10      7683.90
       1028.6000  2.12968e-10      7681.77
       1028.7000  2.12968e-10      7679.64
       1028.8000  2.11142e-10      7611.67
       1028.9000  2.11142e-10      7609.56
       1029.0000  2.11142e-10      7607.44
       1029.1000  2.11142e-10      7605.33
       1029.2000  2.11142e-10      7603.22
       1029.3000  2.11142e-10      7601.11
       1029.4000  2.11142e-10      7599.00
       1029.5000  1.48896e-10      5357.27
       1029.6000  1.48896e-10      5355.78
       1029.7000  1.48896e-10      5354.29
       1029.8000  1.48896e-10      5352.80
       1029.9000  1.48896e-10      5351.31
       1030.0000  1.48896e-10      5348.34
       1030.1000  1.48896e-10      5349.83
       1030.2000  1.48896e-10      5349.83
       1030.3000  1.48896e-10      5349.83
       1030.4000  1.48896e-10      5349.83
       1030.5000  1.26936e-10      4560.82
       1030.6000  1.26936e-10      4560.82
       1030.7000  1.26936e-10      4559.55
       1030.8000  1.26936e-10      4559.55
       1030.9000  1.26936e-10      4559.55
       1031.0000  1.26936e-10      4558.28
       1031.1000  1.26936e-10      4558.28
       1031.2000  1.26936e-10      4557.02
       1031.3000  1.25209e-10      4495.01
       1031.4000  1.25209e-10      4493.76
       1031.5000  1.23837e-10      4443.28
       1031.6000  1.23837e-10      4442.05
       1031.7000  1.23837e-10      4440.81
       1031.8000  1.23837e-10      4439.57
       1031.9000  1.23837e-10      4438.33
       1032.0000  1.23837e-10      4437.09
       1032.1000  1.23837e-10      4433.38
       1032.2000  1.23837e-10      4428.42
       1032.3000  1.23837e-10      4424.71
       1032.4000  1.23837e-10      4422.23
       1032.5000  9.42575e-11      3363.11
       1032.6000  9.42575e-11      3360.28
       1032.7000  9.42575e-11      3358.40
       1032.8000  9.42575e-11      3355.57
       1032.9000  9.42575e-11      3353.68
       1033.0000  9.42575e-11      3351.80
       1033.1000  9.42575e-11      3349.91
       1033.2000  9.42575e-11      3348.97
       1033.3000  9.42575e-11      3347.09
       1033.4000  9.42575e-11      3346.14
       1033.5000  8.74188e-11      3101.62
       1033.6000  8.74188e-11      3100.74
       1033.7000  8.74188e-11      3099.87
       1033.8000  8.57548e-11      3040.01
       1033.9000  8.57548e-11      3040.01
       1034.0000  8.57548e-11      3039.15
       1034.1000  8.57548e-11      3039.15
       1034.2000  8.57548e-11      3038.29
       1034.3000  8.57548e-11      3038.29
       1034.4000  8.57548e-11      3038.29
       1034.5000  4.93665e-11      1749.06
       1034.6000  4.93665e-11      1749.55
       1034.7000  4.93665e-11      1749.55
       1034.8000  4.93665e-11      1750.04
       1034.9000  4.93665e-11      1750.04
       1035.0000  4.93665e-11      1750.54
       1035.1000  4.93665e-11      1751.03
       1035.2000  4.93665e-11      1751.52
       1035.3000  4.93665e-11      1752.51
       1035.4000  4.93665e-11      1753.00
       1035.5000  3.34805e-11      1189.56
       1035.6000  3.34805e-11      1190.23
       1035.7000  3.34805e-11      1190.57
       1035.8000  3.34805e-11      1191.24
       1035.9000  3.34805e-11      1192.24
       1036.0000  3.34805e-11      1192.91
       1036.1000  3.34805e-11      1192.24
       1036.2000  3.34805e-11      1191.57
       1036.3000  3.26988e-11      1163.10
       1036.4000  3.26988e-11      1162.44
       1036.5000  2.65590e-11      943.643
       1036.6000  2.65590e-11      943.112
       1036.7000  2.65590e-11      942.846
       1036.8000  2.65590e-11      942.315
       1036.9000  2.65590e-11      941.784
       1037.0000  2.65590e-11      941.518
       1037.1000  2.65590e-11      941.252
       1037.2000  2.65590e-11      940.721
       1037.3000  2.65590e-11      940.456
       1037.4000  2.65590e-11      940.190
       1037.5000  2.50869e-11      887.827
       1037.6000  2.50869e-11      887.576
       1037.7000  2.50869e-11      887.325
       1037.8000  2.50869e-11      887.074
       1037.9000  2.50869e-11      886.824
       1038.0000  2.50869e-11      886.573
       1038.1000  2.50869e-11      886.573
       1038.2000  2.50869e-11      886.573
       1038.3000  2.50869e-11      886.824
       1038.4000  2.50869e-11      886.824
       1038.5000  1.90004e-11      671.664
       1038.6000  1.90004e-11      671.664
       1038.7000  1.90004e-11      671.664
       1038.8000  1.85060e-11      654.188
       1038.9000  1.85060e-11      654.188
       1039.0000  1.85060e-11      654.188
       1039.1000  1.85060e-11      654.188
       1039.2000  1.85060e-11      654.188
       1039.3000  1.85060e-11      654.188
       1039.4000  1.85060e-11      654.188
       1039.5000  1.59700e-11      564.539
       1039.6000  1.59700e-11      564.539
       1039.7000  1.59700e-11      564.539
       1039.8000  1.59700e-11      564.539
       1039.9000  1.59700e-11      564.539
       1040.0000  1.59700e-11      564.539
       1040.1000  1.59700e-11      564.539
       1040.2000  1.59700e-11      564.539
       1040.3000  1.59700e-11      564.539
       1040.4000  1.59700e-11      564.539
       1040.5000  1.43066e-11      505.738
       1040.6000  1.43066e-11      505.738
       1040.7000  1.43066e-11      505.738
       1040.8000  1.43066e-11      505.738
       1040.9000  1.43066e-11      505.738
       1041.0000  1.43066e-11      505.738
       1041.1000  1.43066e-11      505.738
       1041.2000  1.43066e-11      505.738
       1041.3000  1.38968e-11      491.253
       1041.4000  1.38968e-11      491.253
       1041.5000  1.12890e-11      399.068
       1041.6000  1.12890e-11      399.068
       1041.7000  1.12890e-11      399.068
       1041.8000  1.12890e-11      398.955
       1041.9000  1.12890e-11      398.955
       1042.0000  1.12890e-11      398.955
       1042.1000  1.12890e-11      399.068
       1042.2000  1.12890e-11      399.068
       1042.3000  1.12890e-11      399.180
       1042.4000  1.12890e-11      399.180
       1042.5000  8.33259e-12      294.640
       1042.6000  8.33259e-12      294.640
       1042.7000  8.33259e-12      294.640
       1042.8000  8.33259e-12      294.557
       1042.9000  8.33259e-12      294.557
       1043.0000  8.33259e-12      294.557
       1043.1000  8.33259e-12      294.474
       1043.2000  8.33259e-12      294.390
       1043.3000  8.33259e-12      294.390
       1043.4000  8.33259e-12      294.307
       1043.5000  6.96160e-12      245.814
       1043.6000  6.96160e-12      245.744
       1043.7000  6.96160e-12      245.675
       1043.8000  6.76245e-12      238.512
       1043.9000  6.76245e-12      238.444
       1044.0000  6.76245e-12      238.309
       1044.1000  6.76245e-12      238.038
       1044.2000  6.76245e-12      237.700
       1044.3000  6.76245e-12      237.430
       1044.4000  6.76245e-12      237.159
       1044.5000  5.09958e-12      178.638
       1044.6000  5.09958e-12      178.485
       1044.7000  5.09958e-12      178.281
       1044.8000  5.09958e-12      178.128
       1044.9000  5.09958e-12      177.975
       1045.0000  5.09958e-12      177.822
       1045.1000  5.09958e-12      177.721
       1045.2000  5.09958e-12      177.568
       1045.3000  5.09958e-12      177.466
       1045.4000  5.09958e-12      177.364
       1045.5000  4.51455e-12      156.971
       1045.6000  4.51455e-12      156.880
       1045.7000  4.51455e-12      156.835
       1045.8000  4.51455e-12      156.790
       1045.9000  4.51455e-12      156.745
       1046.0000  4.51455e-12      156.700
       1046.1000  4.51455e-12      156.700
       1046.2000  4.51455e-12      156.655
       1046.3000  4.38639e-12      152.208
       1046.4000  4.38639e-12      152.208
       1046.5000  3.41070e-12      118.385
       1046.6000  3.41070e-12      118.385
       1046.7000  3.41070e-12      118.419
       1046.8000  3.41070e-12      118.453
       1046.9000  3.41070e-12      118.488
       1047.0000  3.41070e-12      118.556
       1047.1000  3.41070e-12      118.590
       1047.2000  3.41070e-12      118.658
       1047.3000  3.41070e-12      118.726
       1047.4000  3.41070e-12      118.795
       1047.5000  2.95789e-12      103.112
       1047.6000  2.95789e-12      103.171
       1047.7000  2.95789e-12      103.260
       1047.8000  2.95789e-12      103.349
       1047.9000  2.95789e-12      103.438
       1048.0000  2.95789e-12      103.556
       1048.1000  2.95789e-12      103.556
       1048.2000  2.95789e-12      103.556
       1048.3000  2.95789e-12      103.556
       1048.4000  2.95789e-12      103.526
       1048.5000  2.20502e-12      77.1757
       1048.6000  2.20502e-12      77.1757
       1048.7000  2.20502e-12      77.1757
       1048.8000  2.14735e-12      75.1574
       1048.9000  2.14735e-12      75.1574
       1049.0000  2.14735e-12      75.1359
       1049.1000  2.14735e-12      75.1359
       1049.2000  2.14735e-12      75.1359
       1049.3000  2.14735e-12      75.1144
       1049.4000  2.14735e-12      75.1144
       1049.5000  2.10665e-12      73.6907
       1049.6000  2.10665e-12      73.6696
       1049.7000  2.10665e-12      73.6696
       1049.8000  2.10665e-12      73.6696
       1049.9000  2.10665e-12      73.6485
       1050.0000  2.10665e-12      73.6485
       1050.1000  2.10665e-12      73.6275
       1050.2000  2.10665e-12      73.6275
       1050.3000  2.10665e-12      73.6064
       1050.4000  2.10665e-12      73.5853
       1050.5000  1.64637e-12      57.5078
       1050.6000  1.64637e-12      57.4914
       1050.7000  1.64637e-12      57.4914
       1050.8000  1.64637e-12      57.4749
       1050.9000  1.64637e-12      57.4585
       1051.0000  1.64637e-12      57.4585
       1051.1000  1.64637e-12      57.4420
       1051.2000  1.64637e-12      57.4420
       1051.3000  1.60953e-12      56.1405
       1051.4000  1.60953e-12      56.1244
       1051.5000  1.22812e-12      42.8244
       1051.6000  1.22812e-12      42.8121
       1051.7000  1.22812e-12      42.7998
       1051.8000  1.22812e-12      42.7998
       1051.9000  1.22812e-12      42.7876
       1052.0000  1.22812e-12      42.7876
       1052.1000  1.22812e-12      42.7753
       1052.2000  1.22812e-12      42.7630
       1052.3000  1.22812e-12      42.7630
       1052.4000  1.22812e-12      42.7507
       1052.5000  9.09358e-13      31.6457
       1052.6000  9.09358e-13      31.6457
       1052.7000  9.09358e-13      31.6366
       1052.8000  9.09358e-13      31.6275
       1052.9000  9.09358e-13      31.6275
       1053.0000  9.09358e-13      31.6184
       1053.1000  9.09358e-13      31.6184
       1053.2000  9.09358e-13      31.6093
       1053.3000  9.09358e-13      31.6002
       1053.4000  9.09358e-13      31.6002
       1053.5000  7.08358e-13      24.6084
       1053.6000  7.08358e-13      24.6013
       1053.7000  7.08358e-13      24.6013
       1053.8000  6.95127e-13      24.1348
       1053.9000  6.95127e-13      24.1279
       1054.0000  6.95127e-13      24.1279
       1054.1000  6.95127e-13      24.1418
       1054.2000  6.95127e-13      24.1487
       1054.3000  6.95127e-13      24.1626
       1054.4000  6.95127e-13      24.1765
       1054.5000  4.88315e-13      16.9885
       1054.6000  4.88315e-13      16.9934
       1054.7000  4.88315e-13      16.9982
       1054.8000  4.88315e-13      17.0031
       1054.9000  4.88315e-13      17.0080
       1055.0000  4.88315e-13      17.0129
       1055.1000  4.88315e-13      17.0129
       1055.2000  4.88315e-13      17.0129
       1055.3000  4.88315e-13      17.0178
       1055.4000  4.88315e-13      17.0178
       1055.5000  3.64870e-13      12.7121
       1055.6000  3.64870e-13      12.7121
       1055.7000  3.64870e-13      12.7121
       1055.8000  3.64870e-13      12.7084
       1055.9000  3.64870e-13      12.7048
       1056.0000  3.64870e-13      12.7011
       1056.1000  3.64870e-13      12.6902
       1056.2000  3.64870e-13      12.6792
       1056.3000  3.58216e-13      12.4373
       1056.4000  3.58216e-13      12.4229
       1056.5000  2.03986e-13      7.06812
       1056.6000  2.03986e-13      7.06404
       1056.7000  2.03986e-13      7.05792
       1056.8000  2.03986e-13      7.05180
       1056.9000  2.03986e-13      7.04568
       1057.0000  2.03986e-13      7.04160
